Data from 1597-1_forehead_Reflection__4__44.txt Node

Date: Fri Nov 11 16:28:16 CST 2022
User: ToomeyLab
Spectrometer: FLMS14357
Trigger mode: 0
Integration Time (sec): 1.000000E-2
Scans to average: 100
Electric dark correction enabled: true
Nonlinearity correction enabled: false
Boxcar width: 0
XAxis mode: Wavelengths
Number of Pixels in Spectrum: 2048
>>>>>Begin Spectral Data<<<<<
189.047	-1.07
189.435	-1.07
189.823	-1.07
190.211	12.45
190.599	93.75
190.987	694.76
191.375	-26.15
191.763	324.94
192.151	836.96
192.538	60.64
192.926	90.3
193.314	518.49
193.702	584.92
194.089	42.74
194.477	128.45
194.864	-5.6
195.252	216.24
195.639	77.34
196.027	-321.75
196.414	55.93
196.801	107.21
197.189	31.44
197.576	-33.92
197.963	128.03
198.351	13.85
198.738	-25.62
199.125	33.73
199.512	-23.7
199.899	31.89
200.286	46.19
200.673	39.55
201.06	-1.27
201.447	28.12
201.833	55.26
202.22	29.63
202.607	31.51
202.994	-0.43
203.38	15.67
203.767	20.19
204.154	4.69
204.54	75.81
204.927	19.64
205.313	18.31
205.699	56.96
206.086	36.51
206.472	56.09
206.858	2.61
207.245	18.24
207.631	41.76
208.017	19.7
208.403	39.07
208.789	3.78
209.175	18.66
209.561	32.68
209.947	25.76
210.333	49.37
210.719	45.96
211.105	-4.08
211.491	-44.15
211.876	47.35
212.262	8.87
212.648	32.18
213.034	7.71
213.419	-4.18
213.805	3.5
214.19	-19.26
214.576	3.98
214.961	19.34
215.346	8.3
215.732	-20.57
216.117	29.22
216.502	24.63
216.888	45.62
217.273	-14.37
217.658	-2.55
218.043	2.63
218.428	18.34
218.813	25.26
219.198	-14.92
219.583	-5.38
219.968	12.63
220.353	-26.66
220.738	-15.14
221.122	6.49
221.507	26.49
221.892	10.95
222.276	14.54
222.661	17.44
223.046	27.68
223.43	3.85
223.815	7.65
224.199	9.6
224.583	-3.3
224.968	21.59
225.352	7.44
225.736	7.75
226.121	2.69
226.505	12.73
226.889	3.92
227.273	1.13
227.657	-3.34
228.041	2.5
228.425	5.44
228.809	6.69
229.193	-0.57
229.577	2.4
229.961	1.54
230.344	2.68
230.728	1.8
231.112	2.3
231.495	2.52
231.879	1.94
232.263	1.09
232.646	2.51
233.03	2.28
233.413	1.63
233.797	2.79
234.18	2.58
234.563	3.07
234.946	0.23
235.33	4.33
235.713	3.16
236.096	0.73
236.479	1.7
236.862	3.25
237.245	1.8
237.628	1.48
238.011	2.36
238.394	3.43
238.777	2.62
239.16	3.73
239.543	2.28
239.925	3.01
240.308	1.73
240.691	1.57
241.073	1.4
241.456	1.03
241.838	2.6
242.221	1.27
242.603	1.35
242.986	1.88
243.368	2.03
243.75	2.53
244.133	1.97
244.515	2.33
244.897	1.82
245.279	1.92
245.661	2.14
246.043	3.3
246.425	3.22
246.807	1.69
247.189	1.51
247.571	1.31
247.953	1.88
248.335	2.27
248.717	2.16
249.098	1.95
249.48	2.07
249.862	2.14
250.243	2.34
250.625	2.08
251.006	3.03
251.388	2.5
251.769	2.95
252.151	2.75
252.532	4.06
252.913	1.53
253.295	2.43
253.676	1.96
254.057	2.21
254.438	2.23
254.819	2.34
255.2	2.78
255.581	2.57
255.962	2.24
256.343	3.22
256.724	2.61
257.105	2.49
257.486	3.03
257.867	2.02
258.247	3.36
258.628	2.16
259.009	3
259.389	2.52
259.77	3.02
260.15	3.08
260.531	1.99
260.911	2.13
261.292	2.27
261.672	2.1
262.052	2.24
262.432	2.67
262.813	2.3
263.193	2.65
263.573	3.05
263.953	2.45
264.333	2.6
264.713	2.08
265.093	2.76
265.473	2.88
265.853	2.52
266.233	2.88
266.612	2.65
266.992	2.2
267.372	2.32
267.752	2.75
268.131	2.62
268.511	2.59
268.89	2.63
269.27	2.24
269.649	1.53
270.029	1.87
270.408	2.01
270.787	2.99
271.167	1.85
271.546	2.38
271.925	2.56
272.304	2.08
272.683	2.01
273.062	2.39
273.441	2.32
273.82	2.38
274.199	2.37
274.578	2.39
274.957	1.65
275.336	1.95
275.715	2.43
276.093	2.83
276.472	2.45
276.851	2.87
277.229	2.62
277.608	2.87
277.986	2.08
278.365	2.38
278.743	2.24
279.122	2.23
279.5	2.57
279.878	2.38
280.257	2.09
280.635	2.04
281.013	2.34
281.391	2.22
281.769	2.92
282.147	2.04
282.525	2.48
282.903	2.66
283.281	2.23
283.659	2.28
284.037	2.04
284.415	2.45
284.792	2.41
285.17	2.2
285.548	2.45
285.925	2.64
286.303	2.24
286.68	2.22
287.058	1.96
287.435	2.31
287.813	2.15
288.19	2.37
288.567	2.43
288.945	2.19
289.322	2.17
289.699	2.56
290.076	2.44
290.453	2.38
290.83	2.45
291.207	2.48
291.584	2.05
291.961	2.48
292.338	2.78
292.715	2.54
293.092	2.47
293.469	3.01
293.845	2.73
294.222	3.25
294.599	2.77
294.975	2.87
295.352	2.43
295.728	2.61
296.105	3.13
296.481	2.55
296.858	2.53
297.234	2.78
297.61	2.43
297.986	2.31
298.363	2.89
298.739	2.93
299.115	2.79
299.491	2.89
299.867	2.85
300.243	2.49
300.619	3.21
300.995	2.81
301.371	2.48
301.746	3.31
302.122	3.23
302.498	2.52
302.874	3.04
303.249	3.29
303.625	3.22
304	3.16
304.376	3.17
304.751	3.94
305.127	3.99
305.502	3.32
305.878	3.94
306.253	3.87
306.628	3.92
307.003	3.18
307.378	3.66
307.754	4.05
308.129	3.54
308.504	3.67
308.879	3.57
309.254	3.18
309.629	3.54
310.003	3.7
310.378	3.09
310.753	3.38
311.128	3.94
311.502	3.72
311.877	3.67
312.252	3.76
312.626	4.04
313.001	3.89
313.375	4.17
313.75	4.32
314.124	4.02
314.498	4.6
314.873	4.38
315.247	4.07
315.621	4.28
315.995	4.44
316.369	4.6
316.743	4.25
317.117	4.23
317.491	4.44
317.865	4.79
318.239	4.69
318.613	4.84
318.987	4.9
319.361	4.81
319.734	4.35
320.108	5.1
320.482	4.88
320.855	4.85
321.229	5.39
321.602	4.8
321.976	4.46
322.349	5.5
322.723	5.43
323.096	5.21
323.469	5.7
323.843	5.92
324.216	5.13
324.589	4.73
324.962	5.39
325.335	5.57
325.708	5.43
326.081	5.3
326.454	5.76
326.827	6.1
327.2	5.51
327.573	5.78
327.945	5.85
328.318	6.1
328.691	6.06
329.063	5.85
329.436	5.72
329.809	5.42
330.181	6.46
330.553	6.28
330.926	5.48
331.298	5.64
331.671	6.05
332.043	6.69
332.415	5.85
332.787	6.16
333.159	6.61
333.532	5.82
333.904	5.53
334.276	6.42
334.648	5.95
335.02	6.96
335.391	6.69
335.763	6.43
336.135	6.48
336.507	6.38
336.879	6.4
337.25	5.41
337.622	6.69
337.993	6.57
338.365	6.27
338.736	6.62
339.108	6.5
339.479	6.71
339.851	6.16
340.222	6.62
340.593	6.34
340.964	6.66
341.336	6.37
341.707	7.06
342.078	7.12
342.449	6.67
342.82	6.88
343.191	7.52
343.562	7.23
343.933	6.64
344.303	7.1
344.674	6.92
345.045	6.77
345.416	6.95
345.786	7.04
346.157	6.75
346.527	7.3
346.898	6.98
347.268	7.22
347.639	7.35
348.009	6.95
348.38	6.99
348.75	7.6
349.12	7.38
349.49	7.13
349.861	7.38
350.231	7.46
350.601	7.86
350.971	7.64
351.341	7.65
351.711	7.49
352.081	6.91
352.45	7.78
352.82	7.55
353.19	7.67
353.56	7.47
353.929	7.93
354.299	7.98
354.669	7.85
355.038	7.71
355.408	7.83
355.777	7.94
356.147	7.83
356.516	8.18
356.885	7.9
357.254	7.96
357.624	8.08
357.993	8.07
358.362	7.81
358.731	7.74
359.1	7.69
359.469	7.85
359.838	8.37
360.207	8.28
360.576	7.98
360.945	8.32
361.314	8.48
361.682	8.36
362.051	8.1
362.42	8.24
362.788	7.95
363.157	8.16
363.525	8.22
363.894	8.24
364.262	8.23
364.631	8.48
364.999	8.53
365.367	8.42
365.735	8.64
366.104	8.49
366.472	8.83
366.84	8.75
367.208	8.6
367.576	8.93
367.944	9.03
368.312	8.92
368.68	8.93
369.048	9.04
369.416	8.88
369.783	8.69
370.151	8.87
370.519	9.04
370.886	9.18
371.254	8.78
371.621	8.98
371.989	8.73
372.356	8.84
372.724	9.31
373.091	8.95
373.458	9.13
373.826	9.2
374.193	9.14
374.56	9.08
374.927	9.22
375.294	9.37
375.661	9.86
376.028	9.53
376.395	9.42
376.762	9.73
377.129	9.62
377.496	9.53
377.863	9.79
378.229	9.6
378.596	9.75
378.963	9.61
379.329	9.58
379.696	9.74
380.062	9.71
380.429	9.64
380.795	9.98
381.161	9.91
381.528	9.84
381.894	10.2
382.26	9.86
382.626	10.01
382.993	10.16
383.359	10.28
383.725	10.19
384.091	10.12
384.457	10.24
384.823	10.19
385.188	9.97
385.554	10.15
385.92	9.93
386.286	10
386.651	10.29
387.017	10.2
387.383	10.52
387.748	10.57
388.114	10.41
388.479	10.37
388.845	10.48
389.21	10.6
389.575	10.57
389.94	10.79
390.306	10.65
390.671	10.66
391.036	10.68
391.401	10.55
391.766	10.91
392.131	10.37
392.496	10.73
392.861	10.72
393.226	10.75
393.591	10.69
393.956	10.91
394.32	11.19
394.685	11.04
395.05	11.13
395.414	11.07
395.779	11
396.143	11.13
396.508	10.97
396.872	11.12
397.236	11.29
397.601	11.21
397.965	11.12
398.329	11.34
398.694	11.07
399.058	11.21
399.422	11.39
399.786	11.42
400.15	11.41
400.514	11.48
400.878	11.66
401.242	11.57
401.605	11.4
401.969	11.5
402.333	11.6
402.697	11.6
403.06	11.8
403.424	11.42
403.787	11.86
404.151	11.68
404.514	11.86
404.878	11.93
405.241	11.8
405.604	11.62
405.968	11.76
406.331	11.61
406.694	12.02
407.057	11.98
407.42	12.01
407.783	12.03
408.146	12.15
408.509	12.27
408.872	12.11
409.235	12.3
409.598	12.08
409.961	12.1
410.323	12.37
410.686	12.48
411.049	12.33
411.411	12.26
411.774	12.19
412.136	12.37
412.499	12.31
412.861	12.29
413.223	12.47
413.586	12.48
413.948	12.32
414.31	12.48
414.672	12.87
415.035	12.57
415.397	12.79
415.759	12.72
416.121	12.79
416.483	12.55
416.845	12.6
417.206	12.64
417.568	12.7
417.93	12.75
418.292	12.59
418.653	12.64
419.015	12.62
419.377	12.56
419.738	12.7
420.1	12.69
420.461	12.62
420.822	12.53
421.184	12.7
421.545	12.58
421.906	12.66
422.267	12.76
422.629	12.69
422.99	12.54
423.351	12.74
423.712	12.82
424.073	12.94
424.434	12.82
424.795	13.12
425.155	12.98
425.516	12.98
425.877	12.91
426.238	12.91
426.598	12.92
426.959	13.02
427.32	13.22
427.68	13.28
428.041	13.28
428.401	13.25
428.761	13.47
429.122	13.6
429.482	13.56
429.842	13.77
430.202	13.58
430.563	13.54
430.923	13.64
431.283	13.8
431.643	14.02
432.003	13.91
432.363	13.97
432.722	13.87
433.082	13.82
433.442	14.04
433.802	13.92
434.161	13.91
434.521	13.79
434.881	13.71
435.24	13.91
435.6	13.77
435.959	13.78
436.319	13.83
436.678	14.02
437.037	14.23
437.396	13.95
437.756	14.02
438.115	14.05
438.474	14.18
438.833	14.16
439.192	14.37
439.551	14.08
439.91	14.3
440.269	14.21
440.628	14.28
440.987	14.3
441.345	14.28
441.704	14.2
442.063	14.37
442.421	14.17
442.78	14.27
443.138	14.28
443.497	14.49
443.855	14.69
444.214	14.6
444.572	14.69
444.93	14.56
445.288	14.66
445.647	14.56
446.005	14.66
446.363	14.66
446.721	14.52
447.079	14.61
447.437	14.55
447.795	14.39
448.153	14.51
448.51	14.47
448.868	14.69
449.226	14.67
449.584	14.85
449.941	14.9
450.299	14.95
450.656	15.05
451.014	15.18
451.371	15.02
451.729	15.29
452.086	15.26
452.443	15.31
452.801	15.33
453.158	15.38
453.515	15.31
453.872	15.45
454.229	15.22
454.586	15.24
454.943	15.44
455.3	15.47
455.657	15.5
456.014	15.5
456.371	15.51
456.727	15.45
457.084	15.65
457.441	15.56
457.797	15.64
458.154	15.7
458.51	15.98
458.867	15.81
459.223	15.68
459.58	15.91
459.936	15.88
460.292	15.65
460.648	15.61
461.005	15.71
461.361	15.51
461.717	15.3
462.073	15.76
462.429	15.92
462.785	15.84
463.141	16
463.496	16.1
463.852	16.28
464.208	16.21
464.564	16.33
464.919	16.4
465.275	16.36
465.631	16.46
465.986	16.33
466.342	16.47
466.697	16.29
467.052	16.47
467.408	16.57
467.763	16.47
468.118	16.45
468.473	16.42
468.829	16.44
469.184	16.74
469.539	16.7
469.894	16.83
470.249	16.85
470.603	16.72
470.958	16.95
471.313	16.62
471.668	16.78
472.023	16.89
472.377	17.08
472.732	16.89
473.086	16.94
473.441	16.92
473.795	17.03
474.15	17
474.504	17.17
474.859	17.07
475.213	17.07
475.567	17.28
475.921	17.39
476.275	17.22
476.63	17.33
476.984	17.14
477.338	17.3
477.692	17.1
478.045	17.31
478.399	17.09
478.753	17.22
479.107	17.32
479.461	17.34
479.814	17.38
480.168	17.32
480.521	17.38
480.875	17.52
481.228	17.41
481.582	17.64
481.935	17.55
482.289	17.65
482.642	17.6
482.995	17.45
483.348	17.31
483.701	17.41
484.055	17.32
484.408	17.06
484.761	16.83
485.114	16.44
485.466	16.22
485.819	16.41
486.172	16.71
486.525	17.09
486.878	17.25
487.23	17.36
487.583	17.51
487.936	17.42
488.288	17.27
488.641	17.01
488.993	16.9
489.345	16.87
489.698	17.02
490.05	17.19
490.402	17.31
490.754	17.66
491.107	17.76
491.459	17.87
491.811	17.88
492.163	18.08
492.515	17.8
492.866	17.43
493.218	17.11
493.57	17.25
493.922	17.57
494.274	17.94
494.625	17.98
494.977	18.28
495.328	18.46
495.68	18.59
496.031	18.64
496.383	18.7
496.734	18.68
497.086	18.66
497.437	18.58
497.788	18.64
498.139	18.44
498.49	18.38
498.842	18.48
499.193	18.55
499.544	18.63
499.894	18.69
500.245	18.83
500.596	18.78
500.947	18.87
501.298	18.85
501.648	19.02
501.999	19.1
502.35	19.1
502.7	19.14
503.051	19.07
503.401	19.11
503.752	19.18
504.102	19.29
504.452	19.32
504.803	19.26
505.153	19.31
505.503	19.34
505.853	19.44
506.203	19.39
506.553	19.44
506.903	19.18
507.253	19.46
507.603	19.66
507.953	19.54
508.303	19.63
508.652	19.45
509.002	19.5
509.352	19.52
509.701	19.4
510.051	19.44
510.4	19.42
510.75	19.38
511.099	19.45
511.449	19.45
511.798	19.48
512.147	19.59
512.496	19.67
512.846	19.65
513.195	19.66
513.544	19.73
513.893	19.7
514.242	19.62
514.591	19.75
514.939	20.08
515.288	20.01
515.637	19.92
515.986	19.97
516.334	20.03
516.683	20.15
517.032	20.07
517.38	20.26
517.729	20.28
518.077	20.13
518.426	20.21
518.774	19.94
519.122	19.98
519.47	19.94
519.819	19.87
520.167	19.7
520.515	19.77
520.863	19.89
521.211	20.07
521.559	20.23
521.907	20.31
522.255	20.42
522.602	20.56
522.95	20.64
523.298	20.55
523.645	20.58
523.993	20.54
524.341	20.77
524.688	20.63
525.036	20.78
525.383	20.5
525.73	20.53
526.078	20.66
526.425	20.51
526.772	20.36
527.119	20.17
527.466	20.11
527.814	20.18
528.161	20.37
528.508	20.49
528.854	20.48
529.201	20.38
529.548	20.16
529.895	19.76
530.242	19.49
530.588	19.69
530.935	20.08
531.282	20.45
531.628	20.57
531.975	20.6
532.321	20.74
532.667	20.83
533.014	20.9
533.36	20.89
533.706	20.92
534.052	20.85
534.399	20.6
534.745	20.36
535.091	20.24
535.437	20.43
535.783	20.76
536.129	21.13
536.474	21.26
536.82	21.38
537.166	21.24
537.512	21.28
537.857	21.29
538.203	20.97
538.549	20.9
538.894	21.08
539.239	21.41
539.585	21.62
539.93	21.69
540.276	21.71
540.621	21.81
540.966	21.76
541.311	21.89
541.656	21.55
542.001	21.45
542.346	21.25
542.691	20.84
543.036	20.67
543.381	20.76
543.726	20.98
544.071	21.36
544.415	21.47
544.76	21.5
545.105	21.63
545.449	21.72
545.794	21.91
546.138	22.02
546.483	22.08
546.827	22.2
547.171	22
547.516	21.96
547.86	22.06
548.204	21.85
548.548	21.91
548.892	21.88
549.236	22.12
549.58	22.44
549.924	22.53
550.268	22.65
550.612	22.68
550.956	22.68
551.3	22.92
551.643	22.75
551.987	22.67
552.33	22.92
552.674	22.98
553.017	22.87
553.361	22.82
553.704	22.99
554.048	22.83
554.391	22.71
554.734	22.82
555.077	23.03
555.42	23.03
555.764	23.28
556.107	23.2
556.45	23.33
556.793	23.28
557.135	23.2
557.478	23.27
557.821	23.36
558.164	23.41
558.507	23.51
558.849	23.3
559.192	23.36
559.534	23.44
559.877	23.63
560.219	23.53
560.562	23.41
560.904	23.52
561.246	23.61
561.589	23.71
561.931	23.8
562.273	23.72
562.615	23.49
562.957	23.53
563.299	23.58
563.641	23.6
563.983	23.75
564.325	23.78
564.667	23.87
565.008	23.7
565.35	23.75
565.692	23.82
566.033	23.96
566.375	23.84
566.716	23.74
567.058	23.66
567.399	23.81
567.741	23.8
568.082	23.75
568.423	23.72
568.764	23.82
569.105	23.99
569.447	24.08
569.788	24.18
570.129	24.24
570.47	24.06
570.811	24.27
571.151	24.15
571.492	24.18
571.833	24.12
572.174	24.27
572.514	24.1
572.855	24.17
573.195	24.24
573.536	24.23
573.876	24.09
574.217	23.89
574.557	24.19
574.898	24.39
575.238	24.36
575.578	24.4
575.918	24.42
576.258	24.52
576.598	24.39
576.938	24.3
577.278	24.57
577.618	24.73
577.958	24.72
578.298	24.71
578.638	24.92
578.977	24.79
579.317	24.82
579.657	24.94
579.996	24.59
580.336	24.79
580.675	24.85
581.014	25.14
581.354	25.01
581.693	24.75
582.032	25.18
582.372	25.16
582.711	25.27
583.05	25.26
583.389	25.14
583.728	25.36
584.067	25.34
584.406	25.36
584.745	25.31
585.083	25.48
585.422	25.27
585.761	25.64
586.1	25.05
586.438	25.65
586.777	25.63
587.115	25.69
587.454	25.62
587.792	25.44
588.13	25.95
588.469	25.63
588.807	25.72
589.145	25.8
589.483	25.83
589.821	25.55
590.159	25.61
590.497	25.91
590.835	25.6
591.173	25.82
591.511	25.77
591.849	25.46
592.187	25.6
592.524	25.83
592.862	25.96
593.2	25.83
593.537	26.07
593.875	26.04
594.212	25.89
594.55	26.21
594.887	26.01
595.224	25.8
595.561	26.28
595.899	25.81
596.236	25.82
596.573	25.77
596.91	25.83
597.247	26.04
597.584	26.1
597.921	25.76
598.258	26.08
598.594	25.71
598.931	25.6
599.268	25.9
599.604	25.92
599.941	26.27
600.277	26.16
600.614	26.25
600.95	26.57
601.287	26.69
601.623	26.7
601.959	26.52
602.296	26.42
602.632	26.69
602.968	26.51
603.304	26.75
603.64	26.48
603.976	26.46
604.312	26.51
604.648	26.1
604.984	26.35
605.319	25.91
605.655	26.33
605.991	26.17
606.326	26.18
606.662	26.22
606.998	26.3
607.333	26.38
607.668	26.68
608.004	26.74
608.339	27
608.674	27.05
609.01	26.63
609.345	26.76
609.68	26.91
610.015	26.87
610.35	26.75
610.685	26.69
611.02	26.42
611.355	26.4
611.689	26.77
612.024	26.83
612.359	26.95
612.694	27.04
613.028	27.08
613.363	27.11
613.697	27.31
614.032	27.35
614.366	27.2
614.7	27.05
615.035	27.36
615.369	27.45
615.703	27.64
616.037	27.36
616.371	27.32
616.705	27.13
617.039	27.32
617.373	27.58
617.707	27.89
618.041	27.68
618.375	27.68
618.709	27.25
619.042	27.63
619.376	27.49
619.71	27.57
620.043	27.88
620.377	27.8
620.71	27.9
621.043	27.93
621.377	27.89
621.71	27.88
622.043	27.52
622.376	27.83
622.709	28.13
623.043	27.57
623.376	27.73
623.709	27.73
624.041	27.72
624.374	27.87
624.707	27.82
625.04	27.79
625.373	28.13
625.705	28.03
626.038	27.68
626.37	27.87
626.703	28.39
627.035	28.24
627.368	27.82
627.7	27.61
628.032	27.9
628.365	27.76
628.697	27.94
629.029	27.88
629.361	27.84
629.693	27.97
630.025	27.97
630.357	28.02
630.689	28.51
631.021	28.26
631.353	28.08
631.684	28.07
632.016	28.26
632.348	28.3
632.679	28.29
633.011	28.35
633.342	28.33
633.674	28.55
634.005	28.51
634.336	28.11
634.668	28.28
634.999	28.36
635.33	28.27
635.661	28.13
635.992	28.28
636.323	28.88
636.654	28.77
636.985	28.55
637.316	28.8
637.647	28.45
637.977	28.45
638.308	28.53
638.639	28.86
638.969	29.12
639.3	28.94
639.63	28.82
639.961	28.62
640.291	28.9
640.622	29.12
640.952	28.95
641.282	28.86
641.612	28.92
641.943	29.13
642.273	29.06
642.603	28.98
642.933	28.89
643.263	28.86
643.592	29.33
643.922	28.77
644.252	28.98
644.582	28.98
644.911	29.58
645.241	29.7
645.571	29.62
645.9	29.03
646.23	29.22
646.559	28.91
646.888	29.28
647.218	29.62
647.547	29.57
647.876	29.12
648.205	28.98
648.534	29.59
648.863	29.31
649.192	29.5
649.521	29.35
649.85	29.58
650.179	29.16
650.508	29.49
650.837	29.51
651.165	29.55
651.494	29.91
651.822	29.03
652.151	29.86
652.479	29.56
652.808	29.37
653.136	29.53
653.465	29.56
653.793	29.71
654.121	29.81
654.449	29.53
654.777	29.76
655.105	29.55
655.433	29.88
655.761	29.48
656.089	29.89
656.417	30.06
656.745	29.62
657.073	30.09
657.4	29.88
657.728	30.02
658.056	29.88
658.383	30.12
658.711	29.84
659.038	30.26
659.365	29.48
659.693	29.37
660.02	30.19
660.347	29.81
660.674	29.55
661.001	29.77
661.329	29.41
661.656	29.97
661.982	30.1
662.309	30.05
662.636	30.27
662.963	29.81
663.29	30.01
663.616	30.42
663.943	30.45
664.27	30.16
664.596	30.77
664.923	30.39
665.249	30.29
665.576	30.16
665.902	30.42
666.228	30.3
666.554	29.92
666.881	30.39
667.207	30.13
667.533	30.97
667.859	30.42
668.185	29.99
668.511	30.66
668.837	30.72
669.162	30.26
669.488	30.22
669.814	30.58
670.139	30.39
670.465	30.56
670.791	30.36
671.116	30.28
671.442	30.67
671.767	31.24
672.092	30.43
672.418	30.86
672.743	30.87
673.068	30.12
