Data from 1597-1_chest_Reflection__0__30.txt Node

Date: Fri Nov 11 16:24:25 CST 2022
User: ToomeyLab
Spectrometer: FLMS14357
Trigger mode: 0
Integration Time (sec): 1.000000E-2
Scans to average: 100
Electric dark correction enabled: true
Nonlinearity correction enabled: false
Boxcar width: 0
XAxis mode: Wavelengths
Number of Pixels in Spectrum: 2048
>>>>>Begin Spectral Data<<<<<
189.047	49.53
189.435	49.53
189.823	49.53
190.211	-20.62
190.599	59.71
190.987	768.29
191.375	71.81
191.763	119.02
192.151	2621.12
192.538	-3497.87
192.926	-15.62
193.314	153.05
193.702	358.28
194.089	50.32
194.477	235.47
194.864	-108.86
195.252	273.14
195.639	121.91
196.027	127.86
196.414	75.94
196.801	47.54
197.189	8.25
197.576	-39.83
197.963	47.34
198.351	4.85
198.738	-22.67
199.125	26.45
199.512	25.21
199.899	16.68
200.286	3.25
200.673	16.09
201.06	-33.6
201.447	12.1
201.833	38.83
202.22	16.92
202.607	63.94
202.994	12.58
203.38	14.35
203.767	16.52
204.154	28.68
204.54	26.41
204.927	42.56
205.313	26.14
205.699	-6.12
206.086	25.4
206.472	34.46
206.858	5.93
207.245	30.34
207.631	40.56
208.017	17.96
208.403	0.74
208.789	-18.55
209.175	25.38
209.561	23.59
209.947	7.07
210.333	47.11
210.719	10.75
211.105	33.67
211.491	-26.82
211.876	42.87
212.262	43.09
212.648	14.92
213.034	4.47
213.419	17.55
213.805	5.81
214.19	-0.34
214.576	13.45
214.961	16.51
215.346	-44.44
215.732	-59.42
216.117	14.05
216.502	10.69
216.888	3.17
217.273	-3.28
217.658	-7.09
218.043	16.97
218.428	-1.94
218.813	39.42
219.198	11.17
219.583	32.89
219.968	12.32
220.353	-10.6
220.738	7.92
221.122	-18.4
221.507	13.47
221.892	5.54
222.276	-0.58
222.661	14.36
223.046	14.97
223.43	11.8
223.815	-0.56
224.199	5.62
224.583	9.05
224.968	10.96
225.352	-1.58
225.736	6.31
226.121	10.8
226.505	4.21
226.889	8.64
227.273	5.1
227.657	-3.17
228.041	-1.16
228.425	8.04
228.809	11.93
229.193	5.33
229.577	7
229.961	4.56
230.344	5.74
230.728	5.61
231.112	5.29
231.495	5.45
231.879	5.81
232.263	5.18
232.646	6.06
233.03	5.07
233.413	4.47
233.797	3.4
234.18	4.11
234.563	6.86
234.946	4.03
235.33	5.7
235.713	4.06
236.096	3.3
236.479	4.87
236.862	5.76
237.245	5.09
237.628	5.35
238.011	5.07
238.394	6.92
238.777	4.12
239.16	4.83
239.543	5.19
239.925	6.53
240.308	3.81
240.691	3.43
241.073	4.38
241.456	4.14
241.838	3.74
242.221	4.98
242.603	3.77
242.986	4.3
243.368	4.09
243.75	4.3
244.133	4.65
244.515	4.83
244.897	4.3
245.279	4.39
245.661	4.88
246.043	5.18
246.425	5.34
246.807	4.31
247.189	3.67
247.571	3.52
247.953	4.67
248.335	4.76
248.717	4.55
249.098	4.45
249.48	4.52
249.862	4.73
250.243	4.67
250.625	4.59
251.006	5.32
251.388	4.91
251.769	5.16
252.151	4.13
252.532	4.74
252.913	3.87
253.295	4.08
253.676	4.68
254.057	4.4
254.438	4.3
254.819	4.4
255.2	5.19
255.581	4.82
255.962	3.89
256.343	5.8
256.724	4.92
257.105	3.98
257.486	4.2
257.867	4.24
258.247	4.92
258.628	4.42
259.009	3.75
259.389	4.26
259.77	5.2
260.15	5.17
260.531	3.85
260.911	4.44
261.292	4.35
261.672	4.11
262.052	4.19
262.432	4.7
262.813	3.97
263.193	4.3
263.573	5.06
263.953	4.45
264.333	4.85
264.713	3.95
265.093	4.68
265.473	5.36
265.853	4.06
266.233	4.68
266.612	4.79
266.992	4.31
267.372	3.69
267.752	4.26
268.131	4.64
268.511	4.68
268.89	4.96
269.27	4.02
269.649	4.56
270.029	3.4
270.408	4.06
270.787	4.72
271.167	4.4
271.546	5.12
271.925	4.73
272.304	4.92
272.683	4.5
273.062	4.39
273.441	4.33
273.82	4.22
274.199	4.3
274.578	4.3
274.957	4.13
275.336	4.27
275.715	3.69
276.093	4.41
276.472	3.9
276.851	4.19
277.229	3.73
277.608	4.23
277.986	4.3
278.365	4.33
278.743	4.39
279.122	3.83
279.5	3.9
279.878	4
280.257	4.76
280.635	4.26
281.013	4.39
281.391	3.9
281.769	4.48
282.147	3.76
282.525	4.2
282.903	4.4
283.281	4.41
283.659	3.84
284.037	4.21
284.415	3.98
284.792	4.26
285.17	4.47
285.548	4.42
285.925	4.27
286.303	4.33
286.68	4
287.058	3.77
287.435	4.43
287.813	4.53
288.19	4.62
288.567	4.4
288.945	4.16
289.322	3.93
289.699	4.69
290.076	4.18
290.453	3.98
290.83	4.77
291.207	4.24
291.584	4.26
291.961	4.15
292.338	4.21
292.715	4.4
293.092	4.48
293.469	4.37
293.845	4.4
294.222	5.11
294.599	4.18
294.975	3.95
295.352	4.5
295.728	4.45
296.105	4.37
296.481	4.2
296.858	4.37
297.234	4.14
297.61	4
297.986	3.67
298.363	4.44
298.739	4.27
299.115	4.5
299.491	4.31
299.867	4.08
300.243	4.03
300.619	4.74
300.995	4.5
301.371	4.2
301.746	4.65
302.122	4.06
302.498	4.05
302.874	4.48
303.249	4.06
303.625	4.5
304	4.24
304.376	4.55
304.751	5.1
305.127	4.81
305.502	4.22
305.878	4.89
306.253	4.49
306.628	4.7
307.003	4.29
307.378	5.51
307.754	5.05
308.129	4.82
308.504	4.31
308.879	4.73
309.254	4.29
309.629	4.7
310.003	4.4
310.378	4.2
310.753	4.36
311.128	4.8
311.502	4.33
311.877	4.73
312.252	4.21
312.626	4.31
313.001	4.74
313.375	4.47
313.75	4.88
314.124	4.9
314.498	5.24
314.873	5.25
315.247	4.57
315.621	4.05
315.995	4.42
316.369	5.19
316.743	4.59
317.117	4.31
317.491	5.24
317.865	4.92
318.239	4.94
318.613	4.4
318.987	4.94
319.361	4.34
319.734	4.2
320.108	4.68
320.482	4.43
320.855	4.54
321.229	5.29
321.602	4.77
321.976	4.61
322.349	4.77
322.723	5.1
323.096	5.52
323.469	5.24
323.843	5.41
324.216	4.46
324.589	5
324.962	4.89
325.335	5.15
325.708	4.68
326.081	4.47
326.454	4.87
326.827	5.18
327.2	5.17
327.573	5.07
327.945	5.09
328.318	4.85
328.691	5.18
329.063	4.77
329.436	5.04
329.809	4.9
330.181	4.88
330.553	4.95
330.926	4.58
331.298	4.72
331.671	4.88
332.043	5.25
332.415	4.91
332.787	4.82
333.159	5.33
333.532	4.69
333.904	4.58
334.276	4.89
334.648	4.75
335.02	5.02
335.391	4.99
335.763	4.94
336.135	5.39
336.507	5.69
336.879	4.87
337.25	4.36
337.622	4.97
337.993	4.63
338.365	4.96
338.736	4.93
339.108	4.66
339.479	5.11
339.851	4.34
340.222	4.73
340.593	4.8
340.964	4.86
341.336	4.96
341.707	4.69
342.078	4.58
342.449	4.89
342.82	4.88
343.191	5.24
343.562	5.4
343.933	4.88
344.303	4.76
344.674	5
345.045	4.85
345.416	4.89
345.786	5.06
346.157	4.9
346.527	4.95
346.898	4.97
347.268	5
347.639	5.26
348.009	4.97
348.38	4.98
348.75	5.36
349.12	5.21
349.49	4.91
349.861	5.06
350.231	5.03
350.601	5.05
350.971	5.13
351.341	4.79
351.711	4.65
352.081	4.32
352.45	5.14
352.82	5.34
353.19	4.86
353.56	5.13
353.929	4.96
354.299	5.3
354.669	4.78
355.038	5
355.408	5.09
355.777	5.56
356.147	4.97
356.516	4.95
356.885	4.73
357.254	4.88
357.624	5.44
357.993	5.27
358.362	5.2
358.731	4.95
359.1	4.72
359.469	5.09
359.838	5.2
360.207	5.29
360.576	5.17
360.945	5.39
361.314	4.99
361.682	5.34
362.051	5.05
362.42	5.01
362.788	4.93
363.157	5.14
363.525	5.23
363.894	5.05
364.262	5
364.631	5.02
364.999	5.08
365.367	5.45
365.735	5.1
366.104	5.04
366.472	5.06
366.84	5.21
367.208	5.18
367.576	5.26
367.944	5.7
368.312	5.42
368.68	5.32
369.048	5.23
369.416	5.13
369.783	4.92
370.151	4.99
370.519	5.67
370.886	5.29
371.254	5.09
371.621	5.33
371.989	5.15
372.356	5.17
372.724	5.41
373.091	5.29
373.458	5.04
373.826	5.22
374.193	5.34
374.56	5.14
374.927	5.39
375.294	5.41
375.661	5.69
376.028	5.31
376.395	5.48
376.762	5.05
377.129	5.31
377.496	5.46
377.863	5.28
378.229	5.4
378.596	5.31
378.963	5.06
379.329	5.27
379.696	5.35
380.062	5.28
380.429	5.01
380.795	5.23
381.161	5.32
381.528	5.25
381.894	5.56
382.26	5.12
382.626	5.17
382.993	5.43
383.359	5.07
383.725	5.34
384.091	5.23
384.457	5.46
384.823	5.45
385.188	5.24
385.554	5.46
385.92	5.12
386.286	5.38
386.651	5.3
387.017	5.46
387.383	5.42
387.748	5.3
388.114	5.44
388.479	5.38
388.845	5.29
389.21	5.45
389.575	5.34
389.94	5.77
390.306	5.29
390.671	5.15
391.036	5.68
391.401	5.17
391.766	5.31
392.131	5.15
392.496	5.52
392.861	5.45
393.226	5.49
393.591	5.3
393.956	5.48
394.32	5.61
394.685	5.67
395.05	5.68
395.414	5.62
395.779	5.44
396.143	5.45
396.508	5.53
396.872	5.56
397.236	5.38
397.601	5.5
397.965	5.52
398.329	5.34
398.694	5.37
399.058	5.53
399.422	5.81
399.786	5.65
400.15	5.42
400.514	5.53
400.878	5.48
401.242	5.7
401.605	5.62
401.969	5.49
402.333	5.61
402.697	5.41
403.06	5.77
403.424	5.33
403.787	5.54
404.151	5.65
404.514	5.69
404.878	5.71
405.241	5.37
405.604	5.38
405.968	5.73
406.331	5.56
406.694	5.54
407.057	5.69
407.42	5.74
407.783	5.63
408.146	5.71
408.509	5.68
408.872	5.86
409.235	5.79
409.598	5.5
409.961	5.61
410.323	5.93
410.686	5.8
411.049	5.72
411.411	5.71
411.774	5.71
412.136	5.77
412.499	5.75
412.861	5.67
413.223	5.55
413.586	5.52
413.948	5.71
414.31	5.75
414.672	5.83
415.035	5.77
415.397	6.04
415.759	5.8
416.121	5.97
416.483	5.51
416.845	5.76
417.206	5.83
417.568	5.69
417.93	5.72
418.292	5.54
418.653	5.74
419.015	5.62
419.377	5.77
419.738	5.79
420.1	5.65
420.461	5.68
420.822	5.71
421.184	5.6
421.545	5.67
421.906	5.68
422.267	5.64
422.629	5.68
422.99	5.63
423.351	5.64
423.712	5.6
424.073	5.61
424.434	5.63
424.795	5.86
425.155	5.68
425.516	5.71
425.877	5.64
426.238	5.65
426.598	5.69
426.959	5.66
427.32	5.76
427.68	5.84
428.041	5.81
428.401	5.64
428.761	5.81
429.122	5.83
429.482	5.79
429.842	5.87
430.202	5.84
430.563	5.91
430.923	5.86
431.283	5.95
431.643	5.85
432.003	5.98
432.363	5.98
432.722	5.87
433.082	5.87
433.442	5.92
433.802	6.03
434.161	6.05
434.521	5.92
434.881	5.81
435.24	6.01
435.6	5.79
435.959	5.9
436.319	5.7
436.678	5.95
437.037	5.94
437.396	5.9
437.756	5.92
438.115	5.82
438.474	5.8
438.833	5.88
439.192	6.02
439.551	5.93
439.91	5.95
440.269	6.09
440.628	5.87
440.987	6.01
441.345	5.93
441.704	5.88
442.063	6.03
442.421	5.84
442.78	5.85
443.138	5.93
443.497	5.88
443.855	6.03
444.214	6
444.572	6.08
444.93	6.12
445.288	6.09
445.647	5.95
446.005	6.15
446.363	6.05
446.721	5.91
447.079	5.97
447.437	6
447.795	5.92
448.153	5.95
448.51	5.89
448.868	5.95
449.226	5.91
449.584	5.96
449.941	5.97
450.299	5.98
450.656	6.1
451.014	6.14
451.371	6
451.729	6.17
452.086	6.12
452.443	6.2
452.801	6.22
453.158	6.03
453.515	6.2
453.872	6.06
454.229	6.08
454.586	6.11
454.943	6.1
455.3	6.07
455.657	6.15
456.014	6.21
456.371	6.07
456.727	6.19
457.084	6.19
457.441	6.26
457.797	6.17
458.154	6.32
458.51	6.07
458.867	6.22
459.223	6.28
459.58	6.27
459.936	6.39
460.292	6.13
460.648	6.04
461.005	6.26
461.361	6.28
461.717	6.05
462.073	6.18
462.429	6.25
462.785	6.16
463.141	6.2
463.496	6.24
463.852	6.24
464.208	6.32
464.564	6.23
464.919	6.37
465.275	6.25
465.631	6.37
465.986	6.27
466.342	6.52
466.697	6.49
467.052	6.39
467.408	6.35
467.763	6.38
468.118	6.44
468.473	6.47
468.829	6.48
469.184	6.55
469.539	6.5
469.894	6.37
470.249	6.54
470.603	6.56
470.958	6.71
471.313	6.43
471.668	6.48
472.023	6.6
472.377	6.58
472.732	6.54
473.086	6.58
473.441	6.42
473.795	6.42
474.15	6.54
474.504	6.45
474.859	6.62
475.213	6.61
475.567	6.49
475.921	6.75
476.275	6.47
476.63	6.5
476.984	6.61
477.338	6.49
477.692	6.54
478.045	6.58
478.399	6.48
478.753	6.56
479.107	6.5
479.461	6.54
479.814	6.63
480.168	6.64
480.521	6.58
480.875	6.67
481.228	6.64
481.582	6.61
481.935	6.54
482.289	6.78
482.642	6.55
482.995	6.65
483.348	6.51
483.701	6.65
484.055	6.49
484.408	6.57
484.761	6.38
485.114	6.33
485.466	6.26
485.819	6.23
486.172	6.24
486.525	6.28
486.878	6.35
487.23	6.43
487.583	6.44
487.936	6.55
488.288	6.52
488.641	6.46
488.993	6.44
489.345	6.4
489.698	6.44
490.05	6.39
490.402	6.44
490.754	6.6
491.107	6.62
491.459	6.69
491.811	6.7
492.163	6.77
492.515	6.69
492.866	6.63
493.218	6.49
493.57	6.51
493.922	6.58
494.274	6.63
494.625	6.6
494.977	6.79
495.328	6.88
495.68	6.82
496.031	6.88
496.383	7.1
496.734	6.95
497.086	7.02
497.437	6.89
497.788	6.96
498.139	6.97
498.49	6.88
498.842	6.93
499.193	6.86
499.544	6.97
499.894	7.03
500.245	6.99
500.596	7.02
500.947	6.92
501.298	6.95
501.648	7.06
501.999	7.08
502.35	7.07
502.7	7.14
503.051	7.06
503.401	7.09
503.752	7
504.102	7.1
504.452	7.14
504.803	7.28
505.153	7.18
505.503	7.18
505.853	7.33
506.203	7.29
506.553	7.24
506.903	7.16
507.253	7.3
507.603	7.32
507.953	7.32
508.303	7.28
508.652	7.18
509.002	7.26
509.352	7.27
509.701	7.38
510.051	7.21
510.4	7.26
510.75	7.31
511.099	7.2
511.449	7.25
511.798	7.22
512.147	7.37
512.496	7.32
512.846	7.41
513.195	7.19
513.544	7.39
513.893	7.37
514.242	7.43
514.591	7.4
514.939	7.4
515.288	7.44
515.637	7.37
515.986	7.53
516.334	7.48
516.683	7.6
517.032	7.53
517.38	7.63
517.729	7.6
518.077	7.51
518.426	7.63
518.774	7.48
519.122	7.56
519.47	7.49
519.819	7.48
520.167	7.48
520.515	7.53
520.863	7.6
521.211	7.51
521.559	7.53
521.907	7.65
522.255	7.64
522.602	7.73
522.95	7.78
523.298	7.73
523.645	7.77
523.993	7.83
524.341	7.88
524.688	7.82
525.036	7.89
525.383	7.84
525.73	7.81
526.078	7.87
526.425	7.83
526.772	7.82
527.119	7.77
527.466	7.73
527.814	7.76
528.161	7.74
528.508	7.75
528.854	7.78
529.201	7.81
529.548	7.84
529.895	7.67
530.242	7.61
530.588	7.63
530.935	7.64
531.282	7.75
531.628	7.73
531.975	7.8
532.321	7.83
532.667	7.9
533.014	8.02
533.36	7.99
533.706	8.09
534.052	8.16
534.399	8.06
534.745	7.98
535.091	7.94
535.437	8.01
535.783	7.97
536.129	8.1
536.474	8.15
536.82	8.17
537.166	8.23
537.512	8.35
537.857	8.31
538.203	8.26
538.549	8.2
538.894	8.29
539.239	8.33
539.585	8.34
539.93	8.42
540.276	8.43
540.621	8.57
540.966	8.58
541.311	8.57
541.656	8.54
542.001	8.59
542.346	8.5
542.691	8.44
543.036	8.37
543.381	8.38
543.726	8.41
544.071	8.41
544.415	8.47
544.76	8.52
545.105	8.6
545.449	8.67
545.794	8.74
546.138	8.8
546.483	8.71
546.827	8.86
547.171	8.81
547.516	8.77
547.86	8.76
548.204	8.81
548.548	8.88
548.892	8.96
549.236	9
549.58	9.03
549.924	9.06
550.268	9.29
550.612	9.21
550.956	9.23
551.3	9.24
551.643	9.34
551.987	9.26
552.33	9.31
552.674	9.25
553.017	9.45
553.361	9.29
553.704	9.38
554.048	9.34
554.391	9.39
554.734	9.43
555.077	9.43
555.42	9.48
555.764	9.63
556.107	9.51
556.45	9.51
556.793	9.6
557.135	9.63
557.478	9.67
557.821	9.83
558.164	9.66
558.507	9.74
558.849	9.67
559.192	9.66
559.534	9.77
559.877	9.93
560.219	9.99
560.562	9.73
560.904	9.71
561.246	9.97
561.589	10.01
561.931	10.01
562.273	10.03
562.615	9.94
562.957	10.1
563.299	10.06
563.641	10.27
563.983	10.13
564.325	10
564.667	10.17
565.008	9.9
565.35	10.24
565.692	10.04
566.033	10.46
566.375	10.33
566.716	10.31
567.058	10.38
567.399	10.37
567.741	10.44
568.082	10.35
568.423	10.47
568.764	10.43
569.105	10.46
569.447	10.49
569.788	10.64
570.129	10.77
570.47	10.54
570.811	10.78
571.151	10.72
571.492	10.83
571.833	10.79
572.174	10.89
572.514	10.81
572.855	10.77
573.195	11
573.536	10.84
573.876	10.87
574.217	10.91
574.557	10.9
574.898	10.96
575.238	11.09
575.578	10.96
575.918	10.97
576.258	11.15
576.598	11.12
576.938	11.11
577.278	11.22
577.618	11.32
577.958	11.35
578.298	11.4
578.638	11.31
578.977	11.3
579.317	11.44
579.657	11.47
579.996	11.52
580.336	11.43
580.675	11.41
581.014	11.39
581.354	11.7
581.693	11.49
582.032	11.6
582.372	11.94
582.711	11.87
583.05	11.72
583.389	11.89
583.728	11.97
584.067	11.84
584.406	11.95
584.745	12.11
585.083	12.26
585.422	12.19
585.761	12.41
586.1	12.03
586.438	12.17
586.777	12.4
587.115	12.22
587.454	12.27
587.792	12.39
588.13	12.67
588.469	12.5
588.807	12.58
589.145	12.35
589.483	12.63
589.821	12.38
590.159	12.58
590.497	12.7
590.835	12.64
591.173	12.68
591.511	12.71
591.849	12.54
592.187	12.73
592.524	12.6
592.862	13.02
593.2	13.12
593.537	12.65
593.875	12.92
594.212	12.96
594.55	13.23
594.887	13
595.224	12.97
595.561	12.85
595.899	12.88
596.236	13.1
596.573	13.11
596.91	13.42
597.247	13.16
597.584	13.25
597.921	13.15
598.258	13.3
598.594	13.33
598.931	13.47
599.268	13.34
599.604	13.45
599.941	13.38
600.277	13.34
600.614	13.77
600.95	13.4
601.287	13.76
601.623	13.9
601.959	13.64
602.296	13.68
602.632	13.74
602.968	13.72
603.304	13.99
603.64	13.84
603.976	14.21
604.312	14.11
604.648	13.75
604.984	14.17
605.319	13.96
605.655	14.21
605.991	13.96
606.326	14.04
606.662	14.08
606.998	14.13
607.333	14.27
607.668	14.36
608.004	14.39
608.339	14.46
608.674	14.51
609.01	14.21
609.345	14.39
609.68	14.64
610.015	14.62
610.35	14.66
610.685	14.69
611.02	14.94
611.355	14.49
611.689	14.85
612.024	14.8
612.359	14.75
612.694	14.79
613.028	14.74
613.363	14.88
613.697	14.97
614.032	15.06
614.366	14.96
614.7	15.06
615.035	15.37
615.369	15.46
615.703	15.32
616.037	15.33
616.371	15.36
616.705	15.59
617.039	15.23
617.373	15.38
617.707	15.84
618.041	15.57
618.375	15.78
618.709	15.82
619.042	15.65
619.376	15.7
619.71	15.77
620.043	16
620.377	15.71
620.71	15.76
621.043	16.19
621.377	15.99
621.71	16.1
622.043	15.89
622.376	15.85
622.709	16.11
623.043	16.19
623.376	16.09
623.709	16.41
624.041	16.15
624.374	16.27
624.707	16.24
625.04	16.25
625.373	16.32
625.705	16.41
626.038	16.54
626.37	16.13
626.703	16.5
627.035	16.4
627.368	16.53
627.7	16.58
628.032	16.54
628.365	16.88
628.697	16.8
629.029	16.66
629.361	16.64
629.693	16.78
630.025	16.64
630.357	16.7
630.689	17.12
631.021	17.05
631.353	16.85
631.684	17
632.016	17.11
632.348	16.96
632.679	17.01
633.011	17.15
633.342	17.1
633.674	17.04
634.005	17.4
634.336	17.15
634.668	17.17
634.999	17.21
635.33	17.51
635.661	17.93
635.992	17.79
636.323	17.72
636.654	17.63
636.985	17.95
637.316	17.72
637.647	17.59
637.977	17.89
638.308	18.08
638.639	18.15
638.969	17.95
639.3	18.25
639.63	17.93
639.961	17.86
640.291	17.92
640.622	18.27
640.952	18.26
641.282	18.51
641.612	18.25
641.943	18.26
642.273	18.71
642.603	18.56
642.933	18.29
643.263	18.38
643.592	19.01
643.922	18.49
644.252	18.71
644.582	18.77
644.911	18.97
645.241	18.53
645.571	18.88
645.9	18.9
646.23	19.23
646.559	19.09
646.888	19.37
647.218	18.88
647.547	19.5
647.876	19.25
648.205	19.1
648.534	19.37
648.863	19.19
649.192	19.47
649.521	19.33
649.85	19.07
650.179	18.69
650.508	19.45
650.837	19.52
651.165	19.68
651.494	19.85
651.822	19.76
652.151	19.65
652.479	19.76
652.808	19.6
653.136	19.75
653.465	20.2
653.793	19.92
654.121	20.25
654.449	19.78
654.777	19.95
655.105	19.8
655.433	20.26
655.761	19.94
656.089	20.07
656.417	20.26
656.745	20.1
657.073	19.88
657.4	20.05
657.728	20.63
658.056	19.83
658.383	20.74
658.711	20.57
659.038	20.26
659.365	19.68
659.693	20.63
660.02	21.02
660.347	20.85
660.674	20.61
661.001	20.84
661.329	20.58
661.656	20.75
661.982	20.86
662.309	20.75
662.636	20.67
662.963	20.46
663.29	20.88
663.616	21.27
663.943	21.31
664.27	21.58
664.596	21.39
664.923	21.29
665.249	21.09
665.576	21.07
665.902	20.99
666.228	21.93
666.554	21.7
666.881	21.41
667.207	21.63
667.533	21.58
667.859	21.42
668.185	21.61
668.511	21.26
668.837	21.56
669.162	21.56
669.488	21.04
669.814	22.1
670.139	22.28
670.465	21.67
670.791	21.58
671.116	21.92
671.442	22.32
671.767	22.11
672.092	22.29
672.418	22.38
672.743	22.2
673.068	22.21
673.393	22.3
673.718	21.79
674.043	22.44
674.368	22.33
674.693	22.4
675.018	22.67
675.343	22.57
675.667	22.56
675.992	22.97
676.317	23.01
676.641	22.62
676.966	22.23
677.29	22.38
677.615	23.25
677.939	23.25
678.264	22.94
678.588	23.65
678.912	22.79
679.236	22.56
679.56	23.46
679.885	23.71
680.209	23.26
680.532	22.56
680.856	23.48
681.18	23.03
681.504	22.89
681.828	22.96
682.152	23.81
682.475	23.38
682.799	22.99
683.122	23.35
683.446	22.78
683.769	23.75
684.093	23.73
684.416	23.82
684.739	23.6
685.062	23.77
