Data from 1597-1_forehead_Reflection__1__41.txt Node

Date: Fri Nov 11 16:27:43 CST 2022
User: ToomeyLab
Spectrometer: FLMS14357
Trigger mode: 0
Integration Time (sec): 1.000000E-2
Scans to average: 100
Electric dark correction enabled: true
Nonlinearity correction enabled: false
Boxcar width: 0
XAxis mode: Wavelengths
Number of Pixels in Spectrum: 2048
>>>>>Begin Spectral Data<<<<<
189.047	31.97
189.435	31.97
189.823	31.97
190.211	191.36
190.599	69.4
190.987	660.1
191.375	78.61
191.763	53.02
192.151	1497.52
192.538	-4397.87
192.926	-119.32
193.314	179.1
193.702	225.62
194.089	-50.71
194.477	125.03
194.864	-95.3
195.252	287.92
195.639	21.34
196.027	13.78
196.414	168.12
196.801	178.29
197.189	-32.43
197.576	-59.18
197.963	208.72
198.351	36.96
198.738	-20.53
199.125	23.09
199.512	52.16
199.899	29.85
200.286	46.51
200.673	58.64
201.06	-25.9
201.447	37.41
201.833	41.22
202.22	30.86
202.607	43.9
202.994	39.06
203.38	29.63
203.767	25.71
204.154	40.2
204.54	38.84
204.927	33.4
205.313	21.9
205.699	18.53
206.086	22.65
206.472	19.68
206.858	3.24
207.245	38.43
207.631	23.93
208.017	35.04
208.403	40.03
208.789	-15.46
209.175	26.25
209.561	42.56
209.947	62.98
210.333	36.29
210.719	50.39
211.105	26.91
211.491	-23.95
211.876	40.26
212.262	19.26
212.648	8.74
213.034	5.5
213.419	27
213.805	27.89
214.19	-15.15
214.576	28.69
214.961	-1.97
215.346	-54.6
215.732	-3.85
216.117	37.55
216.502	-1.51
216.888	23.03
217.273	-5.41
217.658	23.91
218.043	4.38
218.428	-1.18
218.813	35.99
219.198	-13.91
219.583	7.7
219.968	30.28
220.353	0.64
220.738	8.73
221.122	-13.66
221.507	34.44
221.892	15.91
222.276	-2.34
222.661	19
223.046	4.94
223.43	8.96
223.815	11.43
224.199	9.85
224.583	5.77
224.968	13.38
225.352	4.7
225.736	11.61
226.121	9.79
226.505	14.8
226.889	13.28
227.273	10.69
227.657	-4.8
228.041	0.69
228.425	10.02
228.809	6.49
229.193	5.4
229.577	6.63
229.961	3.89
230.344	4.87
230.728	3.71
231.112	4.45
231.495	4.93
231.879	3.53
232.263	2.14
232.646	3.25
233.03	4.98
233.413	3.98
233.797	4.11
234.18	3.4
234.563	3.68
234.946	3.02
235.33	4.86
235.713	3.24
236.096	2.42
236.479	5.07
236.862	5.2
237.245	4.94
237.628	4.22
238.011	4.16
238.394	5.29
238.777	2.54
239.16	4.44
239.543	5.73
239.925	6.96
240.308	3.79
240.691	1.55
241.073	4.2
241.456	4.4
241.838	4.96
242.221	3.98
242.603	3.03
242.986	3.34
243.368	3.11
243.75	3.55
244.133	3.53
244.515	4.08
244.897	3.53
245.279	3.53
245.661	4.2
246.043	4.28
246.425	5.05
246.807	3.32
247.189	3.84
247.571	2.88
247.953	3.98
248.335	3.75
248.717	3.83
249.098	3.73
249.48	4.03
249.862	3.53
250.243	3.72
250.625	3.66
251.006	4.4
251.388	4.05
251.769	4.45
252.151	3.38
252.532	4.81
252.913	3.59
253.295	3.63
253.676	3.8
254.057	3.64
254.438	4.39
254.819	4.02
255.2	3.43
255.581	4.03
255.962	4.28
256.343	5.79
256.724	3.63
257.105	3.67
257.486	4.85
257.867	3.44
258.247	4.64
258.628	4.09
259.009	4.35
259.389	3.88
259.77	5.22
260.15	4.26
260.531	3.97
260.911	3.59
261.292	3.81
261.672	3.8
262.052	3.76
262.432	4.12
262.813	3.89
263.193	3.9
263.573	4.71
263.953	4.34
264.333	4.43
264.713	4.48
265.093	4.78
265.473	4.77
265.853	3.08
266.233	3.87
266.612	3.99
266.992	4.34
267.372	3.9
267.752	4.8
268.131	4.13
268.511	4.15
268.89	4.03
269.27	3.59
269.649	3.54
270.029	3.3
270.408	3.75
270.787	4.19
271.167	3.54
271.546	3.84
271.925	3.77
272.304	4.34
272.683	3.88
273.062	4.16
273.441	3.56
273.82	4.14
274.199	4.09
274.578	3.97
274.957	3.47
275.336	4.18
275.715	3.75
276.093	4.44
276.472	4.18
276.851	4.24
277.229	3.43
277.608	3.79
277.986	3.85
278.365	3.71
278.743	3.77
279.122	3.62
279.5	3.64
279.878	4.04
280.257	4
280.635	3.79
281.013	4.28
281.391	3.57
281.769	4.39
282.147	3.85
282.525	3.75
282.903	3.73
283.281	3.85
283.659	3.6
284.037	3.98
284.415	3.74
284.792	3.87
285.17	3.79
285.548	3.94
285.925	4.22
286.303	3.61
286.68	3.52
287.058	3.92
287.435	3.82
287.813	3.82
288.19	3.84
288.567	4
288.945	3.41
289.322	3.93
289.699	4.09
290.076	3.6
290.453	3.82
290.83	4.27
291.207	4.32
291.584	3.98
291.961	3.45
292.338	4.48
292.715	4.15
293.092	4.31
293.469	4.46
293.845	4.77
294.222	4.37
294.599	4.93
294.975	3.88
295.352	4.06
295.728	4.14
296.105	4.17
296.481	4.26
296.858	4.84
297.234	4.42
297.61	4.48
297.986	3.96
298.363	4.59
298.739	4.85
299.115	4.26
299.491	4.36
299.867	4.23
300.243	4.64
300.619	4.9
300.995	4.52
301.371	4.57
301.746	4.96
302.122	4.73
302.498	4.64
302.874	4.55
303.249	5.05
303.625	4.94
304	5
304.376	5.37
304.751	5.54
305.127	5.55
305.502	5.37
305.878	5.89
306.253	5.67
306.628	5.54
307.003	5.32
307.378	5.77
307.754	5.91
308.129	6.17
308.504	6.3
308.879	5.83
309.254	5.32
309.629	5.55
310.003	5.93
310.378	5.28
310.753	5.53
311.128	6.32
311.502	5.78
311.877	6.21
312.252	5.89
312.626	6.05
313.001	6.11
313.375	6.39
313.75	6.46
314.124	6.59
314.498	6.59
314.873	6.88
315.247	7.02
315.621	6.47
315.995	6.5
316.369	7.15
316.743	7.1
317.117	7.27
317.491	7.08
317.865	7.2
318.239	7.35
318.613	7.17
318.987	7.91
319.361	7.87
319.734	6.83
320.108	7.78
320.482	7.08
320.855	7.08
321.229	7.78
321.602	7.69
321.976	6.85
322.349	7.62
322.723	8.16
323.096	7.77
323.469	8.04
323.843	8.88
324.216	8.41
324.589	8.25
324.962	7.81
325.335	8.25
325.708	8.35
326.081	8.34
326.454	8.51
326.827	8.78
327.2	8.38
327.573	8.43
327.945	8.48
328.318	8.98
328.691	8.99
329.063	9.16
329.436	9.08
329.809	8.57
330.181	8.98
330.553	9.25
330.926	8.99
331.298	9.18
331.671	9.18
332.043	9.4
332.415	8.95
332.787	9.59
333.159	9.68
333.532	8.98
333.904	9.42
334.276	9.67
334.648	9.31
335.02	10.31
335.391	9.89
335.763	10.15
336.135	9.27
336.507	9.81
336.879	9.71
337.25	9.45
337.622	9.85
337.993	9.79
338.365	9.61
338.736	9.96
339.108	10.2
339.479	10.4
339.851	9.55
340.222	10.19
340.593	9.93
340.964	10.27
341.336	10.06
341.707	10.46
342.078	10.32
342.449	11.03
342.82	10.32
343.191	11.14
343.562	10.55
343.933	10.25
344.303	11.12
344.674	10.94
345.045	10.69
345.416	10.7
345.786	11.02
346.157	10.7
346.527	10.99
346.898	11.06
347.268	11.38
347.639	11.41
348.009	10.79
348.38	10.9
348.75	11.3
349.12	11.33
349.49	11.54
349.861	11.28
350.231	11.26
350.601	11.87
350.971	11.5
351.341	11.33
351.711	11.46
352.081	10.94
352.45	11.59
352.82	11.74
353.19	11.76
353.56	12.1
353.929	11.84
354.299	12.08
354.669	12.01
355.038	12.04
355.408	12.26
355.777	12.36
356.147	12.22
356.516	12.28
356.885	11.92
357.254	12.21
357.624	12.21
357.993	12.26
358.362	12.48
358.731	12.3
359.1	12.37
359.469	12.53
359.838	12.72
360.207	12.52
360.576	12.76
360.945	12.85
361.314	13.05
361.682	13.05
362.051	12.93
362.42	12.54
362.788	12.61
363.157	12.78
363.525	13.12
363.894	12.88
364.262	12.62
364.631	12.92
364.999	13.09
365.367	13.34
365.735	13.36
366.104	13.27
366.472	13.33
366.84	13.56
367.208	13.28
367.576	13.52
367.944	13.68
368.312	13.46
368.68	13.33
369.048	13.3
369.416	13.78
369.783	13.51
370.151	13.88
370.519	13.99
370.886	14.01
371.254	13.85
371.621	13.83
371.989	13.68
372.356	14
372.724	14.24
373.091	14.06
373.458	14.12
373.826	14.32
374.193	14.02
374.56	14.04
374.927	14.14
375.294	14.7
375.661	14.72
376.028	14.68
376.395	14.59
376.762	14.22
377.129	14.64
377.496	14.51
377.863	14.71
378.229	14.71
378.596	14.5
378.963	14.62
379.329	14.78
379.696	15.04
380.062	15.02
380.429	14.98
380.795	15.03
381.161	15.24
381.528	15.08
381.894	15.43
382.26	15.38
382.626	15.17
382.993	15.33
383.359	15.23
383.725	15.73
384.091	15.11
384.457	15.33
384.823	15.42
385.188	15.59
385.554	15.82
385.92	15.73
386.286	15.64
386.651	15.62
387.017	15.53
387.383	15.88
387.748	15.9
388.114	15.85
388.479	16.12
388.845	15.97
389.21	15.85
389.575	16.02
389.94	16.43
390.306	16.02
390.671	16.31
391.036	16.14
391.401	16.1
391.766	16.42
392.131	16.14
392.496	16.52
392.861	16.33
393.226	16.4
393.591	16.38
393.956	16.61
394.32	16.72
394.685	16.72
395.05	16.86
395.414	17.06
395.779	16.76
396.143	17.05
396.508	16.72
396.872	16.92
397.236	17.13
397.601	17.12
397.965	17.03
398.329	17.31
398.694	17.14
399.058	17.38
399.422	17.4
399.786	17.43
400.15	17.35
400.514	17.33
400.878	17.37
401.242	17.5
401.605	17.36
401.969	17.52
402.333	17.54
402.697	17.61
403.06	17.47
403.424	17.53
403.787	17.7
404.151	17.67
404.514	17.82
404.878	17.86
405.241	17.95
405.604	17.99
405.968	18.14
406.331	17.68
406.694	17.88
407.057	17.94
407.42	17.73
407.783	18.06
408.146	18.3
408.509	18.22
408.872	18.53
409.235	18.42
409.598	18.38
409.961	18.4
410.323	18.48
410.686	18.58
411.049	18.57
411.411	18.45
411.774	18.53
412.136	18.63
412.499	18.53
412.861	18.52
413.223	18.71
413.586	18.77
413.948	18.71
414.31	18.93
414.672	19.14
415.035	19.11
415.397	19.35
415.759	19.17
416.121	18.9
416.483	19.12
416.845	19.16
417.206	19.13
417.568	19.2
417.93	19.06
418.292	19.04
418.653	19.26
419.015	19.06
419.377	19.24
419.738	19.3
420.1	19.31
420.461	19.15
420.822	19.05
421.184	19.22
421.545	19.29
421.906	19.33
422.267	19.28
422.629	19.26
422.99	19.21
423.351	19.14
423.712	19.36
424.073	19.41
424.434	19.54
424.795	19.66
425.155	19.65
425.516	19.57
425.877	19.64
426.238	19.57
426.598	19.57
426.959	19.79
427.32	19.84
427.68	19.81
428.041	20.14
428.401	20.07
428.761	20.24
429.122	20.26
429.482	20.34
429.842	20.55
430.202	20.57
430.563	20.47
430.923	20.75
431.283	20.69
431.643	20.81
432.003	20.82
432.363	20.8
432.722	20.79
433.082	20.89
433.442	20.98
433.802	21.14
434.161	20.83
434.521	21.07
434.881	20.86
435.24	20.99
435.6	20.88
435.959	21.1
436.319	21.03
436.678	21.04
437.037	21.14
437.396	21.19
437.756	21.25
438.115	21.12
438.474	21.15
438.833	21.39
439.192	21.37
439.551	21.47
439.91	21.56
440.269	21.54
440.628	21.56
440.987	21.57
441.345	21.53
441.704	21.47
442.063	21.56
442.421	21.47
442.78	21.54
443.138	21.53
443.497	21.49
443.855	21.78
444.214	21.81
444.572	21.96
444.93	22.2
445.288	22.16
445.647	22.03
446.005	22.02
446.363	22.16
446.721	21.98
447.079	22.14
447.437	21.91
447.795	21.85
448.153	21.87
448.51	21.89
448.868	22.01
449.226	22.06
449.584	22.05
449.941	22.28
450.299	22.45
450.656	22.64
451.014	22.68
451.371	22.47
451.729	22.72
452.086	22.76
452.443	23.03
452.801	23.01
453.158	22.9
453.515	22.91
453.872	23.21
454.229	23.1
454.586	23.03
454.943	23.2
455.3	23.08
455.657	23.33
456.014	23.13
456.371	23.44
456.727	23.23
457.084	23.43
457.441	23.56
457.797	23.6
458.154	23.52
458.51	23.47
458.867	23.77
459.223	23.72
459.58	23.66
459.936	23.81
460.292	23.55
460.648	23.77
461.005	23.68
461.361	23.43
461.717	23.24
462.073	23.52
462.429	23.64
462.785	23.62
463.141	23.85
463.496	23.69
463.852	24.01
464.208	24.1
464.564	24.21
464.919	24.37
465.275	24.42
465.631	24.47
465.986	24.42
466.342	24.44
466.697	24.53
467.052	24.52
467.408	24.65
467.763	24.66
468.118	24.69
468.473	24.79
468.829	24.66
469.184	24.66
469.539	24.91
469.894	24.72
470.249	24.79
470.603	24.95
470.958	25.04
471.313	24.87
471.668	24.79
472.023	25.21
472.377	25.28
472.732	25.13
473.086	25.12
473.441	25.11
473.795	25.27
474.15	25.37
474.504	25.42
474.859	25.38
475.213	25.29
475.567	25.53
475.921	25.65
476.275	25.61
476.63	25.36
476.984	25.48
477.338	25.6
477.692	25.77
478.045	25.72
478.399	25.62
478.753	25.88
479.107	25.66
479.461	25.78
479.814	25.81
480.168	25.68
480.521	25.91
480.875	25.7
481.228	25.82
481.582	25.87
481.935	25.95
482.289	26.01
482.642	26.07
482.995	25.9
483.348	25.79
483.701	25.84
484.055	25.76
484.408	25.64
484.761	25.42
485.114	25.33
485.466	25.09
485.819	25.17
486.172	25.17
486.525	25.28
486.878	25.42
487.23	25.6
487.583	25.78
487.936	25.87
488.288	25.81
488.641	25.74
488.993	25.6
489.345	25.53
489.698	25.65
490.05	25.74
490.402	25.74
490.754	26.04
491.107	26.02
491.459	26.34
491.811	26.41
492.163	26.65
492.515	26.47
492.866	26.26
493.218	26.15
493.57	26.12
493.922	26.1
494.274	26.44
494.625	26.4
494.977	26.71
495.328	27.07
495.68	27.02
496.031	27.25
496.383	27.5
496.734	27.42
497.086	27.82
497.437	27.48
497.788	27.6
498.139	27.34
498.49	27.21
498.842	27.4
499.193	27.32
499.544	27.47
499.894	27.6
500.245	27.69
500.596	27.8
500.947	27.65
501.298	27.95
501.648	27.92
501.999	28.16
502.35	28.07
502.7	28.17
503.051	28.06
503.401	28.31
503.752	28.22
504.102	28.37
504.452	28.48
504.803	28.5
505.153	28.49
505.503	28.4
505.853	28.42
506.203	28.34
506.553	28.32
506.903	28.45
507.253	28.58
507.603	28.62
507.953	28.59
508.303	28.77
508.652	28.79
509.002	28.52
509.352	28.71
509.701	28.78
510.051	28.69
510.4	28.59
510.75	28.63
511.099	28.6
511.449	28.74
511.798	28.8
512.147	28.8
512.496	28.88
512.846	28.75
513.195	28.88
513.544	28.95
513.893	29.06
514.242	29.1
514.591	29.11
514.939	29.27
515.288	29.26
515.637	29.28
515.986	29.41
516.334	29.41
516.683	29.44
517.032	29.33
517.38	29.74
517.729	29.69
518.077	29.52
518.426	29.7
518.774	29.62
519.122	29.39
519.47	29.4
519.819	29.53
520.167	29.23
520.515	29.26
520.863	29.27
521.211	29.38
521.559	29.44
521.907	29.71
522.255	29.75
522.602	29.8
522.95	30.12
523.298	30
523.645	30.17
523.993	30.13
524.341	30.21
524.688	30.17
525.036	30.32
525.383	30.33
525.73	30.23
526.078	30.38
526.425	30.11
526.772	30.14
527.119	30.05
527.466	29.88
527.814	29.89
528.161	29.98
528.508	29.99
528.854	30.12
529.201	30.12
529.548	29.87
529.895	29.74
530.242	29.59
530.588	29.68
530.935	29.75
531.282	29.75
531.628	29.9
531.975	29.97
532.321	30.2
532.667	30.26
533.014	30.48
533.36	30.38
533.706	30.58
534.052	30.57
534.399	30.38
534.745	30.24
535.091	30.1
535.437	30.34
535.783	30.36
536.129	30.51
536.474	30.71
536.82	30.89
537.166	30.9
537.512	31.07
537.857	31.16
538.203	30.94
538.549	30.87
538.894	30.98
539.239	31.03
539.585	31.02
539.93	31.45
540.276	31.58
540.621	31.64
540.966	31.65
541.311	31.68
541.656	31.66
542.001	31.51
542.346	31.45
542.691	31.12
543.036	30.91
543.381	30.84
543.726	31.03
544.071	31.11
544.415	31.26
544.76	31.22
545.105	31.55
545.449	31.55
545.794	31.65
546.138	31.8
546.483	32.03
546.827	32.15
547.171	32.07
547.516	31.95
547.86	32.1
548.204	32.03
548.548	31.91
548.892	32.01
549.236	32.25
549.58	32.31
549.924	32.54
550.268	32.58
550.612	32.72
550.956	32.72
551.3	33.03
551.643	33.04
551.987	33.12
552.33	32.9
552.674	33.03
553.017	33.18
553.361	33.37
553.704	33.09
554.048	33.17
554.391	33.05
554.734	32.99
555.077	33.21
555.42	33.29
555.764	33.38
556.107	33.33
556.45	33.61
556.793	33.48
557.135	33.44
557.478	33.48
557.821	33.59
558.164	33.52
558.507	33.74
558.849	33.68
559.192	33.6
559.534	33.91
559.877	34
560.219	33.97
560.562	33.9
560.904	33.84
561.246	34.07
561.589	33.95
561.931	33.98
562.273	34
562.615	34.04
562.957	34.02
563.299	33.95
563.641	34.12
563.983	34.04
564.325	34.01
564.667	34.19
565.008	34.14
565.35	34.34
565.692	34.21
566.033	34.48
566.375	34.14
566.716	34.41
567.058	34.32
567.399	34.44
567.741	34.4
568.082	34.3
568.423	34.43
568.764	34.36
569.105	34.52
569.447	34.3
569.788	34.57
570.129	34.49
570.47	34.61
570.811	34.6
571.151	34.95
571.492	34.9
571.833	34.87
572.174	34.78
572.514	35.01
572.855	34.68
573.195	35.05
573.536	34.74
573.876	34.66
574.217	34.65
574.557	34.84
574.898	35.03
575.238	34.95
575.578	35.06
575.918	34.92
576.258	35.11
576.598	35.42
576.938	35.01
577.278	35.24
577.618	35.31
577.958	35.53
578.298	35.51
578.638	35.67
578.977	35.43
579.317	35.55
579.657	35.42
579.996	35.48
580.336	35.6
580.675	35.71
581.014	35.69
581.354	35.93
581.693	35.64
582.032	36.02
582.372	36.16
582.711	36.22
583.05	35.89
583.389	36.01
583.728	36.5
584.067	36.25
584.406	35.99
584.745	36.39
585.083	36.4
585.422	36.17
585.761	36.33
586.1	36.22
586.438	36.19
586.777	36.51
587.115	36.37
587.454	36.5
587.792	36.4
588.13	36.5
588.469	36.48
588.807	36.74
589.145	36.58
589.483	36.73
589.821	36.62
590.159	36.83
590.497	37.12
590.835	36.51
591.173	36.88
591.511	36.77
591.849	36.61
592.187	37.01
592.524	36.65
592.862	36.75
593.2	36.95
593.537	36.9
593.875	36.99
594.212	36.95
594.55	37.13
594.887	36.86
595.224	37.33
595.561	37.21
595.899	37.27
596.236	37.08
596.573	37.13
596.91	37.21
597.247	36.99
597.584	37.33
597.921	36.86
598.258	37.2
598.594	36.96
598.931	37.12
599.268	37.18
599.604	37.28
599.941	37.25
600.277	37.28
600.614	37.47
600.95	37.38
601.287	37.51
601.623	37.53
601.959	37.62
602.296	37.49
602.632	37.64
602.968	37.68
603.304	37.96
603.64	37.65
603.976	37.86
604.312	37.75
604.648	37.74
604.984	37.62
605.319	37.6
605.655	37.54
605.991	37.7
606.326	37.57
606.662	37.48
606.998	37.68
607.333	37.68
607.668	37.87
608.004	38.05
608.339	37.99
608.674	38.07
609.01	38.03
609.345	38.28
609.68	38.37
610.015	38.21
610.35	38.02
610.685	38.08
611.02	38.2
611.355	38.01
611.689	38.19
612.024	38.32
612.359	37.99
612.694	38.3
613.028	38.23
613.363	38.4
613.697	38.94
614.032	38.81
614.366	38.61
614.7	38.72
615.035	38.6
615.369	38.96
615.703	39.03
616.037	38.99
616.371	38.91
616.705	39.16
617.039	38.96
617.373	39.37
617.707	38.93
618.041	39.25
618.375	39.24
618.709	39.17
619.042	39.25
619.376	39.34
619.71	39.27
620.043	39.47
620.377	39.35
620.71	39.4
621.043	39.33
621.377	39.16
621.71	39.52
622.043	39.42
622.376	39.39
622.709	39.66
623.043	39.61
623.376	39.49
623.709	39.82
624.041	39.51
624.374	39.81
624.707	39.76
625.04	39.48
625.373	39.82
625.705	40.1
626.038	39.6
626.37	39.73
626.703	40.26
627.035	39.77
627.368	39.82
627.7	39.72
628.032	39.75
628.365	39.8
628.697	40
629.029	39.57
629.361	39.65
629.693	39.87
630.025	39.81
630.357	40.06
630.689	40.39
631.021	40.38
631.353	39.87
631.684	40.21
632.016	40.14
632.348	39.99
632.679	39.75
633.011	40.06
633.342	40.2
633.674	40.35
634.005	40.39
634.336	40.02
634.668	40.43
634.999	40.17
635.33	40.58
635.661	40.58
635.992	40.5
636.323	40.24
636.654	40.24
636.985	40.58
637.316	40.75
637.647	40.56
637.977	40.53
638.308	40.54
638.639	40.72
638.969	40.72
639.3	40.94
639.63	40.69
639.961	40.77
640.291	40.84
640.622	41.09
640.952	40.85
641.282	40.72
641.612	40.98
641.943	41.09
642.273	41.21
642.603	41
642.933	41.11
643.263	41.13
643.592	41.14
643.922	40.76
644.252	40.91
644.582	40.84
644.911	41.12
645.241	41.66
645.571	41.37
645.9	41.39
646.23	41.65
646.559	41.35
646.888	41.19
647.218	41.08
647.547	41.42
647.876	41.11
648.205	41.2
648.534	40.98
648.863	41.43
649.192	42.04
649.521	41.43
649.85	41.04
650.179	41.12
650.508	42.05
650.837	41.82
651.165	41.61
651.494	41.79
651.822	41.47
652.151	41.61
652.479	42.06
652.808	41.39
653.136	41.6
653.465	41.79
653.793	42.04
654.121	41.7
654.449	41.22
654.777	41.67
655.105	41.61
655.433	41.86
655.761	41.59
656.089	41.92
656.417	41.7
656.745	41.88
657.073	41.89
657.4	42.32
657.728	42.14
658.056	42.46
658.383	42.57
658.711	41.96
659.038	42.41
659.365	42.04
659.693	42.09
660.02	42.39
660.347	42.52
660.674	42.08
661.001	42.39
661.329	41.75
661.656	42.48
661.982	42.44
662.309	42.15
662.636	42.12
662.963	42.07
663.29	42.48
663.616	42.65
663.943	42.94
664.27	42.54
664.596	43.05
664.923	42.6
665.249	42.62
665.576	41.95
665.902	43
666.228	42.85
666.554	42.7
666.881	43.02
667.207	42.8
667.533	42.63
667.859	42.32
668.185	42.87
668.511	43.05
668.837	42.58
669.162	42.51
669.488	42.58
669.814	42.74
670.139	42.99
670.465	43.57
