Data from 1597-1_forehead_Reflection__0__40.txt Node

Date: Fri Nov 11 16:27:28 CST 2022
User: ToomeyLab
Spectrometer: FLMS14357
Trigger mode: 0
Integration Time (sec): 1.000000E-2
Scans to average: 100
Electric dark correction enabled: true
Nonlinearity correction enabled: false
Boxcar width: 0
XAxis mode: Wavelengths
Number of Pixels in Spectrum: 2048
>>>>>Begin Spectral Data<<<<<
189.047	-1.22
189.435	-1.22
189.823	-1.22
190.211	-144.05
190.599	92.86
190.987	-34.91
191.375	166.92
191.763	-44.85
192.151	1744.41
192.538	-2639.36
192.926	136.04
193.314	53.86
193.702	671.32
194.089	-13.03
194.477	125.3
194.864	84.58
195.252	-8.68
195.639	35.44
196.027	170.43
196.414	78.05
196.801	420.84
197.189	17.53
197.576	-30.64
197.963	140.33
198.351	33.68
198.738	12.86
199.125	14.29
199.512	21.25
199.899	18.06
200.286	26.77
200.673	32.31
201.06	7.57
201.447	5.51
201.833	10.7
202.22	37.02
202.607	73.77
202.994	25.36
203.38	-2.52
203.767	29.27
204.154	24.87
204.54	52.43
204.927	25.33
205.313	50.94
205.699	23.15
206.086	20.93
206.472	74.58
206.858	30.99
207.245	47.59
207.631	55.67
208.017	45.35
208.403	21.4
208.789	0.01
209.175	57.97
209.561	18.7
209.947	45.37
210.333	24.31
210.719	27.47
211.105	36.34
211.491	-19.9
211.876	58.6
212.262	20.4
212.648	-9.73
213.034	13
213.419	24.15
213.805	42.7
214.19	7.11
214.576	35.76
214.961	51.6
215.346	-4.19
215.732	9.69
216.117	39.76
216.502	23.48
216.888	17.07
217.273	60.78
217.658	33.67
218.043	22.57
218.428	16.52
218.813	29.91
219.198	0.11
219.583	42.24
219.968	17.42
220.353	-2.61
220.738	6.57
221.122	4.68
221.507	42.92
221.892	19.9
222.276	11.67
222.661	17.84
223.046	27.84
223.43	13.06
223.815	10.61
224.199	12.3
224.583	21.03
224.968	23.03
225.352	2.93
225.736	10.99
226.121	11.99
226.505	14.65
226.889	7.87
227.273	10.3
227.657	-2.27
228.041	4.07
228.425	9.69
228.809	11.39
229.193	0.84
229.577	6.2
229.961	5.57
230.344	4.21
230.728	3.88
231.112	3.81
231.495	3.86
231.879	4.78
232.263	3.96
232.646	4.36
233.03	4.92
233.413	4.16
233.797	5.1
234.18	6.67
234.563	6.75
234.946	3.7
235.33	4.36
235.713	4.09
236.096	1.69
236.479	4.51
236.862	5.19
237.245	4.84
237.628	4.62
238.011	4.25
238.394	5.99
238.777	4.1
239.16	4.88
239.543	4.93
239.925	8.1
240.308	3.75
240.691	7.1
241.073	4.55
241.456	2.74
241.838	3.67
242.221	3.72
242.603	3.69
242.986	4.54
243.368	3.62
243.75	4.1
244.133	3.8
244.515	4.49
244.897	3.67
245.279	4.28
245.661	3.96
246.043	4.71
246.425	5.71
246.807	4.39
247.189	3.31
247.571	3.2
247.953	3.95
248.335	4.07
248.717	3.82
249.098	3.87
249.48	4
249.862	3.79
250.243	4.12
250.625	4.11
251.006	4.34
251.388	4.54
251.769	4.88
252.151	4.35
252.532	5.05
252.913	3.3
253.295	4.13
253.676	4.07
254.057	4.1
254.438	4.42
254.819	4.19
255.2	4.63
255.581	4.82
255.962	3.43
256.343	4.97
256.724	4.28
257.105	4.1
257.486	4.64
257.867	4.11
258.247	4.96
258.628	3.94
259.009	4.4
259.389	4.55
259.77	5.4
260.15	5.13
260.531	3.83
260.911	4.44
261.292	3.88
261.672	3.81
262.052	3.76
262.432	4.34
262.813	3.98
263.193	4.07
263.573	4.96
263.953	4.46
264.333	4.6
264.713	4.27
265.093	5.07
265.473	4.44
265.853	3.79
266.233	4.92
266.612	4.14
266.992	4.04
267.372	4.58
267.752	4.33
268.131	4.4
268.511	4.4
268.89	4.38
269.27	3.81
269.649	4.02
270.029	3.65
270.408	4.1
270.787	4.76
271.167	4.33
271.546	4.92
271.925	4.04
272.304	4.47
272.683	3.85
273.062	4.35
273.441	3.68
273.82	3.99
274.199	4.14
274.578	4.01
274.957	3.77
275.336	3.72
275.715	3.73
276.093	4.68
276.472	3.72
276.851	4.23
277.229	3.9
277.608	4.5
277.986	3.78
278.365	4.18
278.743	3.93
279.122	3.91
279.5	3.95
279.878	3.88
280.257	4.3
280.635	4.23
281.013	4.07
281.391	4
281.769	4.78
282.147	4.1
282.525	3.79
282.903	3.83
283.281	3.78
283.659	3.85
284.037	4.13
284.415	3.69
284.792	3.69
285.17	4.22
285.548	4.27
285.925	3.78
286.303	3.6
286.68	4
287.058	3.73
287.435	4.09
287.813	3.91
288.19	4.01
288.567	4.12
288.945	3.88
289.322	3.83
289.699	4.34
290.076	4.09
290.453	3.73
290.83	4.17
291.207	4.17
291.584	3.98
291.961	3.98
292.338	4.39
292.715	4.07
293.092	4.33
293.469	4.71
293.845	4.59
294.222	4.63
294.599	4.59
294.975	4.35
295.352	3.98
295.728	4.25
296.105	4.62
296.481	4.18
296.858	4.41
297.234	4.36
297.61	4.27
297.986	4.14
298.363	4.55
298.739	4.74
299.115	4.28
299.491	4.87
299.867	4.57
300.243	4.39
300.619	4.66
300.995	4.96
301.371	4.93
301.746	4.84
302.122	4.93
302.498	4.6
302.874	4.95
303.249	5.3
303.625	4.86
304	5.28
304.376	5.28
304.751	5.6
305.127	5.16
305.502	5.25
305.878	6.08
306.253	5.6
306.628	5.93
307.003	5.53
307.378	5.86
307.754	5.75
308.129	6.16
308.504	5.6
308.879	5.67
309.254	5.4
309.629	5.88
310.003	6.39
310.378	5.76
310.753	5.94
311.128	6.65
311.502	5.61
311.877	6.23
312.252	6.05
312.626	5.97
313.001	6.54
313.375	6.51
313.75	6.56
314.124	6.52
314.498	6.77
314.873	6.93
315.247	7.1
315.621	6.49
315.995	6.72
316.369	7.2
316.743	7.11
317.117	6.9
317.491	7.25
317.865	7.4
318.239	7.66
318.613	6.98
318.987	7.75
319.361	7.22
319.734	7.22
320.108	8.1
320.482	7.5
320.855	7.65
321.229	8.12
321.602	7.95
321.976	7.74
322.349	8.5
322.723	8.06
323.096	8.05
323.469	8.49
323.843	8.85
324.216	8.09
324.589	8.4
324.962	8.29
325.335	8.22
325.708	8.12
326.081	8.69
326.454	8.64
326.827	9.06
327.2	8.58
327.573	9.24
327.945	8.97
328.318	9.05
328.691	9.31
329.063	9.33
329.436	9.18
329.809	8.98
330.181	9.49
330.553	9.28
330.926	8.86
331.298	9.32
331.671	9.82
332.043	9.52
332.415	10.11
332.787	9.85
333.159	10.09
333.532	9.16
333.904	9.37
334.276	9.93
334.648	9.85
335.02	10.06
335.391	10.34
335.763	10.24
336.135	10.57
336.507	10.4
336.879	10.2
337.25	10.21
337.622	10.63
337.993	10
338.365	10.85
338.736	10.33
339.108	10.24
339.479	10.61
339.851	10.01
340.222	10.64
340.593	10.5
340.964	10.44
341.336	10.62
341.707	10.57
342.078	10.72
342.449	11.06
342.82	10.6
343.191	11.21
343.562	11.29
343.933	10.59
344.303	11.44
344.674	11.22
345.045	11.07
345.416	11.29
345.786	11.22
346.157	11.44
346.527	11.34
346.898	11.14
347.268	11.51
347.639	11.47
348.009	11.33
348.38	11.58
348.75	11.77
349.12	11.69
349.49	11.76
349.861	11.68
350.231	11.97
350.601	12.29
350.971	11.67
351.341	11.83
351.711	11.57
352.081	11.46
352.45	12.35
352.82	12.19
353.19	12.23
353.56	12.52
353.929	12.26
354.299	12.6
354.669	12.67
355.038	12.5
355.408	12.26
355.777	12.83
356.147	12.87
356.516	12.82
356.885	12.36
357.254	12.97
357.624	12.51
357.993	12.89
358.362	12.76
358.731	12.85
359.1	13.13
359.469	12.93
359.838	13.32
360.207	13.12
360.576	13.24
360.945	13.45
361.314	13.38
361.682	13.43
362.051	13.11
362.42	13.33
362.788	13.39
363.157	13.46
363.525	13.7
363.894	13.57
364.262	13.5
364.631	13.57
364.999	13.94
365.367	13.94
365.735	13.79
366.104	13.89
366.472	13.98
366.84	14.11
367.208	14.08
367.576	14.38
367.944	14.45
368.312	14.2
368.68	14.19
369.048	13.93
369.416	14.24
369.783	14.07
370.151	14.53
370.519	14.82
370.886	14.66
371.254	14.86
371.621	14.76
371.989	14.82
372.356	14.51
372.724	15.22
373.091	14.72
373.458	14.99
373.826	15.22
374.193	15.11
374.56	14.79
374.927	15.27
375.294	15.23
375.661	15.43
376.028	15.41
376.395	15.39
376.762	15.47
377.129	15.7
377.496	15.84
377.863	15.53
378.229	15.66
378.596	15.43
378.963	15.71
379.329	15.8
379.696	16.22
380.062	16.15
380.429	15.74
380.795	16.13
381.161	16.3
381.528	16.43
381.894	16.51
382.26	15.91
382.626	16.39
382.993	16.47
383.359	16.24
383.725	16.75
384.091	16.55
384.457	16.78
384.823	16.47
385.188	16.73
385.554	16.89
385.92	16.75
386.286	16.6
386.651	16.76
387.017	16.92
387.383	17.09
387.748	17.08
388.114	17.44
388.479	17.27
388.845	17.18
389.21	17.28
389.575	17.45
389.94	17.56
390.306	17.16
390.671	17.79
391.036	17.74
391.401	17.51
391.766	17.58
392.131	17.67
392.496	17.84
392.861	17.8
393.226	17.76
393.591	17.75
393.956	18.2
394.32	18.09
394.685	18.19
395.05	18.42
395.414	18.14
395.779	18.05
396.143	18.38
396.508	18.34
396.872	18.48
397.236	18.29
397.601	18.81
397.965	18.41
398.329	18.63
398.694	18.72
399.058	18.54
399.422	18.65
399.786	18.97
400.15	18.67
400.514	18.77
400.878	19.05
401.242	19.15
401.605	19.05
401.969	19.3
402.333	19.26
402.697	19.56
403.06	19.29
403.424	19.22
403.787	19.27
404.151	19.38
404.514	19.65
404.878	19.71
405.241	19.57
405.604	19.43
405.968	19.6
406.331	19.57
406.694	19.74
407.057	19.76
407.42	19.77
407.783	19.88
408.146	20.1
408.509	20.06
408.872	20.3
409.235	20.25
409.598	20.35
409.961	20.49
410.323	20.61
410.686	20.79
411.049	20.27
411.411	20.2
411.774	20.07
412.136	20.45
412.499	20.61
412.861	20.33
413.223	20.6
413.586	20.75
413.948	20.86
414.31	20.83
414.672	21
415.035	20.75
415.397	21.02
415.759	21.03
416.121	21.14
416.483	21.11
416.845	21.09
417.206	21.15
417.568	21.31
417.93	21.31
418.292	21.21
418.653	21.11
419.015	21.22
419.377	21.32
419.738	21.38
420.1	21.32
420.461	21.18
420.822	21.2
421.184	21.17
421.545	21.32
421.906	21.37
422.267	21.27
422.629	21.35
422.99	21.19
423.351	21.3
423.712	21.45
424.073	21.65
424.434	21.74
424.795	21.98
425.155	21.78
425.516	21.78
425.877	21.79
426.238	21.83
426.598	21.85
426.959	21.97
427.32	22.11
427.68	22.09
428.041	22.42
428.401	22.33
428.761	22.48
429.122	22.79
429.482	22.51
429.842	22.76
430.202	22.77
430.563	23.1
430.923	23.16
431.283	23.13
431.643	23.26
432.003	23.4
432.363	23.3
432.722	23.37
433.082	23.28
433.442	23.32
433.802	23.58
434.161	23.34
434.521	23.58
434.881	23.46
435.24	23.49
435.6	23.23
435.959	23.55
436.319	23.67
436.678	23.62
437.037	23.69
437.396	23.57
437.756	23.72
438.115	23.94
438.474	23.95
438.833	23.96
439.192	24.22
439.551	24.04
439.91	24.28
440.269	24.07
440.628	24.19
440.987	24.28
441.345	24.3
441.704	24.15
442.063	24.33
442.421	24.18
442.78	24.25
443.138	24.22
443.497	24.24
443.855	24.54
444.214	24.58
444.572	24.85
444.93	24.71
445.288	24.8
445.647	24.83
446.005	24.97
446.363	24.89
446.721	24.8
447.079	24.93
447.437	24.86
447.795	24.79
448.153	24.79
448.51	24.76
448.868	24.89
449.226	24.9
449.584	25.14
449.941	25.12
450.299	25.39
450.656	25.5
451.014	25.6
451.371	25.43
451.729	25.71
452.086	25.81
452.443	25.91
452.801	25.96
453.158	26.02
453.515	25.99
453.872	26.1
454.229	26.11
454.586	26.04
454.943	26.11
455.3	26.19
455.657	26.4
456.014	26.28
456.371	26.39
456.727	26.49
457.084	26.72
457.441	26.53
457.797	26.62
458.154	26.76
458.51	26.82
458.867	26.91
459.223	26.93
459.58	26.98
459.936	27.01
460.292	26.92
460.648	26.92
461.005	26.97
461.361	26.61
461.717	26.56
462.073	26.78
462.429	26.78
462.785	26.98
463.141	27.13
463.496	27.11
463.852	27.39
464.208	27.4
464.564	27.53
464.919	27.59
465.275	27.64
465.631	27.81
465.986	27.95
466.342	27.89
466.697	28.03
467.052	27.97
467.408	27.97
467.763	28.08
468.118	28.07
468.473	28.08
468.829	28.02
469.184	28.27
469.539	28.38
469.894	28.35
470.249	28.32
470.603	28.41
470.958	28.6
471.313	28.58
471.668	28.59
472.023	28.7
472.377	28.92
472.732	28.79
473.086	28.91
473.441	28.78
473.795	28.82
474.15	29.14
474.504	29.23
474.859	28.96
475.213	28.94
475.567	29.24
475.921	29.55
476.275	29.12
476.63	29.33
476.984	29.37
477.338	29.34
477.692	29.31
478.045	29.45
478.399	29.32
478.753	29.55
479.107	29.44
479.461	29.54
479.814	29.56
480.168	29.53
480.521	29.58
480.875	29.54
481.228	29.7
481.582	29.53
481.935	30.01
482.289	29.97
482.642	29.88
482.995	29.88
483.348	29.68
483.701	29.75
484.055	29.75
484.408	29.47
484.761	29.37
485.114	29.08
485.466	29.08
485.819	29.08
486.172	29.03
486.525	29.22
486.878	29.32
487.23	29.52
487.583	29.68
487.936	29.83
488.288	29.89
488.641	29.83
488.993	29.59
489.345	29.65
489.698	29.64
490.05	29.67
490.402	29.73
490.754	30.03
491.107	30.13
491.459	30.34
491.811	30.56
492.163	30.59
492.515	30.48
492.866	30.46
493.218	30.18
493.57	30.22
493.922	30.24
494.274	30.52
494.625	30.53
494.977	30.83
495.328	31.05
495.68	31.25
496.031	31.56
496.383	31.67
496.734	31.84
497.086	31.91
497.437	31.76
497.788	31.73
498.139	31.72
498.49	31.55
498.842	31.74
499.193	31.67
499.544	31.72
499.894	31.92
500.245	32.14
500.596	31.94
500.947	31.99
501.298	32.15
501.648	32.45
501.999	32.54
502.35	32.54
502.7	32.61
503.051	32.54
503.401	32.82
503.752	32.6
504.102	32.89
504.452	32.68
504.803	32.9
505.153	32.84
505.503	33.03
505.853	32.94
506.203	33.05
506.553	33.1
506.903	33.09
507.253	33.09
507.603	33.3
507.953	33.37
508.303	33.28
508.652	33.31
509.002	33.28
509.352	33.56
509.701	33.53
510.051	33.33
510.4	33.18
510.75	33.22
511.099	33.36
511.449	33.36
511.798	33.32
512.147	33.38
512.496	33.7
512.846	33.66
513.195	33.51
513.544	33.75
513.893	33.71
514.242	33.86
514.591	33.84
514.939	33.87
515.288	33.91
515.637	34.14
515.986	34.33
516.334	34.12
516.683	34.21
517.032	34.22
517.38	34.4
517.729	34.53
518.077	34.36
518.426	34.3
518.774	34.44
519.122	34.26
519.47	34.27
519.819	34.34
520.167	34.05
520.515	34.12
520.863	34.3
521.211	34.25
521.559	34.43
521.907	34.55
522.255	34.57
522.602	34.72
522.95	35.01
523.298	35.15
523.645	35.02
523.993	35.3
524.341	35.26
524.688	35.35
525.036	35.31
525.383	35.13
525.73	35.24
526.078	35.5
526.425	35.39
526.772	35.13
527.119	35
527.466	34.94
527.814	34.97
528.161	35.07
528.508	35.1
528.854	35.3
529.201	35.24
529.548	35.06
529.895	34.91
530.242	34.74
530.588	34.9
530.935	34.9
531.282	34.95
531.628	34.91
531.975	35.15
532.321	35.29
532.667	35.49
533.014	35.56
533.36	35.76
533.706	35.93
534.052	36.01
534.399	35.83
534.745	35.71
535.091	35.49
535.437	35.57
535.783	35.59
536.129	35.74
536.474	36.1
536.82	36.38
537.166	36.28
537.512	36.5
537.857	36.55
538.203	36.3
538.549	36.18
538.894	36.41
539.239	36.44
539.585	36.63
539.93	36.83
540.276	36.92
540.621	37.14
540.966	37.07
541.311	37.4
541.656	37.24
542.001	37.06
542.346	36.86
542.691	36.77
543.036	36.53
543.381	36.44
543.726	36.63
544.071	36.65
544.415	36.77
544.76	36.82
545.105	37.18
545.449	37.18
545.794	37.32
546.138	37.53
546.483	37.52
546.827	37.78
547.171	37.89
547.516	37.69
547.86	37.82
548.204	37.7
548.548	37.75
548.892	37.76
549.236	37.85
549.58	37.89
549.924	38.23
550.268	38.41
550.612	38.64
550.956	38.64
551.3	38.79
551.643	38.94
551.987	38.83
552.33	39.13
552.674	38.91
553.017	39.01
553.361	38.94
553.704	39.34
554.048	39.21
554.391	39.19
554.734	38.75
555.077	39.11
555.42	39.15
555.764	39.3
556.107	39.56
556.45	39.46
556.793	39.52
557.135	39.6
557.478	39.46
557.821	39.51
558.164	39.45
558.507	39.63
558.849	39.77
559.192	39.79
559.534	39.88
559.877	39.91
560.219	40.29
560.562	40.08
560.904	39.96
561.246	40.13
561.589	40.1
561.931	40.11
562.273	40.22
562.615	40.23
562.957	40.29
563.299	40.18
563.641	39.98
563.983	40.42
564.325	40.39
564.667	40.45
565.008	40.49
565.35	40.69
565.692	40.49
566.033	40.66
566.375	40.61
566.716	40.53
567.058	40.52
567.399	40.64
567.741	40.56
568.082	40.41
568.423	40.64
568.764	40.83
569.105	40.53
569.447	40.78
569.788	41.07
570.129	41.01
570.47	40.8
570.811	41.04
571.151	41.09
571.492	41.14
571.833	41.29
572.174	41.11
572.514	41.29
572.855	41.38
573.195	41.34
573.536	41.29
573.876	41.13
574.217	40.95
574.557	41.35
574.898	41.26
575.238	41.71
575.578	41.61
575.918	41.41
576.258	41.68
576.598	41.67
576.938	41.68
577.278	41.75
577.618	41.87
577.958	41.93
578.298	41.98
578.638	41.98
578.977	42.08
579.317	42.1
579.657	41.93
579.996	42.02
580.336	42.24
580.675	42.12
581.014	42.67
581.354	42.26
581.693	42.19
582.032	42.65
582.372	42.69
582.711	42.65
583.05	42.72
583.389	42.8
583.728	42.95
584.067	42.56
584.406	42.78
584.745	42.96
585.083	43.16
585.422	42.82
585.761	43.39
586.1	43.07
586.438	42.79
586.777	43.29
587.115	43.25
587.454	43.34
587.792	43.07
588.13	43.37
588.469	43.22
588.807	43.44
589.145	43.43
589.483	43.45
589.821	43.5
590.159	43.61
590.497	43.62
590.835	43.52
591.173	43.47
591.511	43.53
591.849	43.35
592.187	43.66
592.524	43.6
592.862	43.78
593.2	43.9
593.537	43.73
593.875	44.02
594.212	43.78
594.55	43.93
594.887	43.81
595.224	44.19
595.561	44.35
595.899	43.94
596.236	44.03
596.573	44.19
596.91	44.25
597.247	44.05
597.584	44.2
597.921	43.87
598.258	44.3
598.594	43.94
598.931	44.07
599.268	44.05
599.604	44.12
599.941	44.53
600.277	44.3
600.614	44.61
600.95	44.61
601.287	44.57
601.623	44.57
601.959	44.68
602.296	44.56
602.632	45.13
602.968	44.65
603.304	45.15
603.64	45.16
603.976	45.22
604.312	45.02
604.648	44.63
604.984	45.02
605.319	44.79
605.655	44.91
605.991	44.84
606.326	44.74
606.662	44.78
606.998	44.78
607.333	44.7
607.668	45.17
608.004	45.17
608.339	45.32
608.674	45.25
609.01	45.23
609.345	45.34
609.68	45.74
610.015	45.49
610.35	45.65
610.685	45.66
611.02	45.42
611.355	45.32
611.689	45.41
612.024	45.43
612.359	45.44
612.694	45.63
613.028	45.87
613.363	45.84
613.697	46.17
614.032	46.12
614.366	45.93
614.7	45.85
615.035	45.94
615.369	46.44
615.703	46.44
616.037	46.39
616.371	46.36
616.705	46.63
617.039	46.38
617.373	46.71
617.707	46.47
618.041	46.72
618.375	46.99
618.709	46.74
619.042	46.67
619.376	46.95
619.71	46.73
620.043	47.04
620.377	46.7
620.71	46.74
621.043	46.85
621.377	47.06
621.71	47.17
622.043	47
622.376	46.61
622.709	47.31
623.043	47.03
623.376	47.38
623.709	47.29
624.041	47.63
624.374	46.88
624.707	47.25
625.04	47.09
625.373	47.43
625.705	47.39
626.038	47.47
626.37	47.47
626.703	47.54
627.035	46.91
627.368	47.52
627.7	47.32
628.032	47.4
628.365	47.54
628.697	47.59
629.029	47.64
629.361	47.21
629.693	47.42
630.025	47.49
630.357	47.85
630.689	47.65
631.021	47.96
631.353	48.01
631.684	47.84
632.016	47.73
632.348	48.07
632.679	47.94
633.011	47.73
633.342	47.99
633.674	48.24
634.005	48.33
634.336	48.04
634.668	48.5
634.999	48.3
635.33	48.65
635.661	48.43
635.992	48.94
636.323	48.44
636.654	48.33
636.985	48.75
637.316	48.82
637.647	48.37
637.977	48.65
638.308	48.79
638.639	48.55
638.969	49.04
639.3	48.51
639.63	48.32
639.961	48.89
640.291	48.71
640.622	48.89
640.952	48.48
641.282	49.5
641.612	49.06
641.943	49.08
642.273	49.65
642.603	49.06
642.933	48.99
643.263	49.22
643.592	49.3
643.922	48.95
644.252	49.48
644.582	49.54
644.911	49.41
645.241	49.78
645.571	49.96
645.9	49.48
646.23	49.46
646.559	49.41
646.888	49.81
647.218	49.59
647.547	49.81
647.876	49.71
648.205	48.89
648.534	49.79
648.863	49.38
649.192	50.22
649.521	49.85
649.85	49.15
650.179	49.41
650.508	50.3
650.837	50.3
651.165	49.85
651.494	50.01
651.822	49.65
652.151	50.03
652.479	50.12
652.808	50.5
653.136	49.88
653.465	50.64
653.793	50.72
654.121	49.95
654.449	50.18
654.777	50.25
655.105	50.27
655.433	50.22
655.761	50.17
656.089	50.33
656.417	50.26
656.745	50.15
657.073	50.59
657.4	49.96
657.728	50.44
658.056	51.02
658.383	50.43
658.711	50.63
659.038	50.83
659.365	50.1
659.693	50.39
660.02	51.07
660.347	50.55
660.674	50.63
661.001	50.69
661.329	50.47
661.656	50.75
661.982	50.7
662.309	50.65
662.636	50.96
662.963	50.85
663.29	51.15
663.616	51.4
663.943	51.35
664.27	51.75
664.596	51.77
664.923	51.54
665.249	51.36
665.576	51.41
665.902	51.09
666.228	51.43
666.554	51.59
666.881	51.55
667.207	51.6
667.533	51.46
667.859	51.53
668.185	51.43
668.511	51.37
668.837	51.48
669.162	51.39
669.488	51.41
669.814	51.91
670.139	51.86
