Data from 1597-1_forehead_Reflection__3__43.txt Node

Date: Fri Nov 11 16:28:05 CST 2022
User: ToomeyLab
Spectrometer: FLMS14357
Trigger mode: 0
Integration Time (sec): 1.000000E-2
Scans to average: 100
Electric dark correction enabled: true
Nonlinearity correction enabled: false
Boxcar width: 0
XAxis mode: Wavelengths
Number of Pixels in Spectrum: 2048
>>>>>Begin Spectral Data<<<<<
189.047	85
189.435	85
189.823	85
190.211	10.68
190.599	170.47
190.987	398.21
191.375	127.87
191.763	-52.57
192.151	1005.59
192.538	1270.21
192.926	-30.38
193.314	101.93
193.702	673.7
194.089	-21.17
194.477	-81.28
194.864	-40.66
195.252	323.3
195.639	130.98
196.027	228.05
196.414	154.9
196.801	168.15
197.189	39.89
197.576	-75.51
197.963	115.18
198.351	4.48
198.738	12.75
199.125	18.75
199.512	62.11
199.899	-2.6
200.286	39.57
200.673	55.46
201.06	26.02
201.447	16.64
201.833	51.78
202.22	11.78
202.607	22.69
202.994	40.11
203.38	-7.22
203.767	43.25
204.154	-24.97
204.54	53.43
204.927	17.72
205.313	28.02
205.699	46.24
206.086	52.62
206.472	23.46
206.858	27.49
207.245	26.78
207.631	25.31
208.017	49.46
208.403	8.85
208.789	-43.87
209.175	45.74
209.561	7.55
209.947	7.7
210.333	48.02
210.719	27.37
211.105	17.19
211.491	-69.53
211.876	31.93
212.262	-25.87
212.648	10.64
213.034	-13.64
213.419	39.37
213.805	46.93
214.19	-1.84
214.576	17.65
214.961	-2.2
215.346	-23.06
215.732	-5.36
216.117	40.28
216.502	14.33
216.888	-12.65
217.273	8.81
217.658	8.09
218.043	12.24
218.428	18.66
218.813	21.63
219.198	0.44
219.583	13.39
219.968	-4.06
220.353	-35.22
220.738	16.27
221.122	-8.3
221.507	37.57
221.892	15.21
222.276	16.57
222.661	22.93
223.046	22.89
223.43	11.47
223.815	2.68
224.199	8.51
224.583	9.4
224.968	19.61
225.352	-5.24
225.736	10.24
226.121	7.81
226.505	7.79
226.889	7.53
227.273	5.26
227.657	-1.6
228.041	2.48
228.425	7.7
228.809	8.75
229.193	-0.11
229.577	5.85
229.961	3.39
230.344	3.84
230.728	3.71
231.112	4.32
231.495	4.41
231.879	2.97
232.263	2.77
232.646	3.8
233.03	2.28
233.413	4.33
233.797	3.3
234.18	4.26
234.563	4.99
234.946	3.33
235.33	5.1
235.713	2.93
236.096	0.92
236.479	4.33
236.862	5.14
237.245	4.98
237.628	4.57
238.011	3.36
238.394	5.14
238.777	2.81
239.16	4.72
239.543	4.09
239.925	5.22
240.308	1.94
240.691	4.06
241.073	3.33
241.456	2.86
241.838	4.42
242.221	3.73
242.603	2.42
242.986	3.11
243.368	3.25
243.75	3.72
244.133	3.5
244.515	3.55
244.897	3.35
245.279	3.48
245.661	3.37
246.043	3.86
246.425	4.48
246.807	3.83
247.189	4.05
247.571	3.11
247.953	3.54
248.335	3.41
248.717	3.51
249.098	3.23
249.48	3.27
249.862	3.42
250.243	3.67
250.625	3.45
251.006	3.94
251.388	4.28
251.769	4.58
252.151	4.17
252.532	4.54
252.913	3.15
253.295	3.5
253.676	3.55
254.057	3.7
254.438	4.02
254.819	3.72
255.2	3.81
255.581	4.34
255.962	3.48
256.343	4.58
256.724	4.1
257.105	3.58
257.486	4.49
257.867	3.06
258.247	4.88
258.628	3.5
259.009	3.61
259.389	4.12
259.77	4.57
260.15	4.61
260.531	3.78
260.911	3.4
261.292	3.66
261.672	3.34
262.052	3.57
262.432	3.89
262.813	3.49
263.193	3.33
263.573	4.61
263.953	3.94
264.333	4.29
264.713	2.99
265.093	4.19
265.473	4.79
265.853	3.09
266.233	4.02
266.612	3.14
266.992	3.37
267.372	4.04
267.752	4.05
268.131	3.64
268.511	3.46
268.89	4
269.27	3.73
269.649	3.29
270.029	3.48
270.408	3.25
270.787	4.43
271.167	3.88
271.546	3.67
271.925	3.87
272.304	4
272.683	3.5
273.062	3.64
273.441	3.27
273.82	3.28
274.199	3.58
274.578	3.83
274.957	3.24
275.336	3.5
275.715	3.51
276.093	4.08
276.472	3.52
276.851	3.74
277.229	3.22
277.608	3.5
277.986	3.8
278.365	3.98
278.743	3.16
279.122	3.28
279.5	3.78
279.878	3.38
280.257	3.73
280.635	3.44
281.013	3.84
281.391	3.17
281.769	4.15
282.147	3.33
282.525	3.13
282.903	3.72
283.281	3.67
283.659	3.13
284.037	3.43
284.415	3.53
284.792	3.44
285.17	3.52
285.548	3.66
285.925	3.94
286.303	3.31
286.68	3.74
287.058	4
287.435	3.78
287.813	3.67
288.19	3.65
288.567	3.71
288.945	3.27
289.322	3.75
289.699	3.96
290.076	3.93
290.453	4.06
290.83	3.69
291.207	3.57
291.584	3.83
291.961	4.01
292.338	4.12
292.715	3.87
293.092	4.03
293.469	4.37
293.845	4.58
294.222	4.53
294.599	4.61
294.975	4.29
295.352	4.43
295.728	4.07
296.105	4.3
296.481	4.5
296.858	4.71
297.234	4.37
297.61	4.45
297.986	3.58
298.363	4.39
298.739	4.47
299.115	4.34
299.491	4.76
299.867	4.66
300.243	4.47
300.619	5.11
300.995	4.8
301.371	4.39
301.746	4.94
302.122	4.8
302.498	4.88
302.874	5.22
303.249	4.41
303.625	4.89
304	4.91
304.376	5.6
304.751	5.44
305.127	5.58
305.502	5.02
305.878	5.52
306.253	5.5
306.628	5.91
307.003	5.2
307.378	6.13
307.754	5.9
308.129	6.06
308.504	5.54
308.879	6.03
309.254	5.31
309.629	5.81
310.003	6
310.378	5.52
310.753	5.79
311.128	6.34
311.502	5.85
311.877	6.25
312.252	5.89
312.626	5.98
313.001	6.55
313.375	6.34
313.75	6.46
314.124	6.4
314.498	7.15
314.873	6.25
315.247	6.96
315.621	6.7
315.995	6.73
316.369	7.19
316.743	7.15
317.117	6.95
317.491	7.24
317.865	7.42
318.239	7.69
318.613	7.28
318.987	7.78
319.361	7.75
319.734	7.45
320.108	7.98
320.482	7.51
320.855	7.67
321.229	8.21
321.602	7.98
321.976	7.75
322.349	8.23
322.723	8.6
323.096	8.43
323.469	8.62
323.843	9.02
324.216	8.07
324.589	8.6
324.962	8.13
325.335	8.74
325.708	8.11
326.081	8.4
326.454	8.68
326.827	8.87
327.2	8.49
327.573	8.78
327.945	8.71
328.318	8.93
328.691	9.34
329.063	8.95
329.436	8.92
329.809	8.76
330.181	9.3
330.553	9.58
330.926	9.15
331.298	9.03
331.671	9.9
332.043	9.6
332.415	9.4
332.787	9.76
333.159	10.06
333.532	8.98
333.904	9.97
334.276	9.69
334.648	9.88
335.02	10.18
335.391	9.61
335.763	10.03
336.135	9.74
336.507	10.27
336.879	10.15
337.25	9.8
337.622	10.52
337.993	10.47
338.365	10.21
338.736	10.4
339.108	10.93
339.479	10.48
339.851	10.08
340.222	10.35
340.593	10.1
340.964	10.5
341.336	10.35
341.707	10.95
342.078	10.7
342.449	10.82
342.82	10.64
343.191	11.1
343.562	11.08
343.933	10.98
344.303	11.58
344.674	11.12
345.045	11.26
345.416	11.1
345.786	11
346.157	11.26
346.527	11.43
346.898	11.32
347.268	11.54
347.639	11.7
348.009	11.39
348.38	11.76
348.75	11.93
349.12	11.61
349.49	11.57
349.861	11.52
350.231	11.56
350.601	12.19
350.971	12.15
351.341	11.87
351.711	11.77
352.081	11.54
352.45	12.34
352.82	12.27
353.19	12.44
353.56	12.63
353.929	12.13
354.299	12.58
354.669	11.9
355.038	12.44
355.408	12.46
355.777	12.57
356.147	12.9
356.516	12.68
356.885	12.62
357.254	13.06
357.624	12.54
357.993	12.92
358.362	12.96
358.731	13.05
359.1	12.97
359.469	12.94
359.838	13.34
360.207	13.13
360.576	13.24
360.945	13.17
361.314	13.39
361.682	13.35
362.051	13.09
362.42	13.17
362.788	13.03
363.157	13.38
363.525	13.15
363.894	13.33
364.262	13.4
364.631	13.56
364.999	13.81
365.367	13.72
365.735	13.89
366.104	13.78
366.472	14.03
366.84	13.93
367.208	13.63
367.576	13.84
367.944	14.38
368.312	14.21
368.68	14.27
369.048	13.85
369.416	14.17
369.783	14.35
370.151	14.32
370.519	14.58
370.886	14.57
371.254	14.4
371.621	14.44
371.989	14.46
372.356	14.47
372.724	14.86
373.091	14.64
373.458	14.75
373.826	14.89
374.193	14.76
374.56	14.82
374.927	14.71
375.294	15.06
375.661	15.49
376.028	15.09
376.395	14.93
376.762	14.87
377.129	15.15
377.496	15.2
377.863	15.17
378.229	15.21
378.596	15.25
378.963	15.24
379.329	15.66
379.696	15.35
380.062	15.52
380.429	15.67
380.795	15.49
381.161	15.91
381.528	15.75
381.894	15.71
382.26	15.71
382.626	16.02
382.993	16.16
383.359	15.89
383.725	16.04
384.091	16.13
384.457	16.28
384.823	16.17
385.188	16.2
385.554	16.45
385.92	16.39
386.286	15.98
386.651	16.2
387.017	16.41
387.383	16.66
387.748	16.48
388.114	16.47
388.479	16.77
388.845	16.62
389.21	16.8
389.575	16.69
389.94	16.98
390.306	16.8
390.671	16.79
391.036	16.99
391.401	16.82
391.766	17.1
392.131	17.06
392.496	17.08
392.861	16.78
393.226	16.99
393.591	16.97
393.956	17.38
394.32	17.57
394.685	17.57
395.05	17.43
395.414	17.54
395.779	17.41
396.143	17.54
396.508	17.46
396.872	17.65
397.236	17.77
397.601	17.96
397.965	17.67
398.329	17.7
398.694	17.99
399.058	17.89
399.422	18.28
399.786	18.04
400.15	18.01
400.514	18.27
400.878	17.93
401.242	18.13
401.605	18.37
401.969	18.52
402.333	18.34
402.697	18.12
403.06	18.4
403.424	18.29
403.787	18.54
404.151	18.39
404.514	18.51
404.878	18.69
405.241	18.89
405.604	18.62
405.968	18.8
406.331	18.66
406.694	18.79
407.057	18.67
407.42	18.98
407.783	18.72
408.146	19.06
408.509	19.1
408.872	19.21
409.235	19.26
409.598	19.13
409.961	19.2
410.323	19.46
410.686	19.38
411.049	19.26
411.411	19.41
411.774	19.21
412.136	19.24
412.499	19.21
412.861	19.45
413.223	19.59
413.586	19.52
413.948	19.46
414.31	19.81
414.672	19.98
415.035	19.75
415.397	20.19
415.759	19.84
416.121	19.87
416.483	19.75
416.845	20.05
417.206	19.95
417.568	20.02
417.93	19.94
418.292	19.74
418.653	19.93
419.015	19.85
419.377	19.97
419.738	20.06
420.1	20.1
420.461	19.92
420.822	19.91
421.184	19.95
421.545	20.03
421.906	20.1
422.267	20.09
422.629	19.86
422.99	19.97
423.351	20.07
423.712	20.04
424.073	20.26
424.434	20.38
424.795	20.6
425.155	20.58
425.516	20.39
425.877	20.28
426.238	20.42
426.598	20.44
426.959	20.56
427.32	20.81
427.68	20.81
428.041	20.95
428.401	21.02
428.761	21.06
429.122	21.24
429.482	21.33
429.842	21.54
430.202	21.38
430.563	21.45
430.923	21.57
431.283	21.69
431.643	21.71
432.003	21.87
432.363	22
432.722	21.73
433.082	21.65
433.442	21.73
433.802	21.9
434.161	21.8
434.521	21.82
434.881	21.65
435.24	21.75
435.6	21.73
435.959	21.8
436.319	21.85
436.678	22.1
437.037	22.09
437.396	22.09
437.756	22.09
438.115	22.18
438.474	22.3
438.833	22.44
439.192	22.41
439.551	22.46
439.91	22.32
440.269	22.34
440.628	22.37
440.987	22.43
441.345	22.44
441.704	22.39
442.063	22.48
442.421	22.25
442.78	22.42
443.138	22.49
443.497	22.55
443.855	22.79
444.214	22.75
444.572	23.02
444.93	23.03
445.288	23.04
445.647	22.96
446.005	22.91
446.363	22.92
446.721	22.79
447.079	22.89
447.437	22.76
447.795	22.8
448.153	22.8
448.51	22.67
448.868	22.93
449.226	22.93
449.584	23.1
449.941	23.3
450.299	23.34
450.656	23.47
451.014	23.72
451.371	23.55
451.729	23.74
452.086	23.77
452.443	23.84
452.801	23.89
453.158	23.93
453.515	23.91
453.872	23.9
454.229	23.89
454.586	24.03
454.943	23.96
455.3	24.11
455.657	24.32
456.014	24.32
456.371	24.31
456.727	24.4
457.084	24.53
457.441	24.35
457.797	24.55
458.154	24.6
458.51	24.7
458.867	24.76
459.223	24.71
459.58	24.7
459.936	24.73
460.292	24.66
460.648	24.76
461.005	24.59
461.361	24.26
461.717	24.15
462.073	24.48
462.429	24.69
462.785	24.74
463.141	25.06
463.496	25.07
463.852	25.12
464.208	25.18
464.564	25.39
464.919	25.34
465.275	25.4
465.631	25.42
465.986	25.69
466.342	25.59
466.697	25.56
467.052	25.61
467.408	25.75
467.763	25.61
468.118	25.7
468.473	25.45
468.829	25.75
469.184	25.78
469.539	25.88
469.894	25.81
470.249	26.03
470.603	26.07
470.958	26.25
471.313	25.93
471.668	26.18
472.023	26.37
472.377	26.35
472.732	26.24
473.086	26.26
473.441	26.29
473.795	26.39
474.15	26.51
474.504	26.55
474.859	26.33
475.213	26.48
475.567	26.83
475.921	26.79
476.275	26.77
476.63	26.85
476.984	26.66
477.338	26.76
477.692	26.82
478.045	26.83
478.399	26.73
478.753	26.79
479.107	26.77
479.461	26.93
479.814	26.84
480.168	26.88
480.521	26.87
480.875	26.94
481.228	26.86
481.582	27.09
481.935	27.18
482.289	27.14
482.642	27.15
482.995	27.06
483.348	26.93
483.701	26.98
484.055	26.88
484.408	26.72
484.761	26.42
485.114	26.03
485.466	25.95
485.819	26.03
486.172	26.27
486.525	26.6
486.878	26.81
487.23	26.9
487.583	27.09
487.936	27.04
488.288	26.93
488.641	26.83
488.993	26.63
489.345	26.57
489.698	26.78
490.05	26.84
490.402	26.96
490.754	27.38
491.107	27.45
491.459	27.6
491.811	27.69
492.163	27.83
492.515	27.68
492.866	27.26
493.218	26.95
493.57	27.11
493.922	27.39
494.274	27.7
494.625	27.79
494.977	28.16
495.328	28.51
495.68	28.52
496.031	28.71
496.383	28.76
496.734	28.79
497.086	28.97
497.437	28.67
497.788	28.83
498.139	28.58
498.49	28.47
498.842	28.56
499.193	28.61
499.544	28.65
499.894	28.86
500.245	29.01
500.596	29.13
500.947	29.1
501.298	29.06
501.648	29.26
501.999	29.24
502.35	29.4
502.7	29.48
503.051	29.47
503.401	29.56
503.752	29.6
504.102	29.66
504.452	29.72
504.803	29.76
505.153	29.91
505.503	29.62
505.853	29.74
506.203	29.88
506.553	30
506.903	29.89
507.253	30.03
507.603	29.92
507.953	30.09
508.303	29.91
508.652	30.18
509.002	29.84
509.352	30.07
509.701	29.96
510.051	29.97
510.4	30.04
510.75	29.88
511.099	30.03
511.449	30
511.798	30.17
512.147	30.3
512.496	30.38
512.846	30.29
513.195	30.33
513.544	30.35
513.893	30.31
514.242	30.35
514.591	30.53
514.939	30.54
515.288	30.78
515.637	30.6
515.986	30.93
516.334	30.97
516.683	30.92
517.032	30.8
517.38	30.96
517.729	31.08
518.077	31
518.426	30.97
518.774	30.89
519.122	30.7
519.47	30.77
519.819	30.7
520.167	30.59
520.515	30.59
520.863	30.74
521.211	30.85
521.559	31
521.907	31.06
522.255	31.36
522.602	31.34
522.95	31.57
523.298	31.54
523.645	31.58
523.993	31.69
524.341	31.74
524.688	31.59
525.036	31.78
525.383	31.69
525.73	31.62
526.078	31.84
526.425	31.45
526.772	31.55
527.119	31.36
527.466	31.21
527.814	31.33
528.161	31.36
528.508	31.6
528.854	31.46
529.201	31.62
529.548	31.24
529.895	30.9
530.242	30.69
530.588	30.84
530.935	31.11
531.282	31.39
531.628	31.51
531.975	31.62
532.321	31.78
532.667	31.98
533.014	32.02
533.36	31.95
533.706	32.13
534.052	32.1
534.399	31.92
534.745	31.66
535.091	31.46
535.437	31.73
535.783	31.88
536.129	32.27
536.474	32.41
536.82	32.56
537.166	32.65
537.512	32.6
537.857	32.68
538.203	32.34
538.549	32.31
538.894	32.46
539.239	32.74
539.585	32.84
539.93	33.01
540.276	33.11
540.621	33.34
540.966	33.36
541.311	33.43
541.656	33.27
542.001	33.25
542.346	32.81
542.691	32.51
543.036	32.27
543.381	32.36
543.726	32.66
544.071	32.85
544.415	33
544.76	33.02
545.105	33.13
545.449	33.26
545.794	33.38
546.138	33.55
546.483	33.76
546.827	33.75
547.171	33.71
547.516	33.76
547.86	33.81
548.204	33.61
548.548	33.62
548.892	33.69
549.236	33.86
549.58	34.1
549.924	34.33
550.268	34.54
550.612	34.64
550.956	34.65
551.3	34.61
551.643	34.91
551.987	34.84
552.33	34.93
552.674	34.68
553.017	34.82
553.361	35.18
553.704	35.1
554.048	34.89
554.391	34.72
554.734	34.71
555.077	34.92
555.42	35.09
555.764	35.13
556.107	35.19
556.45	35.42
556.793	35.43
557.135	35.41
557.478	35.38
557.821	35.44
558.164	35.25
558.507	35.56
558.849	35.35
559.192	35.65
559.534	35.65
559.877	35.58
560.219	35.87
560.562	35.88
560.904	35.73
561.246	35.88
561.589	36.05
561.931	36.15
562.273	36.07
562.615	35.9
562.957	35.97
563.299	35.97
563.641	35.98
563.983	36.12
564.325	36.03
564.667	36.18
565.008	36.13
565.35	36.21
565.692	36.12
566.033	36.39
566.375	36.26
566.716	36.21
567.058	36.08
567.399	36.26
567.741	36.07
568.082	36.17
568.423	36.09
568.764	36.38
569.105	36.35
569.447	36.34
569.788	36.82
570.129	36.61
570.47	36.85
570.811	36.82
571.151	36.95
571.492	36.72
571.833	36.62
572.174	36.96
572.514	37
572.855	36.92
573.195	36.87
573.536	36.7
573.876	36.73
574.217	36.65
574.557	36.86
574.898	36.95
575.238	37.1
575.578	36.96
575.918	36.9
576.258	37.2
576.598	37.11
576.938	37.12
577.278	37.25
577.618	37.35
577.958	37.53
578.298	37.46
578.638	37.47
578.977	37.37
579.317	37.56
579.657	37.5
579.996	37.55
580.336	37.67
580.675	37.85
581.014	37.88
581.354	37.67
581.693	37.89
582.032	38.12
582.372	38.02
582.711	38.26
583.05	38.03
583.389	38.26
583.728	38.37
584.067	38.38
584.406	38.37
584.745	38.5
585.083	38.57
585.422	38.47
585.761	38.47
586.1	38.47
586.438	38.41
586.777	38.62
587.115	38.42
587.454	38.59
587.792	38.76
588.13	38.6
588.469	38.77
588.807	39.07
589.145	38.9
589.483	38.74
589.821	38.37
590.159	38.74
590.497	38.93
590.835	38.59
591.173	39.1
591.511	38.81
591.849	38.73
592.187	38.91
592.524	38.92
592.862	39.1
593.2	39.35
593.537	39.06
593.875	39.21
594.212	39.2
594.55	39.47
594.887	39.28
595.224	39.13
595.561	39.35
595.899	39.44
596.236	39.25
596.573	39.05
596.91	39.43
597.247	39.27
597.584	39.46
597.921	39.08
598.258	39.1
598.594	39.12
598.931	39.1
599.268	39.09
599.604	39.28
599.941	39.29
600.277	39.28
600.614	40.11
600.95	39.69
601.287	39.9
601.623	39.79
601.959	39.94
602.296	39.75
602.632	40.01
602.968	39.92
603.304	40.01
603.64	40.06
603.976	40.28
604.312	39.95
604.648	39.65
604.984	39.76
605.319	39.84
605.655	39.91
605.991	39.99
606.326	39.82
606.662	39.68
606.998	39.74
607.333	40.19
607.668	40.14
608.004	40.38
608.339	40.58
608.674	40.34
609.01	40.46
609.345	40.69
609.68	40.96
610.015	40.86
610.35	40.73
610.685	40.4
611.02	40.63
611.355	40.06
611.689	40.37
612.024	40.47
612.359	40.54
612.694	40.98
613.028	40.72
613.363	40.87
613.697	41.18
614.032	40.89
614.366	41.25
614.7	41.12
615.035	41.13
615.369	41.32
615.703	41.32
616.037	41.09
616.371	41.25
616.705	41.38
617.039	41.77
617.373	41.66
617.707	41.75
618.041	41.75
618.375	41.7
618.709	41.48
619.042	41.33
619.376	41.52
619.71	41.59
620.043	41.74
620.377	41.71
620.71	41.54
621.043	41.92
621.377	41.55
621.71	41.62
622.043	41.98
622.376	41.74
622.709	42.13
623.043	41.85
623.376	41.94
623.709	42.15
624.041	42.19
624.374	42.02
624.707	42.05
625.04	42.35
625.373	42.31
625.705	42.4
626.038	41.96
626.37	42.04
626.703	42.28
627.035	41.83
627.368	42.18
627.7	41.97
628.032	42.32
628.365	42.17
628.697	42.19
629.029	42.15
629.361	41.75
629.693	42.17
630.025	42.06
630.357	42.26
630.689	42.36
631.021	42.57
631.353	42.56
631.684	42.71
632.016	42.51
632.348	42.44
632.679	42.87
633.011	42.94
633.342	42.68
633.674	42.76
634.005	43.09
634.336	42.75
634.668	43
634.999	42.89
635.33	42.81
635.661	43.1
635.992	43.2
636.323	43.2
636.654	42.82
636.985	42.96
637.316	43.21
637.647	43.01
637.977	42.94
638.308	43.28
638.639	43.18
638.969	43.76
639.3	43
639.63	43.35
639.961	43.43
640.291	43.38
640.622	43.83
640.952	43.52
641.282	43.39
641.612	43.45
641.943	43.67
642.273	43.91
642.603	43.78
642.933	43.71
643.263	43.59
643.592	43.58
643.922	43.61
644.252	43.85
644.582	43.9
644.911	44.14
645.241	44.16
645.571	44.22
645.9	43.87
646.23	43.97
646.559	44.04
646.888	44.12
647.218	44.18
647.547	44.43
647.876	44.13
648.205	44.05
648.534	43.85
648.863	44.16
649.192	44.5
649.521	44.82
649.85	44.17
650.179	44.17
650.508	44.32
650.837	44.42
651.165	44.56
651.494	44.87
651.822	44.27
652.151	44.57
652.479	44.42
652.808	44.02
653.136	44.44
653.465	44.82
653.793	44.52
654.121	44.24
654.449	44.61
654.777	44.3
655.105	44.54
655.433	44.63
655.761	45.1
656.089	44.6
656.417	44.52
656.745	44.49
657.073	45.19
657.4	44.63
657.728	44.8
658.056	44.61
658.383	45.14
658.711	44.92
659.038	44.9
659.365	44.64
659.693	44.71
660.02	45.15
660.347	44.7
660.674	44.72
661.001	44.75
661.329	44.42
661.656	44.53
661.982	45.32
662.309	45.09
662.636	45.27
662.963	45.16
663.29	45.57
663.616	45.54
663.943	45.22
664.27	45.82
664.596	45.55
664.923	45.13
665.249	45.31
665.576	45.39
665.902	45.44
666.228	45.72
666.554	45.51
666.881	45.91
667.207	45.44
667.533	45.63
667.859	45.34
668.185	45.5
668.511	45.08
668.837	46
669.162	45.66
669.488	45.28
669.814	46.31
670.139	46.24
670.465	45.64
670.791	45.59
