Data from 1597-1_chest_Reflection__3__33.txt Node

Date: Fri Nov 11 16:25:01 CST 2022
User: ToomeyLab
Spectrometer: FLMS14357
Trigger mode: 0
Integration Time (sec): 1.000000E-2
Scans to average: 100
Electric dark correction enabled: true
Nonlinearity correction enabled: false
Boxcar width: 0
XAxis mode: Wavelengths
Number of Pixels in Spectrum: 2048
>>>>>Begin Spectral Data<<<<<
189.047	3.21
189.435	3.21
189.823	3.21
190.211	39.91
190.599	91.23
190.987	696.29
191.375	-23.69
191.763	30.98
192.151	1638.2
192.538	1622.34
192.926	-39.54
193.314	384.08
193.702	160.88
194.089	73.4
194.477	-147.71
194.864	33.88
195.252	297.14
195.639	-164.63
196.027	-92.03
196.414	80.19
196.801	118.3
197.189	33.81
197.576	-16.48
197.963	42.88
198.351	4.71
198.738	1.81
199.125	-0.52
199.512	39.06
199.899	15.08
200.286	29.15
200.673	10.57
201.06	-32.24
201.447	38.3
201.833	36.45
202.22	20.29
202.607	34.64
202.994	10.89
203.38	-9.16
203.767	20.32
204.154	1.72
204.54	49.96
204.927	39.86
205.313	19.14
205.699	20.08
206.086	29
206.472	8.07
206.858	-6.44
207.245	3.16
207.631	39.19
208.017	20.66
208.403	15.95
208.789	-35.02
209.175	34.64
209.561	0.96
209.947	15.72
210.333	-7.14
210.719	14.24
211.105	28.6
211.491	-81.19
211.876	17.08
212.262	-3.33
212.648	1
213.034	12.37
213.419	37.49
213.805	7.48
214.19	-21.56
214.576	12.85
214.961	-19.44
215.346	-30.65
215.732	13.67
216.117	22.26
216.502	-24.39
216.888	-0.66
217.273	-1.14
217.658	-15.68
218.043	-18.99
218.428	-24.75
218.813	28.76
219.198	8.76
219.583	11.52
219.968	7.76
220.353	-25.33
220.738	-14.46
221.122	-4.77
221.507	17.7
221.892	3.69
222.276	4.26
222.661	15.1
223.046	7.86
223.43	13.54
223.815	1.22
224.199	9.15
224.583	0.78
224.968	21
225.352	-0.96
225.736	1.3
226.121	6.89
226.505	5.49
226.889	13.06
227.273	1.67
227.657	0.46
228.041	5.47
228.425	7.77
228.809	8.42
229.193	3.57
229.577	6.26
229.961	3.82
230.344	4.66
230.728	5.41
231.112	5.56
231.495	5.59
231.879	5.84
232.263	4.11
232.646	4.35
233.03	3.94
233.413	5.46
233.797	5.59
234.18	3.2
234.563	4.77
234.946	3.1
235.33	6.74
235.713	4.84
236.096	3.43
236.479	6.56
236.862	6.76
237.245	6.29
237.628	4.62
238.011	5.4
238.394	5.7
238.777	4.32
239.16	4.32
239.543	4.15
239.925	7.14
240.308	2.85
240.691	5.69
241.073	3.57
241.456	3.16
241.838	4.77
242.221	4.67
242.603	4.59
242.986	3.96
243.368	4.33
243.75	4.95
244.133	4.6
244.515	5.59
244.897	4.66
245.279	4.22
245.661	4.36
246.043	4.81
246.425	5.74
246.807	4.08
247.189	3.82
247.571	3.51
247.953	4.69
248.335	4.81
248.717	4.59
249.098	4.65
249.48	4.45
249.862	4.59
250.243	4.37
250.625	4.54
251.006	4.82
251.388	4.58
251.769	4.36
252.151	4.63
252.532	5.54
252.913	4.35
253.295	4.11
253.676	4.34
254.057	4.03
254.438	4.8
254.819	4.19
255.2	5.02
255.581	4.27
255.962	5.16
256.343	4.79
256.724	4.58
257.105	4.24
257.486	4.22
257.867	3.92
258.247	4.21
258.628	4.34
259.009	4.96
259.389	4.56
259.77	5.32
260.15	4.36
260.531	4.42
260.911	4.37
261.292	4.36
261.672	4.44
262.052	4.4
262.432	4.74
262.813	4.46
263.193	4.28
263.573	4.94
263.953	4.33
264.333	4.72
264.713	3.72
265.093	5.06
265.473	4.86
265.853	4.45
266.233	4.01
266.612	3.55
266.992	4.86
267.372	4.51
267.752	4.59
268.131	4.35
268.511	4.53
268.89	4.77
269.27	4.06
269.649	4.33
270.029	4.04
270.408	4.32
270.787	5
271.167	3.95
271.546	4.25
271.925	4.25
272.304	4.35
272.683	4.24
273.062	4.24
273.441	4.24
273.82	3.82
274.199	4.49
274.578	4.33
274.957	3.97
275.336	3.98
275.715	4.21
276.093	4.93
276.472	4.77
276.851	4.02
277.229	4.23
277.608	4.25
277.986	3.99
278.365	4.63
278.743	4.46
279.122	4.05
279.5	3.91
279.878	3.71
280.257	4.49
280.635	4.4
281.013	4.26
281.391	3.88
281.769	4.53
282.147	4.22
282.525	4.12
282.903	4.9
283.281	4.05
283.659	3.97
284.037	4.2
284.415	4.47
284.792	4.32
285.17	4.2
285.548	4.69
285.925	4.07
286.303	4.19
286.68	4.24
287.058	4.26
287.435	4.48
287.813	4.25
288.19	4.21
288.567	4.33
288.945	3.51
289.322	3.79
289.699	4.44
290.076	3.8
290.453	3.95
290.83	4.32
291.207	4.4
291.584	4.29
291.961	4.07
292.338	4.31
292.715	4.05
293.092	4.04
293.469	4.22
293.845	4.57
294.222	4.89
294.599	3.98
294.975	3.92
295.352	4.13
295.728	3.87
296.105	3.86
296.481	3.95
296.858	4.31
297.234	4.38
297.61	3.81
297.986	3.66
298.363	4.12
298.739	4.32
299.115	4.15
299.491	4.22
299.867	3.96
300.243	4.13
300.619	4.13
300.995	3.81
301.371	3.94
301.746	4.05
302.122	3.94
302.498	3.89
302.874	4.03
303.249	3.83
303.625	4.11
304	3.6
304.376	3.84
304.751	4.89
305.127	4.31
305.502	4.12
305.878	4.82
306.253	4.3
306.628	4.16
307.003	3.84
307.378	3.97
307.754	4.14
308.129	4.22
308.504	4.34
308.879	4.12
309.254	3.39
309.629	4.36
310.003	4.47
310.378	3.52
310.753	3.85
311.128	4.21
311.502	4.07
311.877	4.16
312.252	4.24
312.626	3.58
313.001	3.98
313.375	4.17
313.75	4.2
314.124	4.18
314.498	4.45
314.873	3.93
315.247	4.38
315.621	3.5
315.995	4.01
316.369	4.43
316.743	4.49
317.117	3.94
317.491	3.86
317.865	4.17
318.239	4.32
318.613	4.5
318.987	4.27
319.361	3.76
319.734	3.91
320.108	4.61
320.482	4.17
320.855	4.23
321.229	4.57
321.602	3.96
321.976	4.04
322.349	4.53
322.723	4.04
323.096	4.54
323.469	4
323.843	4.14
324.216	4.05
324.589	4.1
324.962	3.76
325.335	4.58
325.708	4.07
326.081	4.11
326.454	4.45
326.827	4.23
327.2	4.02
327.573	4.12
327.945	4.18
328.318	4.5
328.691	4.35
329.063	4.54
329.436	4.27
329.809	4.02
330.181	4.55
330.553	3.77
330.926	3.6
331.298	4.13
331.671	3.87
332.043	4.55
332.415	4.14
332.787	4.27
333.159	4.3
333.532	3.7
333.904	4.41
334.276	4.17
334.648	3.92
335.02	4.43
335.391	4.02
335.763	3.74
336.135	3.91
336.507	4.24
336.879	3.86
337.25	3.33
337.622	4.58
337.993	4.08
338.365	4.17
338.736	4.21
339.108	4.49
339.479	4.45
339.851	3.74
340.222	4.22
340.593	4
340.964	4.15
341.336	4.06
341.707	3.71
342.078	4.17
342.449	4.15
342.82	3.61
343.191	4.21
343.562	4.03
343.933	3.84
344.303	4.4
344.674	4.22
345.045	4
345.416	4.08
345.786	3.98
346.157	3.68
346.527	4.05
346.898	4.24
347.268	4.15
347.639	4.41
348.009	4.01
348.38	4.21
348.75	4.51
349.12	3.77
349.49	3.98
349.861	3.9
350.231	3.69
350.601	4.47
350.971	4.47
351.341	3.79
351.711	3.8
352.081	3.74
352.45	4.22
352.82	4.15
353.19	3.85
353.56	3.89
353.929	4.17
354.299	4.22
354.669	4.1
355.038	4.09
355.408	3.8
355.777	4.18
356.147	4.27
356.516	4.37
356.885	3.97
357.254	4.04
357.624	4.2
357.993	4.49
358.362	4.4
358.731	4.18
359.1	4.01
359.469	4.1
359.838	4.39
360.207	4.25
360.576	4.12
360.945	4.4
361.314	4.24
361.682	4.25
362.051	4.1
362.42	3.85
362.788	4.06
363.157	4.16
363.525	4.31
363.894	4.35
364.262	4.02
364.631	4.08
364.999	4.29
365.367	4.38
365.735	4.22
366.104	4.08
366.472	4.09
366.84	4.46
367.208	4.01
367.576	4.05
367.944	4.38
368.312	4.12
368.68	4.25
369.048	4.15
369.416	4.35
369.783	4.25
370.151	4.27
370.519	4.25
370.886	4.36
371.254	3.91
371.621	4.52
371.989	3.92
372.356	4.14
372.724	4.32
373.091	4.3
373.458	4.16
373.826	4.22
374.193	4.21
374.56	4.3
374.927	4.51
375.294	4.27
375.661	4.8
376.028	4.38
376.395	4.3
376.762	4.22
377.129	4.15
377.496	4.38
377.863	4.2
378.229	4.35
378.596	4.21
378.963	4.33
379.329	4.27
379.696	4.23
380.062	4.15
380.429	4.19
380.795	4.51
381.161	4.51
381.528	4.25
381.894	4.31
382.26	4.37
382.626	4.26
382.993	4.45
383.359	4.43
383.725	4.36
384.091	4.3
384.457	4.05
384.823	4.46
385.188	4.32
385.554	4.46
385.92	4.13
386.286	4.32
386.651	4.48
387.017	4.13
387.383	4.43
387.748	4
388.114	4.46
388.479	4.4
388.845	4.07
389.21	4.41
389.575	4.17
389.94	4.34
390.306	4.03
390.671	4.25
391.036	4.43
391.401	4.35
391.766	4.58
392.131	3.94
392.496	4.19
392.861	4.15
393.226	4.34
393.591	4.32
393.956	4.42
394.32	4.67
394.685	4.32
395.05	4.35
395.414	4.35
395.779	4.24
396.143	4.39
396.508	4.34
396.872	4.36
397.236	4.38
397.601	4.43
397.965	4.15
398.329	4.24
398.694	4.25
399.058	4.34
399.422	4.39
399.786	4.29
400.15	4.28
400.514	4.36
400.878	4.39
401.242	4.2
401.605	4.31
401.969	4.49
402.333	4.35
402.697	4.42
403.06	4.26
403.424	4.24
403.787	4.34
404.151	4.2
404.514	4.41
404.878	4.56
405.241	4.28
405.604	4.28
405.968	4.34
406.331	4.24
406.694	4.41
407.057	4.42
407.42	4.49
407.783	4.32
408.146	4.55
408.509	4.41
408.872	4.51
409.235	4.4
409.598	4.16
409.961	4.55
410.323	4.48
410.686	4.52
411.049	4.45
411.411	4.35
411.774	4.39
412.136	4.29
412.499	4.47
412.861	4.36
413.223	4.39
413.586	4.48
413.948	4.23
414.31	4.39
414.672	4.48
415.035	4.54
415.397	4.45
415.759	4.6
416.121	4.49
416.483	4.37
416.845	4.61
417.206	4.56
417.568	4.28
417.93	4.39
418.292	4.33
418.653	4.35
419.015	4.38
419.377	4.49
419.738	4.59
420.1	4.42
420.461	4.37
420.822	4.4
421.184	4.3
421.545	4.21
421.906	4.37
422.267	4.39
422.629	4.44
422.99	4.34
423.351	4.3
423.712	4.37
424.073	4.42
424.434	4.33
424.795	4.49
425.155	4.49
425.516	4.29
425.877	4.42
426.238	4.34
426.598	4.34
426.959	4.33
427.32	4.5
427.68	4.36
428.041	4.49
428.401	4.34
428.761	4.41
429.122	4.47
429.482	4.48
429.842	4.46
430.202	4.41
430.563	4.52
430.923	4.56
431.283	4.46
431.643	4.54
432.003	4.68
432.363	4.66
432.722	4.58
433.082	4.48
433.442	4.5
433.802	4.76
434.161	4.51
434.521	4.55
434.881	4.44
435.24	4.55
435.6	4.38
435.959	4.5
436.319	4.49
436.678	4.5
437.037	4.57
437.396	4.46
437.756	4.44
438.115	4.53
438.474	4.54
438.833	4.41
439.192	4.63
439.551	4.56
439.91	4.54
440.269	4.46
440.628	4.48
440.987	4.62
441.345	4.51
441.704	4.45
442.063	4.5
442.421	4.51
442.78	4.47
443.138	4.48
443.497	4.48
443.855	4.48
444.214	4.5
444.572	4.54
444.93	4.55
445.288	4.72
445.647	4.53
446.005	4.64
446.363	4.51
446.721	4.52
447.079	4.47
447.437	4.55
447.795	4.45
448.153	4.53
448.51	4.41
448.868	4.44
449.226	4.52
449.584	4.49
449.941	4.44
450.299	4.61
450.656	4.54
451.014	4.71
451.371	4.41
451.729	4.58
452.086	4.63
452.443	4.72
452.801	4.67
453.158	4.62
453.515	4.55
453.872	4.75
454.229	4.55
454.586	4.7
454.943	4.55
455.3	4.45
455.657	4.67
456.014	4.59
456.371	4.51
456.727	4.69
457.084	4.56
457.441	4.61
457.797	4.66
458.154	4.69
458.51	4.62
458.867	4.65
459.223	4.59
459.58	4.66
459.936	4.69
460.292	4.56
460.648	4.6
461.005	4.67
461.361	4.67
461.717	4.55
462.073	4.67
462.429	4.61
462.785	4.48
463.141	4.62
463.496	4.6
463.852	4.67
464.208	4.72
464.564	4.71
464.919	4.66
465.275	4.81
465.631	4.75
465.986	4.54
466.342	4.75
466.697	4.88
467.052	4.73
467.408	4.62
467.763	4.71
468.118	4.68
468.473	4.72
468.829	4.69
469.184	4.89
469.539	4.79
469.894	4.65
470.249	4.78
470.603	4.58
470.958	4.8
471.313	4.81
471.668	4.79
472.023	4.81
472.377	4.89
472.732	4.95
473.086	4.81
473.441	4.73
473.795	4.82
474.15	4.86
474.504	4.76
474.859	4.85
475.213	4.74
475.567	4.73
475.921	4.77
476.275	4.87
476.63	4.91
476.984	4.75
477.338	4.79
477.692	4.81
478.045	4.79
478.399	4.76
478.753	4.78
479.107	4.79
479.461	4.75
479.814	4.89
480.168	4.99
480.521	4.82
480.875	4.88
481.228	4.83
481.582	4.75
481.935	4.89
482.289	4.81
482.642	4.81
482.995	4.92
483.348	4.66
483.701	4.81
484.055	4.73
484.408	4.79
484.761	4.7
485.114	4.61
485.466	4.57
485.819	4.54
486.172	4.55
486.525	4.6
486.878	4.59
487.23	4.63
487.583	4.72
487.936	4.71
488.288	4.68
488.641	4.71
488.993	4.66
489.345	4.63
489.698	4.69
490.05	4.61
490.402	4.64
490.754	4.76
491.107	4.76
491.459	4.8
491.811	4.77
492.163	4.8
492.515	4.85
492.866	4.76
493.218	4.7
493.57	4.69
493.922	4.73
494.274	4.8
494.625	4.78
494.977	4.77
495.328	4.9
495.68	4.9
496.031	4.97
496.383	4.95
496.734	5.01
497.086	5.09
497.437	4.85
497.788	5
498.139	4.96
498.49	4.94
498.842	4.95
499.193	4.93
499.544	4.93
499.894	5.02
500.245	4.94
500.596	5.01
500.947	4.96
501.298	5.06
501.648	5.13
501.999	4.98
502.35	5.02
502.7	5.12
503.051	5.01
503.401	4.99
503.752	5
504.102	5.07
504.452	5.11
504.803	5.06
505.153	5.04
505.503	5.07
505.853	5.2
506.203	5.21
506.553	5.13
506.903	5.1
507.253	5.12
507.603	5.18
507.953	5.12
508.303	5.18
508.652	5.03
509.002	5.08
509.352	5.28
509.701	5.19
510.051	5.13
510.4	5.05
510.75	5.11
511.099	5.08
511.449	5.11
511.798	5.1
512.147	5.12
512.496	5.16
512.846	5.22
513.195	5.13
513.544	5.06
513.893	5.2
514.242	5.23
514.591	5.19
514.939	5.23
515.288	5.23
515.637	5.19
515.986	5.28
516.334	5.2
516.683	5.33
517.032	5.21
517.38	5.28
517.729	5.29
518.077	5.28
518.426	5.33
518.774	5.29
519.122	5.18
519.47	5.18
519.819	5.24
520.167	5.2
520.515	5.23
520.863	5.28
521.211	5.22
521.559	5.23
521.907	5.32
522.255	5.38
522.602	5.38
522.95	5.34
523.298	5.37
523.645	5.42
523.993	5.45
524.341	5.42
524.688	5.48
525.036	5.4
525.383	5.32
525.73	5.39
526.078	5.42
526.425	5.44
526.772	5.38
527.119	5.39
527.466	5.29
527.814	5.36
528.161	5.32
528.508	5.3
528.854	5.35
529.201	5.36
529.548	5.38
529.895	5.25
530.242	5.25
530.588	5.21
530.935	5.22
531.282	5.3
531.628	5.28
531.975	5.31
532.321	5.38
532.667	5.45
533.014	5.48
533.36	5.49
533.706	5.48
534.052	5.52
534.399	5.49
534.745	5.52
535.091	5.44
535.437	5.42
535.783	5.41
536.129	5.48
536.474	5.54
536.82	5.52
537.166	5.56
537.512	5.79
537.857	5.68
538.203	5.57
538.549	5.54
538.894	5.64
539.239	5.66
539.585	5.66
539.93	5.76
540.276	5.69
540.621	5.69
540.966	5.82
541.311	5.87
541.656	5.74
542.001	5.89
542.346	5.72
542.691	5.66
543.036	5.64
543.381	5.62
543.726	5.63
544.071	5.67
544.415	5.74
544.76	5.67
545.105	5.8
545.449	5.81
545.794	5.85
546.138	5.88
546.483	5.89
546.827	5.91
547.171	5.9
547.516	5.87
547.86	5.86
548.204	5.9
548.548	5.91
548.892	5.92
549.236	6
549.58	6
549.924	6
550.268	6.17
550.612	6.24
550.956	6.12
551.3	6.19
551.643	6.28
551.987	6.08
552.33	6.19
552.674	6.16
553.017	6.16
553.361	6.22
553.704	6.32
554.048	6.37
554.391	6.23
554.734	6.17
555.077	6.26
555.42	6.31
555.764	6.37
556.107	6.44
556.45	6.23
556.793	6.37
557.135	6.43
557.478	6.43
557.821	6.48
558.164	6.41
558.507	6.63
558.849	6.4
559.192	6.46
559.534	6.48
559.877	6.66
560.219	6.66
560.562	6.68
560.904	6.46
561.246	6.59
561.589	6.63
561.931	6.55
562.273	6.81
562.615	6.61
562.957	6.62
563.299	6.71
563.641	6.61
563.983	6.75
564.325	6.67
564.667	6.67
565.008	6.68
565.35	6.85
565.692	6.56
566.033	6.95
566.375	6.67
566.716	6.73
567.058	6.66
567.399	6.85
567.741	6.87
568.082	6.78
568.423	6.83
568.764	6.87
569.105	7.03
569.447	6.91
569.788	6.89
570.129	6.83
570.47	7.05
570.811	6.96
571.151	7.1
571.492	7.1
571.833	7.09
572.174	7.15
572.514	7.17
572.855	7.15
573.195	7.17
573.536	7.16
573.876	7.13
574.217	7.12
574.557	7.17
574.898	7.21
575.238	7.27
575.578	7.22
575.918	7.23
576.258	7.4
576.598	7.28
576.938	7.35
577.278	7.27
577.618	7.32
577.958	7.44
578.298	7.43
578.638	7.33
578.977	7.35
579.317	7.41
579.657	7.57
579.996	7.38
580.336	7.63
580.675	7.55
581.014	7.6
581.354	7.64
581.693	7.61
582.032	7.81
582.372	7.78
582.711	7.86
583.05	7.73
583.389	7.92
583.728	7.8
584.067	8.06
584.406	7.71
584.745	7.88
585.083	8.02
585.422	7.83
585.761	8.06
586.1	7.98
586.438	7.81
586.777	8.19
587.115	8.05
587.454	8.13
587.792	8.09
588.13	8.08
588.469	8.24
588.807	8.33
589.145	8.22
589.483	8.21
589.821	8.15
590.159	8.28
590.497	8.28
590.835	8.11
591.173	8.25
591.511	8.15
591.849	8.34
592.187	8.36
592.524	8.23
592.862	8.51
593.2	8.52
593.537	8.32
593.875	8.5
594.212	8.58
594.55	8.73
594.887	8.56
595.224	8.59
595.561	8.57
595.899	8.46
596.236	8.45
596.573	8.61
596.91	8.45
597.247	8.46
597.584	8.6
597.921	8.63
598.258	8.69
598.594	8.65
598.931	8.86
599.268	8.71
599.604	8.92
599.941	8.88
600.277	8.61
600.614	8.89
600.95	8.96
601.287	9.13
601.623	9.18
601.959	8.91
602.296	8.86
602.632	8.82
602.968	9.15
603.304	9.03
603.64	9.25
603.976	9.28
604.312	9.19
604.648	9.1
604.984	9.23
605.319	9.21
605.655	9.15
605.991	9.18
606.326	9.23
606.662	9.2
606.998	9.25
607.333	9.3
607.668	9.33
608.004	9.27
608.339	9.57
608.674	9.49
609.01	9.15
609.345	9.48
609.68	9.81
610.015	9.59
610.35	9.84
610.685	9.59
611.02	9.69
611.355	9.52
611.689	9.84
612.024	9.58
612.359	9.71
612.694	9.99
613.028	9.88
613.363	9.96
613.697	9.92
614.032	9.87
614.366	9.67
614.7	10.12
615.035	10.11
615.369	10.07
615.703	10.19
616.037	10.11
616.371	10.2
616.705	10.31
617.039	10.2
617.373	10.58
617.707	10.36
618.041	10.33
618.375	10.51
618.709	10.39
619.042	10.26
619.376	10.23
619.71	10.22
620.043	10.44
620.377	10.65
620.71	10.24
621.043	10.47
621.377	10.39
621.71	10.6
622.043	10.37
622.376	10.58
622.709	10.85
623.043	10.6
623.376	10.96
623.709	10.64
624.041	10.77
624.374	10.64
624.707	10.66
625.04	10.95
625.373	11.11
625.705	10.98
626.038	10.65
626.37	11.13
626.703	11.39
627.035	10.87
627.368	11.01
627.7	10.93
628.032	11.14
628.365	11.38
628.697	11.35
629.029	11.47
629.361	11.24
629.693	11.1
630.025	11.29
630.357	11.23
630.689	11.52
631.021	11.42
631.353	11.12
631.684	11.49
632.016	11.46
632.348	11.35
632.679	11.72
633.011	11.62
633.342	11.31
633.674	11.51
634.005	11.44
634.336	11.66
634.668	11.69
634.999	11.2
635.33	11.71
635.661	11.85
635.992	11.76
636.323	11.73
636.654	11.96
636.985	11.72
637.316	11.52
637.647	11.66
637.977	12.14
638.308	12.06
638.639	11.99
638.969	12.24
639.3	11.99
639.63	12.26
639.961	12.22
640.291	12.24
640.622	12.14
640.952	11.83
641.282	12.42
641.612	12.52
641.943	12.05
642.273	12.51
642.603	12.04
642.933	12.35
643.263	12.73
643.592	12.59
643.922	12.49
644.252	12.31
644.582	12.44
644.911	12.83
645.241	12.84
645.571	12.54
645.9	12.74
646.23	12.54
646.559	12.78
646.888	13.01
647.218	12.23
647.547	12.71
647.876	12.88
648.205	12.57
648.534	13.02
648.863	13.25
649.192	13.17
649.521	12.97
649.85	12.85
650.179	13.24
650.508	13
650.837	13.29
651.165	13.63
651.494	13.39
651.822	13
652.151	13.44
652.479	13.63
652.808	13.07
653.136	13.77
653.465	13.58
653.793	13.74
654.121	13.76
654.449	13.67
654.777	14.12
655.105	14.02
655.433	13.33
655.761	13.43
656.089	13.97
656.417	13.72
656.745	13.38
657.073	14.09
657.4	13.8
657.728	14.24
658.056	13.62
658.383	13.82
658.711	14.02
659.038	14.15
659.365	14.07
659.693	14.03
660.02	14.43
660.347	14.16
660.674	13.99
661.001	14.18
661.329	13.98
661.656	14.13
661.982	14.36
662.309	14.24
662.636	13.86
662.963	14.24
663.29	14.71
663.616	14.72
663.943	14.32
664.27	14.71
664.596	14.9
664.923	14.6
665.249	14.56
665.576	14.81
665.902	14.23
666.228	14.96
666.554	14.8
666.881	14.83
667.207	14.79
667.533	15
667.859	14.46
668.185	14.99
668.511	14.63
668.837	14.57
669.162	14.87
669.488	14.7
669.814	14.88
670.139	15.08
670.465	14.86
670.791	15.01
671.116	15.37
671.442	14.8
671.767	14.89
672.092	15.26
672.418	14.84
672.743	15.11
673.068	15.04
673.393	14.98
673.718	15
674.043	15.54
674.368	15.39
674.693	15.15
675.018	15.38
675.343	16.41
675.667	15.55
675.992	15.65
676.317	15.69
676.641	15.69
676.966	15.21
677.29	14.76
677.615	15.98
677.939	15.73
678.264	15.76
678.588	16.23
678.912	16.12
679.236	15.95
679.56	16.12
679.885	16.41
680.209	15.88
680.532	15.57
680.856	16.56
681.18	15.98
681.504	16.19
681.828	16.03
682.152	16.12
682.475	16.1
682.799	16.06
683.122	16.37
683.446	15.67
683.769	16.07
684.093	15.85
684.416	16.33
684.739	16.47
685.062	15.93
685.386	16.49
685.709	16.85
686.032	16.7
686.355	16.63
686.678	16.54
687.001	17.09
687.324	16.57
687.646	16.77
