Data from 445_chest_Reflection__0__30.txt Node

Date: Tue Dec 12 18:30:50 CST 2023
User: ToomeyLab
Spectrometer: FLMS14357
Trigger mode: 0
Integration Time (sec): 1.000000E-2
Scans to average: 100
Electric dark correction enabled: true
Nonlinearity correction enabled: false
Boxcar width: 0
XAxis mode: Wavelengths
Number of Pixels in Spectrum: 2048
>>>>>Begin Spectral Data<<<<<
189.047	-255.88
189.435	-255.88
189.823	-255.88
190.211	1250
190.599	58.67
190.987	64.18
191.375	1.03
191.763	-215.82
192.151	97.94
192.538	-578.13
192.926	113.06
193.314	110
193.702	38.03
194.089	61.19
194.477	9850
194.864	162.23
195.252	15.49
195.639	13.46
196.027	-55.63
196.414	139.69
196.801	-61.32
197.189	-233.12
197.576	-285.56
197.963	32.1
198.351	34.68
198.738	51.07
199.125	0.75
199.512	12.96
199.899	40.08
200.286	0.6
200.673	-5.24
201.06	7.88
201.447	-103.29
201.833	13.03
202.22	6.57
202.607	-73.13
202.994	6.27
203.38	63.37
203.767	11.16
204.154	34.91
204.54	71.86
204.927	34.94
205.313	52.76
205.699	33.54
206.086	29.21
206.472	53.9
206.858	27.1
207.245	4.39
207.631	23.42
208.017	6.48
208.403	16.14
208.789	29.03
209.175	-9.09
209.561	24.84
209.947	19.2
210.333	38.33
210.719	30.18
211.105	49.32
211.491	70.74
211.876	25.7
212.262	47.55
212.648	3.65
213.034	-39.32
213.419	12.35
213.805	27.57
214.19	75.49
214.576	43.37
214.961	28.93
215.346	24.29
215.732	36.68
216.117	11.4
216.502	10.22
216.888	4.15
217.273	15.71
217.658	-2.86
218.043	31.99
218.428	17.86
218.813	7.67
219.198	-6.21
219.583	21.03
219.968	7.59
220.353	17.41
220.738	19.33
221.122	11.29
221.507	-2.07
221.892	12.87
222.276	12.17
222.661	10.01
223.046	7.5
223.43	-0.51
223.815	2.64
224.199	7.22
224.583	8.01
224.968	9.34
225.352	-0.59
225.736	13.25
226.121	10.65
226.505	3.74
226.889	3.31
227.273	5.74
227.657	12.52
228.041	8.08
228.425	-1.15
228.809	4.65
229.193	4.01
229.577	3.92
229.961	0.9
230.344	2.96
230.728	3.08
231.112	3.01
231.495	2.99
231.879	3.57
232.263	2.9
232.646	2.39
233.03	4.33
233.413	3.12
233.797	3.36
234.18	3.15
234.563	2.21
234.946	4.99
235.33	5.02
235.713	3.09
236.096	2.83
236.479	3.11
236.862	3.74
237.245	4.02
237.628	3.88
238.011	4.28
238.394	2.71
238.777	3.75
239.16	3.54
239.543	4.6
239.925	3.39
240.308	2.8
240.691	2.08
241.073	3.61
241.456	3.44
241.838	3.77
242.221	4.41
242.603	4.08
242.986	3.06
243.368	3.65
243.75	2.64
244.133	2.95
244.515	3.36
244.897	3.42
245.279	3.34
245.661	3.17
246.043	2.67
246.425	4.54
246.807	3.3
247.189	3.94
247.571	3.39
247.953	3.18
248.335	3.28
248.717	2.9
249.098	3.12
249.48	3
249.862	3.04
250.243	2.99
250.625	3.79
251.006	3.46
251.388	3.96
251.769	2.95
252.151	3.83
252.532	3.52
252.913	3.98
253.295	3.05
253.676	3.35
254.057	3.35
254.438	3.38
254.819	3.06
255.2	3.44
255.581	3.25
255.962	3.33
256.343	3.78
256.724	3.35
257.105	3.85
257.486	2.68
257.867	4.4
258.247	3.42
258.628	4.37
259.009	3.44
259.389	3.41
259.77	3.53
260.15	3.8
260.531	3.53
260.911	3.17
261.292	3
261.672	2.99
262.052	3.09
262.432	3.23
262.813	3.36
263.193	3.41
263.573	3.44
263.953	3.89
264.333	4.33
264.713	3.71
265.093	2.96
265.473	3.33
265.853	3.22
266.233	2.82
266.612	3.09
266.992	2.29
267.372	3.34
267.752	4.52
268.131	2.32
268.511	2.82
268.89	2.06
269.27	2.64
269.649	3.14
270.029	2.9
270.408	3.27
270.787	2.76
271.167	2.63
271.546	3.72
271.925	3.79
272.304	3.87
272.683	2.84
273.062	3.18
273.441	3.3
273.82	2.51
274.199	3.12
274.578	2.93
274.957	2.98
275.336	3.13
275.715	2.97
276.093	2.74
276.472	3.26
276.851	3.04
277.229	3.17
277.608	3.15
277.986	2.56
278.365	2.87
278.743	3.15
279.122	3.57
279.5	2.68
279.878	3.25
280.257	2.51
280.635	2.84
281.013	3.35
281.391	3.44
281.769	2.89
282.147	2.99
282.525	2.92
282.903	2.99
283.281	2.62
283.659	3.06
284.037	3.57
284.415	3.29
284.792	3.38
285.17	2.91
285.548	3.29
285.925	2.65
286.303	3.45
286.68	2.94
287.058	3.4
287.435	2.98
287.813	2.7
288.19	3.18
288.567	3.22
288.945	3.2
289.322	2.44
289.699	3.57
290.076	3.35
290.453	3.64
290.83	3.43
291.207	3.61
291.584	3.3
291.961	3.38
292.338	3.18
292.715	3.28
293.092	3.43
293.469	3.4
293.845	3.4
294.222	3.59
294.599	3.86
294.975	4.09
295.352	3.97
295.728	3.9
296.105	3.83
296.481	3.98
296.858	3.65
297.234	4.07
297.61	4.13
297.986	4.43
298.363	4.11
298.739	3.95
299.115	3.68
299.491	3.82
299.867	3.9
300.243	3.9
300.619	4.43
300.995	4.74
301.371	4.48
301.746	3.99
302.122	4.91
302.498	4.27
302.874	4.61
303.249	5.02
303.625	3.89
304	4.76
304.376	4.3
304.751	4.82
305.127	4.81
305.502	5.02
305.878	4.38
306.253	4.54
306.628	4.27
307.003	4.51
307.378	4.45
307.754	4.87
308.129	4.78
308.504	5.39
308.879	4.19
309.254	5.03
309.629	4.66
310.003	5.14
310.378	5.05
310.753	5.15
311.128	5.2
311.502	4.5
311.877	4.54
312.252	4.54
312.626	4.7
313.001	4.55
313.375	4.67
313.75	5.43
314.124	5.09
314.498	5.01
314.873	5.2
315.247	5.21
315.621	4.53
315.995	4.67
316.369	5.01
316.743	4.8
317.117	4.48
317.491	4.76
317.865	5.06
318.239	5.12
318.613	5.46
318.987	5.42
319.361	5.32
319.734	5.23
320.108	5.8
320.482	5.52
320.855	5.22
321.229	5.68
321.602	5.71
321.976	5.75
322.349	5.64
322.723	5.37
323.096	5.83
323.469	5.25
323.843	6.17
324.216	6.34
324.589	5.48
324.962	5.82
325.335	6.06
325.708	5.65
326.081	5.92
326.454	5.81
326.827	5.93
327.2	5.91
327.573	5.74
327.945	5.83
328.318	6
328.691	4.97
329.063	6.4
329.436	6.2
329.809	6
330.181	5.61
330.553	5.46
330.926	5.6
331.298	6.05
331.671	5.64
332.043	5.44
332.415	6.12
332.787	5.93
333.159	6.09
333.532	6.19
333.904	6.03
334.276	7.25
334.648	5.65
335.02	5.49
335.391	5.41
335.763	6.05
336.135	6.16
336.507	6.63
336.879	5.61
337.25	6.36
337.622	5.88
337.993	6.01
338.365	5.45
338.736	5.92
339.108	5.7
339.479	6.26
339.851	5.59
340.222	5.99
340.593	6.13
340.964	6.23
341.336	6.05
341.707	5.84
342.078	5.61
342.449	5.87
342.82	6.04
343.191	6.07
343.562	5.92
343.933	6.4
344.303	6.05
344.674	6.1
345.045	6.27
345.416	6.17
345.786	5.7
346.157	5.99
346.527	6.32
346.898	5.73
347.268	6.07
347.639	6.44
348.009	6.14
348.38	6.22
348.75	6.47
349.12	6.23
349.49	5.67
349.861	6.01
350.231	6.45
350.601	6.61
350.971	6.5
351.341	6.22
351.711	6.36
352.081	6.17
352.45	6.45
352.82	6.13
353.19	5.98
353.56	5.6
353.929	5.81
354.299	5.87
354.669	6.53
355.038	5.82
355.408	5.96
355.777	6.55
356.147	6.2
356.516	6.38
356.885	6.39
357.254	6.01
357.624	5.92
357.993	6.34
358.362	6.14
358.731	6.25
359.1	5.72
359.469	5.85
359.838	6.15
360.207	6.06
360.576	6.57
360.945	6.26
361.314	6.15
361.682	6.41
362.051	6.17
362.42	6.31
362.788	6.06
363.157	6.43
363.525	6.22
363.894	6.15
364.262	6.23
364.631	5.93
364.999	6.35
365.367	6.28
365.735	6.43
366.104	6.41
366.472	6.15
366.84	6.56
367.208	6.17
367.576	6.39
367.944	6.67
368.312	6.29
368.68	6.37
369.048	6.32
369.416	6.53
369.783	6.54
370.151	6.67
370.519	6.33
370.886	6.55
371.254	6
371.621	6.81
371.989	6.03
372.356	6.28
372.724	6.3
373.091	6.59
373.458	6.52
373.826	6.52
374.193	6.13
374.56	6.6
374.927	6.79
375.294	6.78
375.661	6.85
376.028	6.93
376.395	7.12
376.762	7.17
377.129	6.75
377.496	6.71
377.863	6.83
378.229	6.5
378.596	6.47
378.963	6.72
379.329	6.48
379.696	6.13
380.062	7.08
380.429	6.74
380.795	6.71
381.161	6.57
381.528	6.67
381.894	6.8
382.26	6.38
382.626	6.85
382.993	6.86
383.359	6.58
383.725	6.73
384.091	6.91
384.457	6.82
384.823	6.99
385.188	6.83
385.554	7.01
385.92	6.59
386.286	7.02
386.651	6.67
387.017	7.23
387.383	6.42
387.748	6.86
388.114	7.01
388.479	7.17
388.845	7.13
389.21	6.91
389.575	6.49
389.94	6.94
390.306	6.91
390.671	7.08
391.036	6.96
391.401	7.03
391.766	7.05
392.131	7.22
392.496	6.67
392.861	6.99
393.226	7.04
393.591	6.99
393.956	6.98
394.32	6.95
394.685	7.12
395.05	6.81
395.414	6.84
395.779	6.95
396.143	7.21
396.508	6.78
396.872	7.02
397.236	6.88
397.601	7.13
397.965	6.94
398.329	7.23
398.694	6.87
399.058	7.19
399.422	7.03
399.786	7.26
400.15	7.05
400.514	7.38
400.878	7.19
401.242	7.22
401.605	7.2
401.969	7.13
402.333	7.56
402.697	7.03
403.06	7.03
403.424	7.1
403.787	7.12
404.151	7.55
404.514	6.86
404.878	7.08
405.241	7.09
405.604	7.1
405.968	7.24
406.331	7.22
406.694	7.51
407.057	7.24
407.42	7.34
407.783	7.3
408.146	7.36
408.509	7.42
408.872	7.13
409.235	7.28
409.598	7.23
409.961	7.37
410.323	7.35
410.686	7.24
411.049	7.42
411.411	7.65
411.774	7.46
412.136	7.31
412.499	7.44
412.861	7.38
413.223	7.66
413.586	7.48
413.948	7.37
414.31	7.54
414.672	7.72
415.035	7.66
415.397	7.68
415.759	7.53
416.121	7.5
416.483	7.66
416.845	7.66
417.206	7.7
417.568	7.38
417.93	7.53
418.292	7.55
418.653	7.47
419.015	7.49
419.377	7.43
419.738	7.5
420.1	7.36
420.461	7.46
420.822	7.55
421.184	7.44
421.545	7.55
421.906	7.39
422.267	7.49
422.629	7.45
422.99	7.41
423.351	7.37
423.712	7.33
424.073	7.55
424.434	7.51
424.795	7.53
425.155	7.36
425.516	7.41
425.877	7.52
426.238	7.57
426.598	7.52
426.959	7.56
427.32	7.5
427.68	7.57
428.041	7.75
428.401	7.65
428.761	7.82
429.122	7.78
429.482	8.17
429.842	7.82
430.202	7.9
430.563	8.05
430.923	7.97
431.283	8
431.643	7.9
432.003	7.77
432.363	7.97
432.722	7.98
433.082	7.87
433.442	7.93
433.802	7.97
434.161	8.03
434.521	8.01
434.881	7.92
435.24	8.02
435.6	8.07
435.959	8.03
436.319	8.07
436.678	8.19
437.037	8
437.396	7.92
437.756	8.26
438.115	8.23
438.474	8
438.833	8.14
439.192	8.31
439.551	8.06
439.91	8.06
440.269	8.15
440.628	8.11
440.987	8.05
441.345	8.19
441.704	8.18
442.063	8.19
442.421	8.14
442.78	8.16
443.138	8.15
443.497	8.17
443.855	8.25
444.214	8.34
444.572	8.31
444.93	8.43
445.288	8.34
445.647	8.54
446.005	8.26
446.363	8.26
446.721	8.26
447.079	8.32
447.437	8.13
447.795	8.34
448.153	8.24
448.51	8.2
448.868	8.21
449.226	8.37
449.584	8.26
449.941	8.26
450.299	8.48
450.656	8.37
451.014	8.55
451.371	8.6
451.729	8.65
452.086	8.53
452.443	8.7
452.801	8.57
453.158	8.61
453.515	8.6
453.872	8.64
454.229	8.77
454.586	8.64
454.943	8.67
455.3	8.78
455.657	8.83
456.014	8.86
456.371	8.79
456.727	8.83
457.084	8.68
457.441	8.81
457.797	9.13
458.154	8.82
458.51	8.98
458.867	8.97
459.223	9.06
459.58	9.16
459.936	8.78
460.292	8.84
460.648	9.05
461.005	8.72
461.361	8.68
461.717	8.93
462.073	8.74
462.429	8.87
462.785	8.94
463.141	8.99
463.496	8.93
463.852	9.42
464.208	9.13
464.564	9.26
464.919	9.42
465.275	9.24
465.631	9.38
465.986	9.35
466.342	9.26
466.697	9.37
467.052	9.42
467.408	9.32
467.763	9.36
468.118	9.42
468.473	9.53
468.829	9.51
469.184	9.43
469.539	9.54
469.894	9.56
470.249	9.48
470.603	9.58
470.958	9.62
471.313	9.81
471.668	9.62
472.023	9.49
472.377	9.55
472.732	9.62
473.086	9.63
473.441	9.75
473.795	9.64
474.15	9.72
474.504	9.62
474.859	9.82
475.213	9.51
475.567	9.77
475.921	9.87
476.275	9.73
476.63	9.79
476.984	9.66
477.338	9.82
477.692	9.89
478.045	9.93
478.399	9.83
478.753	9.69
479.107	9.72
479.461	9.74
479.814	9.76
480.168	9.77
480.521	9.65
480.875	9.9
481.228	9.92
481.582	9.94
481.935	9.98
482.289	9.92
482.642	10
482.995	9.9
483.348	9.85
483.701	9.97
484.055	9.78
484.408	9.74
484.761	9.76
485.114	9.53
485.466	9.36
485.819	9.38
486.172	9.35
486.525	9.48
486.878	9.6
487.23	9.71
487.583	9.79
487.936	9.82
488.288	9.84
488.641	9.76
488.993	9.68
489.345	9.64
489.698	9.68
490.05	9.77
490.402	9.78
490.754	9.94
491.107	9.98
491.459	10.1
491.811	10.08
492.163	10.21
492.515	10.2
492.866	10.16
493.218	9.93
493.57	9.93
493.922	9.93
494.274	10.05
494.625	10.24
494.977	10.38
495.328	10.41
495.68	10.42
496.031	10.84
496.383	10.53
496.734	10.65
497.086	10.62
497.437	10.7
497.788	10.62
498.139	10.67
498.49	10.79
498.842	10.45
499.193	10.77
499.544	10.68
499.894	10.75
500.245	10.8
500.596	10.76
500.947	10.79
501.298	11.05
501.648	11
501.999	10.86
502.35	10.85
502.7	10.94
503.051	11.07
503.401	11.07
503.752	11.43
504.102	11.22
504.452	11.12
504.803	11.18
505.153	11.12
505.503	11.26
505.853	11.38
506.203	11.21
506.553	11.27
506.903	11.31
507.253	11.24
507.603	11.31
507.953	11.24
508.303	11.4
508.652	11.31
509.002	11.53
509.352	11.35
509.701	11.41
510.051	11.39
510.4	11.3
510.75	11.37
511.099	11.37
511.449	11.5
511.798	11.45
512.147	11.59
512.496	11.64
512.846	11.54
513.195	11.45
513.544	11.65
513.893	11.54
514.242	11.57
514.591	11.57
514.939	11.67
515.288	11.66
515.637	11.56
515.986	11.76
516.334	11.92
516.683	11.87
517.032	11.9
517.38	11.84
517.729	11.98
518.077	11.87
518.426	12
518.774	11.94
519.122	12.01
519.47	11.87
519.819	11.96
520.167	11.79
520.515	11.8
520.863	11.92
521.211	11.88
521.559	11.96
521.907	11.99
522.255	12.07
522.602	12.16
522.95	12.24
523.298	12.22
523.645	12.48
523.993	12.33
524.341	12.38
524.688	12.4
525.036	12.44
525.383	12.48
525.73	12.31
526.078	12.38
526.425	12.28
526.772	12.35
527.119	12.32
527.466	12.31
527.814	12.09
528.161	12.4
528.508	12.37
528.854	12.34
529.201	12.43
529.548	12.22
529.895	12.13
530.242	11.88
530.588	11.86
530.935	12.06
531.282	12.12
531.628	12.28
531.975	12.33
532.321	12.36
532.667	12.45
533.014	12.61
533.36	12.65
533.706	12.71
534.052	12.73
534.399	12.83
534.745	12.63
535.091	12.49
535.437	12.54
535.783	12.64
536.129	12.75
536.474	12.81
536.82	13.02
537.166	12.95
537.512	13.01
537.857	13.07
538.203	12.98
538.549	12.98
538.894	13.04
539.239	13.12
539.585	13.23
539.93	13.34
540.276	13.28
540.621	13.39
540.966	13.45
541.311	13.54
541.656	13.5
542.001	13.6
542.346	13.38
542.691	13.19
543.036	13.06
543.381	13
543.726	13.13
544.071	13.25
544.415	13.33
544.76	13.47
545.105	13.4
545.449	13.59
545.794	13.68
546.138	13.7
546.483	13.91
546.827	13.95
547.171	14.02
547.516	13.88
547.86	14.05
548.204	13.96
548.548	13.96
548.892	14.09
549.236	14.1
549.58	14.18
549.924	14.12
550.268	14.62
550.612	14.28
550.956	14.53
551.3	14.58
551.643	14.75
551.987	14.67
552.33	14.59
552.674	14.65
553.017	14.84
553.361	14.86
553.704	14.77
554.048	14.74
554.391	14.69
554.734	14.72
555.077	14.89
555.42	14.67
555.764	15.06
556.107	14.96
556.45	14.92
556.793	15.16
557.135	15.01
557.478	14.93
557.821	15.18
558.164	15.34
558.507	15.26
558.849	15.28
559.192	15.33
559.534	15.39
559.877	15.24
560.219	15.42
560.562	15.26
560.904	15.63
561.246	15.59
561.589	15.65
561.931	15.42
562.273	15.56
562.615	15.56
562.957	15.55
563.299	15.72
563.641	15.58
563.983	15.68
564.325	15.49
564.667	15.83
565.008	15.6
565.35	15.75
565.692	16.04
566.033	15.82
566.375	15.94
566.716	15.85
567.058	15.89
567.399	15.99
567.741	15.97
568.082	15.91
568.423	15.73
568.764	15.78
569.105	16.04
569.447	16.18
569.788	16.1
570.129	16.07
570.47	16.45
570.811	16.26
571.151	16.43
571.492	16.35
571.833	16.35
572.174	16.36
572.514	16.55
572.855	16.3
573.195	16.29
573.536	16.19
573.876	16.35
574.217	16.45
574.557	16.43
574.898	16.67
575.238	16.65
575.578	16.6
575.918	16.59
576.258	16.7
576.598	16.74
576.938	16.8
577.278	16.82
577.618	16.9
577.958	16.87
578.298	16.95
578.638	17.09
578.977	16.96
579.317	16.94
579.657	17.25
579.996	17.2
580.336	17.31
580.675	17.34
581.014	17.35
581.354	17.39
581.693	17.44
582.032	17.52
582.372	17.81
582.711	17.5
583.05	17.69
583.389	17.55
583.728	17.79
584.067	17.84
584.406	18.08
584.745	17.95
585.083	17.9
585.422	18.15
585.761	18.03
586.1	17.98
586.438	18.16
586.777	18.19
587.115	17.84
587.454	18.24
587.792	18.27
588.13	18.49
588.469	18.33
588.807	18.26
589.145	18.16
589.483	18.22
589.821	18.46
590.159	18.38
590.497	18.38
590.835	18.61
591.173	18.7
591.511	18.61
591.849	18.4
592.187	18.71
592.524	18.47
592.862	18.63
593.2	18.53
593.537	18.58
593.875	18.8
594.212	18.75
594.55	19.03
594.887	19.04
595.224	18.96
595.561	19.2
595.899	18.66
596.236	19
596.573	18.93
596.91	19.24
597.247	18.96
597.584	19.1
597.921	19.1
598.258	18.93
598.594	18.86
598.931	19.04
599.268	18.9
599.604	18.92
599.941	19.16
600.277	19.33
600.614	19.48
600.95	19.6
601.287	19.59
601.623	19.68
601.959	19.56
602.296	19.77
602.632	19.43
602.968	19.58
603.304	19.32
603.64	19.95
603.976	19.58
604.312	19.87
604.648	19.65
604.984	19.73
605.319	19.91
605.655	19.6
605.991	19.78
606.326	19.49
606.662	19.55
606.998	19.76
607.333	19.85
607.668	19.9
608.004	19.99
608.339	20.24
608.674	20
609.01	20.03
609.345	20.23
609.68	20.46
610.015	20.21
610.35	20.3
610.685	20.38
611.02	20.14
611.355	20.18
611.689	20.25
612.024	20.25
612.359	20.42
612.694	20.56
613.028	20.96
613.363	20.67
613.697	20.74
614.032	21
614.366	21.23
614.7	20.61
615.035	20.96
615.369	20.99
615.703	20.93
616.037	20.98
616.371	20.97
616.705	21.34
617.039	21.4
617.373	21.26
617.707	20.98
618.041	21.25
618.375	21.16
618.709	21.47
619.042	21.48
619.376	21.68
619.71	21.42
620.043	21.57
620.377	21.53
620.71	21.24
621.043	21.75
621.377	21.52
621.71	21.67
622.043	21.81
622.376	21.81
622.709	22.3
623.043	21.74
623.376	22.32
623.709	21.49
624.041	21.98
624.374	21.91
624.707	22.06
625.04	22
625.373	22.31
625.705	21.9
626.038	22.05
626.37	22.5
626.703	22.65
627.035	22.07
627.368	22.26
627.7	22.43
628.032	22.18
628.365	22.11
628.697	22.28
629.029	22.41
629.361	22.11
629.693	22.31
630.025	22.4
630.357	22.21
630.689	22.54
631.021	22.79
631.353	22.62
631.684	22.55
632.016	22.88
632.348	22.81
632.679	22.59
633.011	23.19
633.342	22.87
633.674	23.19
634.005	23.12
634.336	23.06
634.668	23.26
634.999	23.47
635.33	22.96
635.661	23.27
635.992	22.9
636.323	22.86
636.654	23.23
636.985	23.17
637.316	23.35
637.647	23.62
637.977	23.59
638.308	23.82
638.639	23.4
638.969	23.48
639.3	23.63
639.63	23.9
639.961	23.41
640.291	23.22
640.622	24.11
640.952	23.84
641.282	23.81
641.612	23.99
641.943	24.09
642.273	24.03
642.603	24.54
642.933	24.02
643.263	23.55
643.592	24.05
643.922	24.57
644.252	24.21
644.582	23.6
644.911	24.31
645.241	24.02
645.571	24.63
645.9	24.24
646.23	24.17
646.559	24.61
646.888	24.17
647.218	24.78
647.547	24.34
647.876	24.39
648.205	24.74
648.534	24.83
648.863	25.01
649.192	24.69
649.521	24.68
649.85	24.62
650.179	24.79
650.508	24.86
650.837	24.91
651.165	24.81
651.494	24.32
651.822	24.85
652.151	25.37
652.479	25.04
652.808	25.42
653.136	24.65
653.465	25.15
653.793	24.53
654.121	25.38
654.449	25.12
654.777	25.43
655.105	25.66
655.433	25.28
655.761	25.79
656.089	25.45
656.417	25.37
656.745	25.51
657.073	25.08
657.4	25.37
657.728	25.06
658.056	25.79
658.383	25.57
658.711	25.76
659.038	25.78
659.365	25.45
659.693	25.42
660.02	25.21
660.347	26.21
660.674	26.02
661.001	25.83
661.329	25.63
661.656	25.48
661.982	25.73
662.309	25.77
662.636	25.92
662.963	26.07
663.29	26.05
663.616	26.19
663.943	26.21
664.27	26.91
664.596	26.46
664.923	27.05
665.249	26.06
665.576	26.09
665.902	26.8
666.228	26.61
666.554	25.92
666.881	26.28
667.207	26.47
667.533	26.87
667.859	26.71
668.185	27.12
668.511	26.56
668.837	26.68
669.162	27.16
669.488	26.52
669.814	26.73
670.139	26.5
670.465	26.06
670.791	26.35
671.116	27.09
671.442	26.74
671.767	27.12
672.092	27.72
672.418	26.6
672.743	26.67
673.068	26.95
673.393	27.14
673.718	26.91
674.043	27.87
674.368	26.94
674.693	27.07
675.018	27.95
675.343	26.9
675.667	26.87
675.992	27.25
676.317	27.55
676.641	27.35
676.966	27.65
677.29	27.76
677.615	27.47
677.939	27.38
678.264	27.88
678.588	27.92
678.912	27.98
679.236	27.55
679.56	28.47
679.885	27.61
680.209	27.55
