Data from 445_crown_Reflection__4__39.txt Node

Date: Tue Dec 12 18:33:28 CST 2023
User: ToomeyLab
Spectrometer: FLMS14357
Trigger mode: 0
Integration Time (sec): 1.000000E-2
Scans to average: 100
Electric dark correction enabled: true
Nonlinearity correction enabled: false
Boxcar width: 0
XAxis mode: Wavelengths
Number of Pixels in Spectrum: 2048
>>>>>Begin Spectral Data<<<<<
189.047	-444.61
189.435	-444.61
189.823	-444.61
190.211	1104.41
190.599	80.18
190.987	54.89
191.375	-63.28
191.763	41.46
192.151	164.32
192.538	7.81
192.926	66.69
193.314	549
193.702	63.03
194.089	49.83
194.477	-11425
194.864	104.69
195.252	131.67
195.639	-93.91
196.027	386.97
196.414	43.39
196.801	4.25
197.189	-142.53
197.576	-707.22
197.963	63.93
198.351	28.84
198.738	24.87
199.125	8.87
199.512	-37.08
199.899	-3.71
200.286	-17.37
200.673	-0.04
201.06	-16.26
201.447	-25.96
201.833	-16.54
202.22	-17.51
202.607	-107.53
202.994	58.59
203.38	-14.42
203.767	-12.96
204.154	16.04
204.54	78.66
204.927	27.2
205.313	43.01
205.699	27.41
206.086	0.35
206.472	12.1
206.858	31.37
207.245	7.87
207.631	5.26
208.017	20.17
208.403	-14.18
208.789	-2.09
209.175	-9.37
209.561	36.44
209.947	-10.84
210.333	15.17
210.719	9.68
211.105	-8.22
211.491	27.66
211.876	34.01
212.262	11.17
212.648	25
213.034	-5.62
213.419	28.37
213.805	26.92
214.19	8.64
214.576	48.17
214.961	20
215.346	26.61
215.732	35.98
216.117	-1.57
216.502	18.56
216.888	28.27
217.273	4.21
217.658	-2.13
218.043	9.83
218.428	13.72
218.813	5.28
219.198	14.66
219.583	14.36
219.968	28.64
220.353	-4.53
220.738	12.96
221.122	17.34
221.507	11.18
221.892	10.63
222.276	9.85
222.661	3.52
223.046	-7.63
223.43	9.5
223.815	14.82
224.199	8.43
224.583	-4.33
224.968	11.63
225.352	5.41
225.736	1.21
226.121	1.81
226.505	-3.99
226.889	9.26
227.273	-2.09
227.657	10.77
228.041	4.95
228.425	3.62
228.809	2.7
229.193	0.46
229.577	5.47
229.961	5.35
230.344	5.26
230.728	6.03
231.112	5.48
231.495	5.58
231.879	5.92
232.263	5.52
232.646	5.29
233.03	5.85
233.413	5.24
233.797	5.91
234.18	2.42
234.563	1.65
234.946	7.32
235.33	7.55
235.713	6.37
236.096	4.31
236.479	5.56
236.862	4.91
237.245	5.73
237.628	3.88
238.011	5.3
238.394	6.39
238.777	6.5
239.16	5.68
239.543	5.28
239.925	5.69
240.308	4.2
240.691	4.22
241.073	5.83
241.456	6.11
241.838	5.68
242.221	5.62
242.603	4.58
242.986	5.12
243.368	5.29
243.75	5.33
244.133	5.66
244.515	5.4
244.897	5.18
245.279	5.21
245.661	4.48
246.043	5.54
246.425	6.98
246.807	4.76
247.189	5.29
247.571	5.74
247.953	5.05
248.335	5.07
248.717	5.13
249.098	5.25
249.48	4.73
249.862	4.99
250.243	4.71
250.625	5.42
251.006	5.5
251.388	5.16
251.769	5.25
252.151	5
252.532	4.97
252.913	5.14
253.295	5.78
253.676	4.53
254.057	4.8
254.438	4.96
254.819	4.82
255.2	4.9
255.581	4.89
255.962	4.39
256.343	5.01
256.724	5.62
257.105	5.24
257.486	4.86
257.867	4.82
258.247	4.35
258.628	6.24
259.009	4.01
259.389	4.96
259.77	4.17
260.15	4.73
260.531	5.03
260.911	5.05
261.292	4.36
261.672	4.38
262.052	4.83
262.432	4.64
262.813	4.62
263.193	4.53
263.573	4.65
263.953	5.21
264.333	4.9
264.713	5.32
265.093	4.49
265.473	4.96
265.853	4.49
266.233	4.62
266.612	4.87
266.992	5.39
267.372	4.99
267.752	5.98
268.131	3.6
268.511	4.31
268.89	4.14
269.27	4.11
269.649	4.65
270.029	3.79
270.408	5.4
270.787	3.85
271.167	4.44
271.546	4.66
271.925	4.69
272.304	5.05
272.683	4.02
273.062	4.21
273.441	4.67
273.82	4.3
274.199	4.47
274.578	3.77
274.957	4.24
275.336	4.38
275.715	4.92
276.093	3.85
276.472	4.62
276.851	4.24
277.229	4.45
277.608	4.01
277.986	3.78
278.365	4.13
278.743	4.46
279.122	4.73
279.5	4.25
279.878	3.37
280.257	3.54
280.635	4.36
281.013	4.3
281.391	4.53
281.769	3.92
282.147	4.32
282.525	3.26
282.903	4.08
283.281	4.23
283.659	4.3
284.037	4.35
284.415	3.78
284.792	4.34
285.17	3.9
285.548	4.06
285.925	3.58
286.303	4.21
286.68	4.3
287.058	4.26
287.435	4.36
287.813	3.81
288.19	3.93
288.567	4.27
288.945	4.52
289.322	3.79
289.699	4.26
290.076	3.43
290.453	4.06
290.83	3.85
291.207	4.38
291.584	4.14
291.961	4.12
292.338	4.39
292.715	4.06
293.092	4
293.469	4.29
293.845	4.15
294.222	4.37
294.599	4.35
294.975	3.53
295.352	3.65
295.728	4.23
296.105	3.99
296.481	4.36
296.858	3.96
297.234	4.4
297.61	4.46
297.986	4.35
298.363	4.15
298.739	4.13
299.115	3.81
299.491	4.15
299.867	4.03
300.243	3.96
300.619	3.94
300.995	4.21
301.371	4.37
301.746	4.25
302.122	4.7
302.498	4.58
302.874	4.36
303.249	4.59
303.625	3.53
304	3.85
304.376	4.11
304.751	4.61
305.127	4.15
305.502	4.41
305.878	3.93
306.253	4.15
306.628	4.42
307.003	3.97
307.378	3.85
307.754	4.36
308.129	3.87
308.504	4.71
308.879	4.28
309.254	3.89
309.629	3.54
310.003	4.02
310.378	4.56
310.753	4.98
311.128	3.99
311.502	3.41
311.877	3.66
312.252	3.55
312.626	3.98
313.001	3.61
313.375	3.16
313.75	4.25
314.124	4.33
314.498	4.35
314.873	3.96
315.247	4.79
315.621	3.74
315.995	4.41
316.369	4.14
316.743	3.76
317.117	3.88
317.491	3.52
317.865	3.78
318.239	4
318.613	4.3
318.987	4.12
319.361	3.97
319.734	3.9
320.108	3.98
320.482	3.79
320.855	4.14
321.229	4.37
321.602	3.77
321.976	4.43
322.349	3.98
322.723	3.91
323.096	4.16
323.469	4.17
323.843	4.5
324.216	4.17
324.589	4.53
324.962	4.13
325.335	4.58
325.708	3.84
326.081	3.78
326.454	4.23
326.827	4.59
327.2	4.07
327.573	3.73
327.945	4.1
328.318	4.43
328.691	3.76
329.063	4.52
329.436	4.42
329.809	4.09
330.181	3.59
330.553	3.96
330.926	4.39
331.298	4.25
331.671	3.91
332.043	4.42
332.415	5.02
332.787	4.33
333.159	4.33
333.532	4.16
333.904	4.46
334.276	4.35
334.648	3.83
335.02	3.71
335.391	3.56
335.763	3.74
336.135	4.07
336.507	5.13
336.879	3.89
337.25	4.31
337.622	3.65
337.993	4.23
338.365	3.54
338.736	4.6
339.108	3.85
339.479	4.55
339.851	3.96
340.222	3.86
340.593	4.33
340.964	4.15
341.336	4.46
341.707	3.83
342.078	3.44
342.449	3.72
342.82	4.32
343.191	3.91
343.562	3.94
343.933	4.15
344.303	4.61
344.674	4.38
345.045	4.17
345.416	4.27
345.786	3.91
346.157	3.95
346.527	4.59
346.898	3.88
347.268	4.26
347.639	4.13
348.009	4.02
348.38	3.92
348.75	4.34
349.12	4.31
349.49	3.91
349.861	4.35
350.231	4.07
350.601	4.38
350.971	3.84
351.341	4.46
351.711	4.7
352.081	4.33
352.45	4.29
352.82	3.96
353.19	4.11
353.56	4.08
353.929	3.66
354.299	3.76
354.669	3.58
355.038	3.63
355.408	3.75
355.777	4.39
356.147	4.05
356.516	4.19
356.885	4.06
357.254	4.39
357.624	4.12
357.993	4.15
358.362	4.39
358.731	4.4
359.1	4.28
359.469	4.13
359.838	4.02
360.207	4.11
360.576	3.98
360.945	3.93
361.314	4.24
361.682	4.35
362.051	4.31
362.42	4.36
362.788	4.11
363.157	4.52
363.525	4.27
363.894	3.93
364.262	4.07
364.631	3.99
364.999	4.34
365.367	4.43
365.735	4.11
366.104	4.41
366.472	4.27
366.84	4.43
367.208	4.28
367.576	4.14
367.944	4.17
368.312	4.36
368.68	3.88
369.048	4.58
369.416	4.6
369.783	4.11
370.151	4.37
370.519	4.12
370.886	4.27
371.254	3.84
371.621	4.49
371.989	4.06
372.356	4.35
372.724	4.17
373.091	4.04
373.458	3.91
373.826	4.42
374.193	3.92
374.56	4.52
374.927	4.21
375.294	4.17
375.661	4.37
376.028	4.41
376.395	4.58
376.762	4.89
377.129	4.39
377.496	4.49
377.863	4.5
378.229	4.39
378.596	4.32
378.963	4.45
379.329	4.34
379.696	4.37
380.062	4.79
380.429	4.34
380.795	4.43
381.161	4.31
381.528	4.25
381.894	4.65
382.26	4.36
382.626	4.27
382.993	4.41
383.359	4.27
383.725	4.38
384.091	4.15
384.457	4.45
384.823	4.42
385.188	4.79
385.554	4.55
385.92	4.48
386.286	4.59
386.651	4.65
387.017	5.12
387.383	4.61
387.748	4.42
388.114	4.66
388.479	4.84
388.845	4.57
389.21	4.61
389.575	4.37
389.94	4.69
390.306	4.68
390.671	4.37
391.036	4.6
391.401	4.64
391.766	4.7
392.131	4.66
392.496	4.36
392.861	4.3
393.226	4.7
393.591	4.61
393.956	4.47
394.32	4.74
394.685	4.6
395.05	4.49
395.414	4.51
395.779	4.47
396.143	4.62
396.508	4.43
396.872	4.5
397.236	4.63
397.601	4.66
397.965	4.63
398.329	4.58
398.694	4.7
399.058	4.93
399.422	4.6
399.786	4.41
400.15	4.33
400.514	4.7
400.878	4.55
401.242	4.75
401.605	4.95
401.969	4.62
402.333	4.91
402.697	4.69
403.06	4.56
403.424	4.77
403.787	4.32
404.151	4.73
404.514	4.47
404.878	4.38
405.241	4.96
405.604	4.38
405.968	4.61
406.331	4.88
406.694	5.03
407.057	4.65
407.42	4.82
407.783	4.61
408.146	4.65
408.509	4.75
408.872	4.71
409.235	4.67
409.598	4.72
409.961	4.87
410.323	4.8
410.686	4.53
411.049	4.81
411.411	4.94
411.774	4.79
412.136	4.88
412.499	4.56
412.861	4.82
413.223	5.04
413.586	4.55
413.948	4.71
414.31	4.8
414.672	4.9
415.035	4.78
415.397	4.77
415.759	4.87
416.121	4.49
416.483	4.63
416.845	4.67
417.206	4.82
417.568	4.66
417.93	5.01
418.292	4.7
418.653	5.08
419.015	4.74
419.377	4.68
419.738	4.78
420.1	4.81
420.461	4.86
420.822	4.91
421.184	4.61
421.545	4.9
421.906	4.82
422.267	4.72
422.629	4.67
422.99	4.68
423.351	4.72
423.712	4.74
424.073	4.67
424.434	4.79
424.795	4.8
425.155	4.62
425.516	4.61
425.877	4.68
426.238	4.79
426.598	4.68
426.959	4.8
427.32	4.76
427.68	4.8
428.041	4.78
428.401	4.9
428.761	4.8
429.122	4.85
429.482	5.12
429.842	4.87
430.202	4.92
430.563	4.75
430.923	4.82
431.283	4.75
431.643	5
432.003	4.85
432.363	4.94
432.722	4.71
433.082	4.79
433.442	4.88
433.802	4.92
434.161	5
434.521	4.88
434.881	4.89
435.24	4.89
435.6	4.97
435.959	4.84
436.319	4.77
436.678	5.01
437.037	4.73
437.396	4.75
437.756	4.86
438.115	5.04
438.474	4.81
438.833	5.14
439.192	4.99
439.551	4.93
439.91	4.77
440.269	4.94
440.628	4.73
440.987	4.9
441.345	4.92
441.704	4.96
442.063	4.96
442.421	4.96
442.78	4.9
443.138	4.93
443.497	4.85
443.855	4.97
444.214	4.93
444.572	4.97
444.93	5.11
445.288	4.79
445.647	5
446.005	4.83
446.363	4.84
446.721	4.77
447.079	4.78
447.437	4.72
447.795	4.87
448.153	4.78
448.51	4.91
448.868	4.9
449.226	4.95
449.584	4.87
449.941	4.91
450.299	4.95
450.656	4.93
451.014	5.05
451.371	5.05
451.729	5.07
452.086	4.98
452.443	5.17
452.801	5.08
453.158	5.04
453.515	4.98
453.872	4.99
454.229	5.13
454.586	4.9
454.943	5.06
455.3	4.83
455.657	5.07
456.014	5.05
456.371	5.01
456.727	5.05
457.084	5.03
457.441	5.06
457.797	5
458.154	4.88
458.51	4.95
458.867	5.02
459.223	5
459.58	5.08
459.936	4.94
460.292	5.07
460.648	4.97
461.005	5
461.361	4.89
461.717	5.03
462.073	4.97
462.429	4.95
462.785	4.95
463.141	5.01
463.496	4.99
463.852	5.31
464.208	5.03
464.564	5.06
464.919	5.25
465.275	5.04
465.631	5.16
465.986	4.95
466.342	5.17
466.697	5.01
467.052	5.22
467.408	5.24
467.763	5.17
468.118	5.09
468.473	5.16
468.829	5.19
469.184	4.95
469.539	5.29
469.894	5.28
470.249	5.11
470.603	5.03
470.958	5.04
471.313	5.29
471.668	5.26
472.023	5.16
472.377	4.97
472.732	5.23
473.086	5.16
473.441	5.28
473.795	4.98
474.15	5.2
474.504	5.08
474.859	5.12
475.213	4.98
475.567	5.03
475.921	5.02
476.275	5.02
476.63	5.22
476.984	5.16
477.338	5.06
477.692	5.16
478.045	5.12
478.399	5.03
478.753	5.12
479.107	5.04
479.461	5.15
479.814	5.23
480.168	5.07
480.521	5.05
480.875	5.16
481.228	5.19
481.582	5.14
481.935	5.24
482.289	5.34
482.642	5.25
482.995	5.08
483.348	5.07
483.701	5.23
484.055	5.18
484.408	5.04
484.761	5.06
485.114	4.9
485.466	4.91
485.819	4.85
486.172	4.84
486.525	4.92
486.878	4.92
487.23	4.93
487.583	5.03
487.936	5.15
488.288	5
488.641	5.01
488.993	4.96
489.345	4.98
489.698	4.92
490.05	4.94
490.402	4.97
490.754	5.04
491.107	5
491.459	5.06
491.811	5.14
492.163	5.07
492.515	5.14
492.866	5.09
493.218	4.96
493.57	4.94
493.922	4.86
494.274	4.98
494.625	5.17
494.977	5.23
495.328	5.24
495.68	5.13
496.031	5.34
496.383	5.15
496.734	5.2
497.086	5.1
497.437	5.18
497.788	5.31
498.139	5.22
498.49	5.35
498.842	5.13
499.193	5.28
499.544	5.22
499.894	5.2
500.245	5.34
500.596	5.24
500.947	5.18
501.298	5.31
501.648	5.37
501.999	5.22
502.35	5.27
502.7	5.36
503.051	5.22
503.401	5.33
503.752	5.53
504.102	5.31
504.452	5.36
504.803	5.37
505.153	5.25
505.503	5.16
505.853	5.33
506.203	5.33
506.553	5.3
506.903	5.4
507.253	5.36
507.603	5.41
507.953	5.3
508.303	5.28
508.652	5.23
509.002	5.41
509.352	5.27
509.701	5.29
510.051	5.38
510.4	5.2
510.75	5.18
511.099	5.25
511.449	5.33
511.798	5.32
512.147	5.31
512.496	5.35
512.846	5.39
513.195	5.27
513.544	5.48
513.893	5.38
514.242	5.32
514.591	5.21
514.939	5.31
515.288	5.3
515.637	5.14
515.986	5.38
516.334	5.38
516.683	5.38
517.032	5.45
517.38	5.29
517.729	5.41
518.077	5.43
518.426	5.51
518.774	5.29
519.122	5.27
519.47	5.36
519.819	5.33
520.167	5.23
520.515	5.19
520.863	5.36
521.211	5.29
521.559	5.34
521.907	5.33
522.255	5.42
522.602	5.52
522.95	5.35
523.298	5.43
523.645	5.53
523.993	5.49
524.341	5.39
524.688	5.32
525.036	5.45
525.383	5.4
525.73	5.41
526.078	5.48
526.425	5.31
526.772	5.29
527.119	5.38
527.466	5.36
527.814	5.18
528.161	5.35
528.508	5.3
528.854	5.32
529.201	5.26
529.548	5.28
529.895	5.18
530.242	5.12
530.588	5.1
530.935	5.15
531.282	5.18
531.628	5.21
531.975	5.26
532.321	5.28
532.667	5.29
533.014	5.29
533.36	5.31
533.706	5.26
534.052	5.28
534.399	5.29
534.745	5.29
535.091	5.18
535.437	5.3
535.783	5.29
536.129	5.39
536.474	5.37
536.82	5.35
537.166	5.49
537.512	5.47
537.857	5.49
538.203	5.31
538.549	5.35
538.894	5.45
539.239	5.45
539.585	5.37
539.93	5.57
540.276	5.51
540.621	5.45
540.966	5.54
541.311	5.6
541.656	5.54
542.001	5.59
542.346	5.53
542.691	5.42
543.036	5.26
543.381	5.23
543.726	5.26
544.071	5.33
544.415	5.33
544.76	5.4
545.105	5.44
545.449	5.45
545.794	5.53
546.138	5.43
546.483	5.45
546.827	5.44
547.171	5.56
547.516	5.45
547.86	5.59
548.204	5.57
548.548	5.57
548.892	5.56
549.236	5.6
549.58	5.58
549.924	5.56
550.268	5.58
550.612	5.52
550.956	5.65
551.3	5.7
551.643	5.63
551.987	5.68
552.33	5.87
552.674	5.71
553.017	5.7
553.361	5.83
553.704	5.54
554.048	5.65
554.391	5.76
554.734	5.59
555.077	5.68
555.42	5.5
555.764	5.66
556.107	5.69
556.45	5.54
556.793	5.59
557.135	5.54
557.478	5.71
557.821	5.63
558.164	5.81
558.507	5.85
558.849	5.78
559.192	5.69
559.534	5.72
559.877	5.73
560.219	5.77
560.562	5.81
560.904	5.75
561.246	5.57
561.589	5.59
561.931	5.55
562.273	5.64
562.615	5.59
562.957	5.7
563.299	5.61
563.641	5.73
563.983	5.58
564.325	5.67
564.667	5.94
565.008	5.61
565.35	5.53
565.692	5.87
566.033	5.92
566.375	5.72
566.716	5.77
567.058	5.83
567.399	5.7
567.741	5.84
568.082	5.7
568.423	5.81
568.764	5.83
569.105	5.64
569.447	5.96
569.788	5.85
570.129	5.68
570.47	5.75
570.811	5.76
571.151	5.72
571.492	5.88
571.833	6
572.174	5.9
572.514	5.86
572.855	5.86
573.195	5.79
573.536	5.64
573.876	5.78
574.217	5.76
574.557	5.75
574.898	5.72
575.238	5.86
575.578	5.64
575.918	5.74
576.258	5.81
576.598	5.69
576.938	5.77
577.278	5.79
577.618	5.8
577.958	5.84
578.298	5.88
578.638	5.82
578.977	5.67
579.317	5.87
579.657	5.87
579.996	6.17
580.336	5.86
580.675	5.91
581.014	5.69
581.354	5.84
581.693	5.89
582.032	5.55
582.372	5.94
582.711	5.94
583.05	5.99
583.389	6.06
583.728	6.07
584.067	5.9
584.406	6.1
584.745	6.09
585.083	5.75
585.422	6.01
585.761	6.16
586.1	5.99
586.438	6.12
586.777	6.01
587.115	5.82
587.454	5.94
587.792	5.78
588.13	6
588.469	5.74
588.807	5.98
589.145	5.87
589.483	5.83
589.821	6.13
590.159	5.97
590.497	6.03
590.835	6.01
591.173	5.86
591.511	5.85
591.849	5.93
592.187	6.11
592.524	5.81
592.862	6.02
593.2	5.86
593.537	5.81
593.875	6.12
594.212	6.08
594.55	6.16
594.887	6.18
595.224	5.81
595.561	6.14
595.899	5.94
596.236	5.91
596.573	5.98
596.91	6.2
597.247	5.96
597.584	5.9
597.921	6.21
598.258	6.05
598.594	5.98
598.931	5.85
599.268	5.72
599.604	6.06
599.941	5.95
600.277	6.02
600.614	6.07
600.95	6.1
601.287	6.02
601.623	6.17
601.959	6.02
602.296	6.32
602.632	6.02
602.968	5.95
603.304	5.7
603.64	6.05
603.976	6.16
604.312	6.1
604.648	6.02
604.984	6
605.319	6.1
605.655	5.92
605.991	6.11
606.326	5.96
606.662	6.1
606.998	5.92
607.333	6.07
607.668	6.04
608.004	6.27
608.339	6.52
608.674	5.94
609.01	5.8
609.345	6.28
609.68	6.04
610.015	5.79
610.35	5.92
610.685	6.04
611.02	6.28
611.355	5.95
611.689	6.06
612.024	6.03
612.359	6.29
612.694	6.09
613.028	6.15
613.363	6.04
613.697	6.18
614.032	6.1
614.366	6.34
614.7	6.13
615.035	6.01
615.369	6.06
615.703	6.25
616.037	5.9
616.371	6.12
616.705	5.86
617.039	6.24
617.373	6.33
617.707	6
618.041	6.17
618.375	6.07
618.709	6.03
619.042	6.33
619.376	6.15
619.71	6.06
620.043	6.17
620.377	6.13
620.71	5.8
621.043	5.81
621.377	5.93
621.71	6.62
622.043	5.98
622.376	6.35
622.709	6.49
623.043	6.01
623.376	6.38
623.709	6.35
624.041	6.22
624.374	6.28
624.707	6.12
625.04	6.24
625.373	6.78
625.705	6.22
626.038	6.37
626.37	6.35
626.703	6.4
627.035	6.1
627.368	6.55
627.7	6.13
628.032	6.1
628.365	5.92
628.697	6.25
629.029	6.22
629.361	5.99
629.693	6
630.025	5.84
630.357	6.34
630.689	6.25
631.021	6.23
631.353	6.91
631.684	6.21
632.016	6.23
632.348	6.24
632.679	6.12
633.011	6.78
633.342	6.4
633.674	6.39
634.005	6.37
634.336	6.51
634.668	6.46
634.999	6.26
635.33	6.29
635.661	6.44
635.992	6.46
636.323	6.29
636.654	6.53
636.985	6.47
637.316	6.44
637.647	6.16
637.977	6.41
638.308	6.21
638.639	6.59
638.969	6.63
639.3	6.41
639.63	6.43
639.961	6.18
640.291	5.9
640.622	6.34
640.952	6.69
641.282	6.52
641.612	6.76
641.943	6.28
642.273	6.65
642.603	6.78
642.933	6.8
643.263	6.2
643.592	6.77
643.922	6.8
644.252	6.63
644.582	6.28
644.911	6.46
645.241	6.06
645.571	6.95
645.9	6.26
646.23	6.66
646.559	6.48
646.888	6.31
647.218	6.47
647.547	6.65
647.876	6.46
648.205	6.94
648.534	6.78
648.863	6.44
649.192	6.95
649.521	6.94
649.85	6.44
650.179	6.63
650.508	6.82
650.837	6.62
651.165	6.34
651.494	6.72
651.822	6.69
652.151	6.96
652.479	6.81
652.808	6.56
653.136	6.45
653.465	7.01
653.793	6.92
654.121	6.34
654.449	7.08
654.777	6.78
655.105	6.31
655.433	6.87
655.761	6.63
656.089	6.74
656.417	7.03
656.745	6.75
657.073	6.45
657.4	6.66
657.728	5.92
658.056	6.75
658.383	5.64
658.711	6.81
659.038	6.95
659.365	6.85
659.693	6.75
660.02	6.35
660.347	6.67
660.674	6.81
661.001	6.59
661.329	6.62
661.656	6.78
661.982	6.27
662.309	6.59
662.636	6.78
662.963	7.12
663.29	7.23
663.616	6.47
663.943	6.64
664.27	7.28
664.596	7.01
664.923	7.43
665.249	6.17
665.576	6.99
665.902	6.75
666.228	7.03
666.554	6.8
666.881	6.2
667.207	6.75
667.533	6.91
667.859	6.58
668.185	6.93
668.511	7.04
668.837	6.69
669.162	7.16
669.488	6.48
669.814	6.8
670.139	6.98
670.465	6.58
670.791	6.94
671.116	6.61
671.442	6.76
671.767	6.64
672.092	7.7
672.418	6.57
672.743	7.22
673.068	6.35
673.393	6.79
673.718	7.18
674.043	6.46
674.368	6.39
674.693	6.45
675.018	6.16
675.343	6.24
675.667	7.24
675.992	6.98
676.317	6.47
676.641	7.06
676.966	6.17
677.29	6.59
677.615	6.34
677.939	6.67
678.264	7.6
678.588	7.04
678.912	7.31
679.236	6.53
679.56	7.29
679.885	7.06
680.209	7.08
680.532	6.76
680.856	6.94
681.18	7.39
681.504	7.17
681.828	7.12
682.152	6.74
682.475	7.27
682.799	6.95
683.122	7.06
683.446	7.25
683.769	7.49
684.093	6.13
684.416	6.77
684.739	7.35
685.062	7.47
685.386	6.84
685.709	7.72
686.032	7.03
686.355	7.1
686.678	7.45
687.001	7.26
687.324	7.26
687.646	6.74
687.969	6.68
688.292	6.9
688.614	6.81
688.937	7.05
689.26	7.13
689.582	6.52
689.904	6.52
690.227	7.28
690.549	6.61
690.871	6.87
691.194	7.12
691.516	7.11
691.838	6.49
692.16	7.54
692.482	6.51
692.804	6.79
