Data from 445_crown_Reflection__1__36.txt Node

Date: Tue Dec 12 18:32:55 CST 2023
User: ToomeyLab
Spectrometer: FLMS14357
Trigger mode: 0
Integration Time (sec): 1.000000E-2
Scans to average: 100
Electric dark correction enabled: true
Nonlinearity correction enabled: false
Boxcar width: 0
XAxis mode: Wavelengths
Number of Pixels in Spectrum: 2048
>>>>>Begin Spectral Data<<<<<
189.047	349.88
189.435	349.88
189.823	349.88
190.211	2750.37
190.599	98.45
190.987	96.34
191.375	10.65
191.763	-134.73
192.151	98.87
192.538	-323.83
192.926	74.38
193.314	141.75
193.702	4.11
194.089	-151.44
194.477	-6843.75
194.864	82.78
195.252	26.89
195.639	76.36
196.027	-189.35
196.414	72.45
196.801	-316.16
197.189	265.5
197.576	239.03
197.963	63.04
198.351	-8.73
198.738	26.89
199.125	-4.72
199.512	-0.39
199.899	12.26
200.286	-13.13
200.673	4
201.06	4.77
201.447	-64.21
201.833	84.54
202.22	-12.43
202.607	-99.62
202.994	24.74
203.38	25.88
203.767	36.37
204.154	14.79
204.54	73.22
204.927	-5.83
205.313	20.15
205.699	-5.31
206.086	-0.18
206.472	47.52
206.858	-22.35
207.245	2.18
207.631	7.84
208.017	22.59
208.403	-25.1
208.789	-16.45
209.175	-18.22
209.561	7.98
209.947	20.52
210.333	25
210.719	11.42
211.105	-31.07
211.491	6.8
211.876	-10.35
212.262	35.8
212.648	-3.34
213.034	9.58
213.419	8.16
213.805	19.98
214.19	37.68
214.576	19.27
214.961	1.6
215.346	2.72
215.732	43.45
216.117	-7.22
216.502	-18.18
216.888	-24.26
217.273	-51.46
217.658	1.82
218.043	-1.55
218.428	30.02
218.813	15.69
219.198	-17.76
219.583	32.59
219.968	-1.72
220.353	20.88
220.738	-5.17
221.122	14.88
221.507	-6.58
221.892	4.14
222.276	19.16
222.661	10.21
223.046	5.32
223.43	3.02
223.815	-5.49
224.199	8.58
224.583	0.24
224.968	8.8
225.352	-0.95
225.736	14.5
226.121	1.95
226.505	1.43
226.889	-2.44
227.273	6.77
227.657	9.33
228.041	9.35
228.425	4.04
228.809	5.44
229.193	1.69
229.577	5.4
229.961	3.2
230.344	4.16
230.728	3.92
231.112	3.61
231.495	3.67
231.879	4.3
232.263	3.17
232.646	3.03
233.03	2.99
233.413	2.45
233.797	2.95
234.18	3.22
234.563	2.8
234.946	3.93
235.33	4.84
235.713	3.47
236.096	3.17
236.479	3
236.862	3.5
237.245	2.96
237.628	3.55
238.011	3.46
238.394	2.73
238.777	4.91
239.16	3.92
239.543	4.67
239.925	4.34
240.308	3.59
240.691	3.27
241.073	3.74
241.456	4.46
241.838	3.75
242.221	3.77
242.603	4.12
242.986	2.74
243.368	3.76
243.75	3.12
244.133	3.39
244.515	3.76
244.897	3.79
245.279	4.52
245.661	2.91
246.043	3.17
246.425	4.15
246.807	2.08
247.189	3.52
247.571	3.46
247.953	3.65
248.335	3.21
248.717	3.34
249.098	3.39
249.48	3.19
249.862	3.22
250.243	3.32
250.625	3.57
251.006	3.27
251.388	3.67
251.769	3.69
252.151	3.06
252.532	3.6
252.913	3.49
253.295	4.38
253.676	3.46
254.057	3.22
254.438	3.32
254.819	3.24
255.2	3.47
255.581	3.95
255.962	2.6
256.343	2.7
256.724	3.47
257.105	4.36
257.486	3.23
257.867	3.78
258.247	3.29
258.628	3.05
259.009	3.58
259.389	3.2
259.77	3.47
260.15	2.63
260.531	3.94
260.911	3.4
261.292	2.92
261.672	3.13
262.052	3.31
262.432	3.33
262.813	3.26
263.193	3.57
263.573	3.72
263.953	4.03
264.333	4.4
264.713	3.48
265.093	3.08
265.473	4.07
265.853	3.27
266.233	3.06
266.612	3.13
266.992	3.93
267.372	3.15
267.752	4.15
268.131	2.36
268.511	3.27
268.89	2.39
269.27	2.57
269.649	3.29
270.029	2.88
270.408	3.21
270.787	3.32
271.167	3.23
271.546	3
271.925	4.11
272.304	3.84
272.683	2.94
273.062	3.09
273.441	3.51
273.82	2.69
274.199	3.07
274.578	3.14
274.957	2.98
275.336	3.14
275.715	2.83
276.093	2.53
276.472	2.62
276.851	2.96
277.229	2.85
277.608	2.61
277.986	2.67
278.365	3.3
278.743	3
279.122	2.96
279.5	2.99
279.878	2.45
280.257	3.05
280.635	3.4
281.013	2.7
281.391	3.1
281.769	2.87
282.147	2.98
282.525	2.53
282.903	2.41
283.281	2.69
283.659	3.4
284.037	3.62
284.415	2.99
284.792	3.16
285.17	3.03
285.548	3.1
285.925	3.06
286.303	2.97
286.68	2.62
287.058	3.31
287.435	2.78
287.813	2.3
288.19	2.85
288.567	2.82
288.945	3.13
289.322	2.48
289.699	2.81
290.076	2.64
290.453	3.57
290.83	3.03
291.207	3.17
291.584	3.15
291.961	3.29
292.338	2.88
292.715	3.18
293.092	2.73
293.469	3.04
293.845	2.83
294.222	2.88
294.599	2.96
294.975	2.98
295.352	3.12
295.728	3.04
296.105	3.23
296.481	3.07
296.858	3.39
297.234	3.29
297.61	3.17
297.986	3.46
298.363	3.1
298.739	3.08
299.115	2.87
299.491	2.84
299.867	3
300.243	2.97
300.619	3.04
300.995	3.2
301.371	3.25
301.746	2.99
302.122	3.92
302.498	3.32
302.874	3.25
303.249	3.39
303.625	2.73
304	3.49
304.376	3.38
304.751	3.61
305.127	3.31
305.502	3.56
305.878	3.26
306.253	3.27
306.628	2.87
307.003	3.09
307.378	2.89
307.754	2.88
308.129	2.81
308.504	3.3
308.879	3.08
309.254	4.01
309.629	3.23
310.003	3.49
310.378	3.42
310.753	3.29
311.128	3.58
311.502	3.26
311.877	2.91
312.252	2.75
312.626	3.03
313.001	2.87
313.375	2.69
313.75	3.05
314.124	3.06
314.498	3.13
314.873	2.5
315.247	3.45
315.621	3.06
315.995	3.3
316.369	2.89
316.743	2.78
317.117	3.09
317.491	3
317.865	2.72
318.239	3.33
318.613	3.59
318.987	3.57
319.361	2.9
319.734	3.59
320.108	3.02
320.482	2.89
320.855	2.96
321.229	3.26
321.602	3.47
321.976	3.1
322.349	3
322.723	3.3
323.096	2.57
323.469	3.64
323.843	3.41
324.216	3.54
324.589	3.57
324.962	3.27
325.335	3.69
325.708	3.7
326.081	3.08
326.454	3.4
326.827	3.73
327.2	3.62
327.573	2.58
327.945	3
328.318	3.65
328.691	2.85
329.063	3.4
329.436	3.68
329.809	3.22
330.181	3.08
330.553	3.17
330.926	3.61
331.298	3.23
331.671	3.51
332.043	3.02
332.415	3.85
332.787	3.21
333.159	3.51
333.532	2.92
333.904	2.96
334.276	4.22
334.648	2.96
335.02	3.36
335.391	3.32
335.763	3.11
336.135	3.32
336.507	4.33
336.879	2.9
337.25	3.25
337.622	3.24
337.993	3.18
338.365	3.14
338.736	3.69
339.108	3.44
339.479	3.62
339.851	2.53
340.222	2.6
340.593	3.39
340.964	3.43
341.336	3.53
341.707	2.93
342.078	2.77
342.449	3.38
342.82	3.54
343.191	3.55
343.562	3.47
343.933	3.58
344.303	3.46
344.674	3.32
345.045	3.49
345.416	3.98
345.786	3.24
346.157	3.53
346.527	3.33
346.898	3.2
347.268	3.33
347.639	3.56
348.009	3.39
348.38	3.16
348.75	3.86
349.12	3.51
349.49	3.54
349.861	3.84
350.231	2.91
350.601	3.62
350.971	3.91
351.341	3.59
351.711	3.93
352.081	3.64
352.45	3.5
352.82	3.66
353.19	3.47
353.56	3.3
353.929	3.01
354.299	3.02
354.669	3.59
355.038	3.16
355.408	3.09
355.777	4.03
356.147	3.42
356.516	3.3
356.885	3.35
357.254	3.26
357.624	3.07
357.993	3.65
358.362	3.53
358.731	3.58
359.1	2.83
359.469	3.02
359.838	3.39
360.207	3.34
360.576	3.66
360.945	3.21
361.314	3.42
361.682	3.66
362.051	3.41
362.42	3.44
362.788	3.18
363.157	3.71
363.525	3.67
363.894	3.39
364.262	3.35
364.631	2.94
364.999	3.66
365.367	3.89
365.735	3.33
366.104	3.65
366.472	3.25
366.84	3.12
367.208	3.37
367.576	3.45
367.944	3.75
368.312	3.62
368.68	3.21
369.048	3.67
369.416	3.46
369.783	3.89
370.151	3.45
370.519	3.62
370.886	3.43
371.254	3.23
371.621	3.78
371.989	3.29
372.356	3.6
372.724	3.48
373.091	3.66
373.458	3.62
373.826	3.53
374.193	3.42
374.56	3.72
374.927	3.68
375.294	3.61
375.661	3.51
376.028	3.55
376.395	3.8
376.762	3.84
377.129	3.56
377.496	3.61
377.863	3.59
378.229	3.64
378.596	3.19
378.963	3.67
379.329	3.31
379.696	3.36
380.062	3.89
380.429	3.67
380.795	3.84
381.161	3.62
381.528	3.65
381.894	3.74
382.26	3.52
382.626	3.73
382.993	4.07
383.359	3.45
383.725	3.75
384.091	3.85
384.457	3.47
384.823	3.71
385.188	3.51
385.554	3.52
385.92	3.69
386.286	3.84
386.651	3.76
387.017	3.95
387.383	3.62
387.748	3.89
388.114	3.99
388.479	3.79
388.845	3.85
389.21	3.65
389.575	3.52
389.94	3.52
390.306	4
390.671	3.77
391.036	3.7
391.401	3.84
391.766	3.86
392.131	3.6
392.496	3.82
392.861	3.47
393.226	4.03
393.591	3.54
393.956	3.56
394.32	3.79
394.685	3.78
395.05	3.79
395.414	3.68
395.779	3.88
396.143	3.77
396.508	3.54
396.872	3.61
397.236	3.74
397.601	3.75
397.965	3.73
398.329	4.17
398.694	3.71
399.058	3.86
399.422	3.62
399.786	3.75
400.15	3.55
400.514	3.93
400.878	3.8
401.242	3.64
401.605	4.02
401.969	3.99
402.333	4.02
402.697	3.81
403.06	3.81
403.424	3.74
403.787	3.56
404.151	4.08
404.514	3.42
404.878	3.7
405.241	3.84
405.604	3.71
405.968	3.61
406.331	3.93
406.694	3.82
407.057	3.68
407.42	3.82
407.783	3.68
408.146	3.82
408.509	3.95
408.872	4.03
409.235	3.78
409.598	3.74
409.961	3.65
410.323	3.95
410.686	3.68
411.049	4
411.411	3.99
411.774	3.88
412.136	3.88
412.499	4.02
412.861	3.89
413.223	4.1
413.586	3.67
413.948	3.83
414.31	4.03
414.672	3.79
415.035	3.99
415.397	3.81
415.759	3.8
416.121	3.79
416.483	3.83
416.845	3.8
417.206	3.87
417.568	3.89
417.93	4.13
418.292	3.89
418.653	4.08
419.015	3.87
419.377	3.76
419.738	3.89
420.1	3.84
420.461	3.97
420.822	3.92
421.184	3.81
421.545	3.97
421.906	3.82
422.267	3.78
422.629	3.85
422.99	3.81
423.351	3.9
423.712	3.85
424.073	3.86
424.434	3.88
424.795	3.94
425.155	3.8
425.516	3.87
425.877	3.89
426.238	3.77
426.598	3.8
426.959	3.88
427.32	3.9
427.68	3.91
428.041	3.95
428.401	3.93
428.761	3.9
429.122	4.02
429.482	4.09
429.842	3.97
430.202	3.96
430.563	3.91
430.923	4.05
431.283	3.93
431.643	4.03
432.003	4.01
432.363	3.95
432.722	3.82
433.082	4.09
433.442	4.09
433.802	4.12
434.161	3.87
434.521	4.1
434.881	3.93
435.24	4.06
435.6	3.94
435.959	4.08
436.319	3.94
436.678	4.19
437.037	3.96
437.396	3.95
437.756	4.04
438.115	4.17
438.474	3.94
438.833	4.3
439.192	4.05
439.551	4.03
439.91	3.89
440.269	3.91
440.628	3.98
440.987	3.79
441.345	4.07
441.704	4.09
442.063	4.02
442.421	3.99
442.78	4.01
443.138	4.05
443.497	3.98
443.855	4.03
444.214	4.08
444.572	4.17
444.93	4.15
445.288	3.92
445.647	4.27
446.005	4.09
446.363	3.73
446.721	3.98
447.079	3.98
447.437	3.96
447.795	4.04
448.153	4.01
448.51	4.04
448.868	3.97
449.226	4.08
449.584	4.19
449.941	4.03
450.299	4.12
450.656	3.96
451.014	4.29
451.371	4.14
451.729	4.03
452.086	4.15
452.443	4.3
452.801	4.1
453.158	4.22
453.515	4.16
453.872	4.21
454.229	4.22
454.586	3.96
454.943	4.21
455.3	4.13
455.657	4.13
456.014	4.27
456.371	4.21
456.727	4.24
457.084	4.07
457.441	4.23
457.797	4.4
458.154	4.22
458.51	4.07
458.867	4.23
459.223	4.26
459.58	4.15
459.936	4.17
460.292	4.19
460.648	4.25
461.005	4.1
461.361	4.09
461.717	4.14
462.073	4.11
462.429	4.04
462.785	4.07
463.141	4.16
463.496	3.94
463.852	4.27
464.208	4.16
464.564	4.32
464.919	4.33
465.275	4.27
465.631	4.35
465.986	4.33
466.342	4.24
466.697	4.27
467.052	4.57
467.408	4.3
467.763	4.31
468.118	4.18
468.473	4.5
468.829	4.32
469.184	4.16
469.539	4.47
469.894	4.39
470.249	4.33
470.603	4.24
470.958	4.12
471.313	4.5
471.668	4.57
472.023	4.27
472.377	4.11
472.732	4.42
473.086	4.43
473.441	4.45
473.795	4.35
474.15	4.42
474.504	4.15
474.859	4.22
475.213	4.22
475.567	4.31
475.921	4.38
476.275	4.34
476.63	4.35
476.984	4.27
477.338	4.17
477.692	4.32
478.045	4.49
478.399	4.24
478.753	4.28
479.107	4.28
479.461	4.23
479.814	4.37
480.168	4.19
480.521	4.25
480.875	4.3
481.228	4.32
481.582	4.29
481.935	4.35
482.289	4.37
482.642	4.43
482.995	4.24
483.348	4.22
483.701	4.5
484.055	4.27
484.408	4.21
484.761	4.19
485.114	4.11
485.466	4.03
485.819	4.03
486.172	4.05
486.525	4.15
486.878	4.23
487.23	4.2
487.583	4.23
487.936	4.27
488.288	4.19
488.641	4.23
488.993	4.13
489.345	4.17
489.698	4.15
490.05	4.17
490.402	4.18
490.754	4.25
491.107	4.26
491.459	4.25
491.811	4.35
492.163	4.37
492.515	4.33
492.866	4.22
493.218	4.15
493.57	4.14
493.922	4.14
494.274	4.27
494.625	4.39
494.977	4.45
495.328	4.48
495.68	4.28
496.031	4.46
496.383	4.52
496.734	4.45
497.086	4.51
497.437	4.43
497.788	4.59
498.139	4.31
498.49	4.47
498.842	4.34
499.193	4.46
499.544	4.44
499.894	4.44
500.245	4.61
500.596	4.53
500.947	4.48
501.298	4.52
501.648	4.58
501.999	4.5
502.35	4.5
502.7	4.42
503.051	4.38
503.401	4.45
503.752	4.75
504.102	4.46
504.452	4.54
504.803	4.61
505.153	4.57
505.503	4.58
505.853	4.65
506.203	4.7
506.553	4.52
506.903	4.69
507.253	4.65
507.603	4.63
507.953	4.43
508.303	4.56
508.652	4.58
509.002	4.68
509.352	4.48
509.701	4.57
510.051	4.49
510.4	4.56
510.75	4.47
511.099	4.46
511.449	4.57
511.798	4.57
512.147	4.51
512.496	4.63
512.846	4.55
513.195	4.53
513.544	4.69
513.893	4.58
514.242	4.63
514.591	4.54
514.939	4.58
515.288	4.64
515.637	4.52
515.986	4.7
516.334	4.76
516.683	4.61
517.032	4.64
517.38	4.53
517.729	4.72
518.077	4.55
518.426	4.7
518.774	4.71
519.122	4.66
519.47	4.55
519.819	4.52
520.167	4.59
520.515	4.47
520.863	4.62
521.211	4.55
521.559	4.57
521.907	4.56
522.255	4.64
522.602	4.71
522.95	4.61
523.298	4.62
523.645	4.81
523.993	4.83
524.341	4.66
524.688	4.63
525.036	4.77
525.383	4.64
525.73	4.61
526.078	4.73
526.425	4.68
526.772	4.57
527.119	4.67
527.466	4.66
527.814	4.51
528.161	4.61
528.508	4.63
528.854	4.56
529.201	4.61
529.548	4.55
529.895	4.46
530.242	4.42
530.588	4.39
530.935	4.48
531.282	4.54
531.628	4.6
531.975	4.59
532.321	4.6
532.667	4.6
533.014	4.6
533.36	4.64
533.706	4.6
534.052	4.69
534.399	4.61
534.745	4.64
535.091	4.59
535.437	4.6
535.783	4.58
536.129	4.67
536.474	4.71
536.82	4.69
537.166	4.83
537.512	4.74
537.857	4.75
538.203	4.62
538.549	4.62
538.894	4.65
539.239	4.71
539.585	4.78
539.93	4.78
540.276	4.75
540.621	4.88
540.966	4.73
541.311	4.73
541.656	4.75
542.001	4.72
542.346	4.62
542.691	4.61
543.036	4.54
543.381	4.52
543.726	4.63
544.071	4.64
544.415	4.67
544.76	4.71
545.105	4.73
545.449	4.7
545.794	4.85
546.138	4.61
546.483	4.83
546.827	4.88
547.171	4.8
547.516	4.85
547.86	4.93
548.204	4.9
548.548	4.8
548.892	4.88
549.236	4.77
549.58	4.97
549.924	4.96
550.268	5.07
550.612	4.82
550.956	4.95
551.3	5.12
551.643	4.99
551.987	5.09
552.33	4.92
552.674	5.08
553.017	5.09
553.361	5.19
553.704	4.97
554.048	4.98
554.391	5.03
554.734	4.85
555.077	4.98
555.42	4.86
555.764	5.28
556.107	5.06
556.45	4.82
556.793	4.93
557.135	4.95
557.478	4.99
557.821	5.11
558.164	5.03
558.507	5.08
558.849	5.23
559.192	5.21
559.534	5.14
559.877	5.08
560.219	5.22
560.562	5
560.904	5.06
561.246	5.21
561.589	5.1
561.931	5.16
562.273	5.02
562.615	4.86
562.957	5.01
563.299	5.07
563.641	5.28
563.983	5.07
564.325	5.02
564.667	5.06
565.008	4.95
565.35	5.13
565.692	5.18
566.033	5.34
566.375	5.24
566.716	4.88
567.058	5.16
567.399	5.11
567.741	5.15
568.082	5.05
568.423	5.2
568.764	5.02
569.105	5.03
569.447	5.16
569.788	5.17
570.129	5.06
570.47	5.21
570.811	5.03
571.151	5.23
571.492	5.38
571.833	5.38
572.174	5.15
572.514	5.14
572.855	5.08
573.195	5.2
573.536	5
573.876	5.1
574.217	5.17
574.557	5.06
574.898	5.06
575.238	5.31
575.578	5.34
575.918	5.35
576.258	5.24
576.598	5.08
576.938	5.21
577.278	5.33
577.618	5.39
577.958	5.25
578.298	5.29
578.638	5.15
578.977	5.11
579.317	5.19
579.657	5.3
579.996	5.4
580.336	5.14
580.675	5.18
581.014	5.38
581.354	5.34
581.693	5.15
582.032	5.11
582.372	5.42
582.711	5.15
583.05	5.22
583.389	5.27
583.728	5.38
584.067	5.51
584.406	5.6
584.745	5.45
585.083	5.19
585.422	5.49
585.761	5.68
586.1	5.16
586.438	5.36
586.777	5.49
587.115	5.25
587.454	5.34
587.792	5.25
588.13	5.52
588.469	5.27
588.807	5.24
589.145	5.54
589.483	5.39
589.821	5.41
590.159	5.48
590.497	5.4
590.835	5.37
591.173	5.43
591.511	5.35
591.849	5.22
592.187	5.47
592.524	5.15
592.862	5.44
593.2	5.07
593.537	5.39
593.875	5.54
594.212	5.22
594.55	5.65
594.887	5.8
595.224	5.37
595.561	5.71
595.899	5.16
596.236	5.44
596.573	5.39
596.91	5.61
597.247	5.58
597.584	5.52
597.921	5.45
598.258	5.49
598.594	5.66
598.931	5.55
599.268	5.3
599.604	5.34
599.941	5.39
600.277	5.49
600.614	5.62
600.95	5.45
601.287	5.5
601.623	5.43
601.959	5.36
602.296	5.84
602.632	5.42
602.968	5.58
603.304	5.4
603.64	5.75
603.976	5.45
604.312	5.36
604.648	5.4
604.984	5.52
605.319	5.51
605.655	5.33
605.991	5.44
606.326	5.19
606.662	5.45
606.998	5.26
607.333	5.42
607.668	5.51
608.004	5.66
608.339	5.75
608.674	5.67
609.01	5.44
609.345	5.79
609.68	5.52
610.015	5.22
610.35	5.56
610.685	5.5
611.02	5.77
611.355	5.38
611.689	5.48
612.024	5.63
612.359	5.61
612.694	5.69
613.028	5.75
613.363	5.5
613.697	5.53
614.032	5.99
614.366	5.85
614.7	5.49
615.035	5.81
615.369	5.68
615.703	5.61
616.037	5.7
616.371	5.31
616.705	5.68
617.039	5.49
617.373	5.58
617.707	5.65
618.041	5.81
618.375	5.53
618.709	5.42
619.042	5.71
619.376	5.33
619.71	5.63
620.043	5.78
620.377	5.71
620.71	5.29
621.043	5.65
621.377	5.43
621.71	5.87
622.043	5.62
622.376	6.2
622.709	6.01
623.043	5.69
623.376	6.15
623.709	6.01
624.041	5.48
624.374	5.68
624.707	5.77
625.04	5.69
625.373	6.18
625.705	6.07
626.038	5.8
626.37	5.89
626.703	6
627.035	5.7
627.368	6.07
627.7	5.57
628.032	5.57
628.365	5.69
628.697	5.53
629.029	5.54
629.361	5.52
629.693	5.6
630.025	5.61
630.357	5.78
630.689	5.63
631.021	5.82
631.353	5.91
631.684	5.73
632.016	5.97
632.348	5.8
632.679	5.62
633.011	6.11
633.342	5.75
633.674	5.56
634.005	6.05
634.336	6.04
634.668	5.92
634.999	6.02
635.33	5.92
635.661	6.13
635.992	5.86
636.323	5.55
636.654	6.02
636.985	5.83
637.316	5.84
637.647	5.69
637.977	6
638.308	6.27
638.639	5.97
638.969	5.8
639.3	5.94
639.63	6.19
639.961	6.34
640.291	5.76
640.622	6.06
640.952	6.09
641.282	6.06
641.612	6.22
641.943	6.01
642.273	6.39
642.603	6.06
642.933	6.17
643.263	5.78
643.592	6.19
643.922	5.97
644.252	5.79
644.582	5.9
644.911	6.22
645.241	5.75
645.571	6.44
645.9	5.88
646.23	5.5
646.559	6.28
646.888	6.09
647.218	6.12
647.547	6.09
647.876	6.36
648.205	5.84
648.534	6.63
648.863	6.44
649.192	6.3
649.521	6.46
649.85	5.99
650.179	6.32
650.508	6.3
650.837	6.25
651.165	6.28
651.494	5.99
651.822	6.32
652.151	6.53
652.479	6.4
652.808	6.4
653.136	6.28
653.465	6.07
653.793	6.57
654.121	6.34
654.449	6.39
654.777	6.38
655.105	6.46
655.433	6.26
655.761	6.1
656.089	5.79
656.417	6.57
656.745	6.24
657.073	6.23
657.4	6.21
657.728	6.23
658.056	6.28
658.383	5.64
658.711	5.99
659.038	5.89
659.365	6.25
659.693	5.93
660.02	6.42
660.347	6.24
660.674	5.98
661.001	6.18
661.329	6.37
661.656	6.58
661.982	5.75
662.309	6.25
662.636	6.04
662.963	6.48
663.29	6.58
663.616	6.13
663.943	6.4
664.27	6.92
664.596	6.56
664.923	7.17
665.249	6.28
665.576	6.45
665.902	6.24
666.228	6.77
666.554	6.21
666.881	5.81
667.207	6.55
667.533	6.95
667.859	6.41
668.185	6.8
668.511	6.61
668.837	6.32
669.162	7.36
669.488	6.4
669.814	6.72
670.139	6.48
670.465	5.61
670.791	6.45
671.116	6.31
671.442	6.21
671.767	6.64
672.092	7.5
672.418	6.59
672.743	6.74
673.068	5.71
673.393	6.49
673.718	6.99
674.043	6.42
674.368	5.54
674.693	6.5
675.018	6.24
675.343	5.79
675.667	7.19
675.992	6.93
676.317	6.64
676.641	6.28
676.966	6.34
677.29	6.09
677.615	6.35
677.939	6.82
678.264	6.94
678.588	6.66
678.912	7.03
679.236	6.53
679.56	6.96
679.885	6.93
680.209	6.01
680.532	6.52
680.856	6.85
681.18	5.96
681.504	7.05
681.828	6.6
682.152	6.46
682.475	6.64
682.799	6.59
683.122	6.62
683.446	6.6
683.769	7.38
684.093	6.7
684.416	6.33
684.739	6.84
685.062	6.41
685.386	6.95
685.709	7.31
686.032	6.09
686.355	6.51
686.678	7.12
687.001	6.79
687.324	6.28
687.646	6.65
687.969	6.89
688.292	6.72
688.614	6.54
688.937	6.9
689.26	7.09
689.582	5.99
689.904	6.44
690.227	6.61
690.549	6.94
690.871	7.01
691.194	7.01
691.516	6.82
691.838	6.4
692.16	7.26
692.482	7.31
692.804	6.88
