Data from 445_chest_Reflection__4__34.txt Node

Date: Tue Dec 12 18:31:43 CST 2023
User: ToomeyLab
Spectrometer: FLMS14357
Trigger mode: 0
Integration Time (sec): 1.000000E-2
Scans to average: 100
Electric dark correction enabled: true
Nonlinearity correction enabled: false
Boxcar width: 0
XAxis mode: Wavelengths
Number of Pixels in Spectrum: 2048
>>>>>Begin Spectral Data<<<<<
189.047	-586.15
189.435	-586.15
189.823	-586.15
190.211	1134.93
190.599	4.32
190.987	118.41
191.375	83.49
191.763	473.34
192.151	59.83
192.538	-89.71
192.926	52.88
193.314	-563.75
193.702	0.3
194.089	18.92
194.477	4693.75
194.864	-14
195.252	-21.99
195.639	-33.41
196.027	-101.5
196.414	116.56
196.801	205.78
197.189	137.74
197.576	277.64
197.963	67.15
198.351	32
198.738	37.9
199.125	41.64
199.512	3.81
199.899	61.16
200.286	26.26
200.673	33.01
201.06	45.08
201.447	-80.48
201.833	50.54
202.22	-11.84
202.607	-67.97
202.994	42.71
203.38	55.64
203.767	21.66
204.154	39.26
204.54	70.56
204.927	28.67
205.313	11.79
205.699	-65.11
206.086	37.68
206.472	35.1
206.858	30.89
207.245	37.7
207.631	26.78
208.017	17.51
208.403	25.35
208.789	14.14
209.175	-0.22
209.561	41.29
209.947	-19.43
210.333	10
210.719	17.65
211.105	25.55
211.491	45.24
211.876	19.25
212.262	32.26
212.648	-33.39
213.034	13.12
213.419	9.39
213.805	15.4
214.19	43.9
214.576	52.16
214.961	21.33
215.346	18.52
215.732	26.63
216.117	34.69
216.502	-0.12
216.888	46.43
217.273	0.35
217.658	14
218.043	14.64
218.428	20.98
218.813	37.45
219.198	-5.86
219.583	22.33
219.968	36.75
220.353	-1.93
220.738	20.81
221.122	5.57
221.507	1.38
221.892	7.43
222.276	19.83
222.661	6.65
223.046	-4.88
223.43	15.77
223.815	13.42
224.199	14.32
224.583	10.25
224.968	7.4
225.352	10.04
225.736	11.61
226.121	1.61
226.505	10.82
226.889	8.59
227.273	7.35
227.657	13.33
228.041	7.31
228.425	4.92
228.809	6.91
229.193	1.63
229.577	4.03
229.961	3.11
230.344	5.81
230.728	6.17
231.112	4.7
231.495	5.85
231.879	5.52
232.263	4.49
232.646	4.42
233.03	5.55
233.413	3.9
233.797	5.38
234.18	6.4
234.563	5.43
234.946	4.49
235.33	6.35
235.713	5.24
236.096	5.82
236.479	5.46
236.862	5.82
237.245	6.8
237.628	4.85
238.011	4.29
238.394	4.38
238.777	5.28
239.16	5.19
239.543	7.53
239.925	5.75
240.308	3.34
240.691	3.56
241.073	5.95
241.456	6.64
241.838	5.88
242.221	5.42
242.603	5.01
242.986	3.93
243.368	4.62
243.75	4.18
244.133	4.59
244.515	4.7
244.897	4.42
245.279	4.58
245.661	4.27
246.043	3.99
246.425	4.27
246.807	4.67
247.189	5.76
247.571	4.55
247.953	4.23
248.335	4.24
248.717	4.26
249.098	4.16
249.48	3.84
249.862	4.05
250.243	4.04
250.625	4.87
251.006	4.39
251.388	4.25
251.769	4.45
252.151	3.04
252.532	4.82
252.913	4.42
253.295	4.72
253.676	4.09
254.057	4.06
254.438	4.51
254.819	4.32
255.2	3.98
255.581	3.85
255.962	4.24
256.343	4.53
256.724	5.56
257.105	5.3
257.486	4.5
257.867	3.66
258.247	4.27
258.628	4.33
259.009	4.29
259.389	4.85
259.77	4.18
260.15	4.17
260.531	3.89
260.911	4.18
261.292	4.07
261.672	3.85
262.052	3.8
262.432	4
262.813	4.41
263.193	4.34
263.573	4.18
263.953	4.43
264.333	5.3
264.713	4.8
265.093	4.04
265.473	4.85
265.853	3.07
266.233	4.13
266.612	4.19
266.992	4.09
267.372	4.17
267.752	5.44
268.131	3.19
268.511	3.7
268.89	4.05
269.27	3.46
269.649	3.9
270.029	4.03
270.408	4.26
270.787	3.69
271.167	3.69
271.546	3.9
271.925	3.84
272.304	4.66
272.683	3.6
273.062	4.06
273.441	3.76
273.82	3.7
274.199	4.05
274.578	4.15
274.957	3.9
275.336	4.09
275.715	3.71
276.093	3.73
276.472	4.06
276.851	4.15
277.229	3.23
277.608	4.01
277.986	3.6
278.365	4.13
278.743	4.31
279.122	4.05
279.5	3.03
279.878	2.78
280.257	4.21
280.635	4.08
281.013	3.94
281.391	4.02
281.769	3.67
282.147	3.98
282.525	3.41
282.903	3.88
283.281	3.75
283.659	3.87
284.037	3.69
284.415	3.81
284.792	3.95
285.17	3.67
285.548	3.83
285.925	3.64
286.303	3.88
286.68	3.82
287.058	3.96
287.435	3.78
287.813	3.42
288.19	3.71
288.567	3.83
288.945	3.89
289.322	3.35
289.699	3.69
290.076	3.35
290.453	3.77
290.83	3.28
291.207	4.29
291.584	4.11
291.961	3.89
292.338	3.68
292.715	3.93
293.092	3.34
293.469	3.84
293.845	4.12
294.222	3.56
294.599	3.43
294.975	3.68
295.352	4.04
295.728	4.04
296.105	3.94
296.481	4.11
296.858	3.59
297.234	4.05
297.61	3.67
297.986	3.82
298.363	3.76
298.739	3.72
299.115	3.51
299.491	3.92
299.867	3.66
300.243	3.54
300.619	3.48
300.995	3.57
301.371	3.8
301.746	3.91
302.122	4.24
302.498	3.77
302.874	3.58
303.249	3.92
303.625	3.21
304	4.03
304.376	3.7
304.751	4.19
305.127	3.59
305.502	4.11
305.878	3.56
306.253	3.16
306.628	4.07
307.003	3.68
307.378	3.39
307.754	4
308.129	3.7
308.504	4.55
308.879	3.7
309.254	4.14
309.629	3.53
310.003	4.21
310.378	4.07
310.753	4.02
311.128	4.12
311.502	3.3
311.877	3.84
312.252	3.44
312.626	3.75
313.001	3.72
313.375	3.44
313.75	4.1
314.124	4
314.498	4.15
314.873	3.39
315.247	4.48
315.621	3.71
315.995	3.78
316.369	4.09
316.743	3.75
317.117	3.4
317.491	3.79
317.865	4.22
318.239	3.51
318.613	4.14
318.987	4.48
319.361	3.71
319.734	3.3
320.108	3.49
320.482	3.68
320.855	3.47
321.229	3.91
321.602	3.67
321.976	3.31
322.349	4.31
322.723	3.33
323.096	4.26
323.469	3.48
323.843	4.75
324.216	3.76
324.589	4.11
324.962	3.6
325.335	4.54
325.708	4.27
326.081	3.8
326.454	3.89
326.827	3.96
327.2	4.11
327.573	3.45
327.945	3.7
328.318	4.17
328.691	3.04
329.063	4.15
329.436	3.91
329.809	3.88
330.181	3.31
330.553	3.66
330.926	3.74
331.298	3.94
331.671	4.48
332.043	3.57
332.415	3.86
332.787	3.94
333.159	4.3
333.532	3.99
333.904	4.14
334.276	4.48
334.648	3.41
335.02	3.32
335.391	4.05
335.763	3.75
336.135	3.88
336.507	4.46
336.879	3.43
337.25	3.83
337.622	3.94
337.993	3.51
338.365	3.12
338.736	3.76
339.108	3.59
339.479	3.9
339.851	3.88
340.222	3.35
340.593	3.33
340.964	4.39
341.336	4.02
341.707	3.61
342.078	3.53
342.449	3.54
342.82	4.18
343.191	4.04
343.562	3.3
343.933	4.16
344.303	3.86
344.674	3.88
345.045	3.98
345.416	3.78
345.786	3.22
346.157	3.94
346.527	4.29
346.898	3.44
347.268	3.69
347.639	3.86
348.009	3.32
348.38	3.44
348.75	3.71
349.12	3.98
349.49	3.65
349.861	4.28
350.231	3.55
350.601	4.11
350.971	3.86
351.341	4.18
351.711	4.07
352.081	3.83
352.45	3.8
352.82	3.88
353.19	3.59
353.56	3.73
353.929	3.82
354.299	3.93
354.669	3.5
355.038	3.44
355.408	3.62
355.777	3.97
356.147	3.79
356.516	4.2
356.885	3.8
357.254	3.56
357.624	3.41
357.993	3.69
358.362	3.95
358.731	3.88
359.1	3.28
359.469	3.56
359.838	3.61
360.207	3.69
360.576	4.1
360.945	3.45
361.314	4.22
361.682	3.87
362.051	3.75
362.42	3.74
362.788	3.33
363.157	4.08
363.525	3.9
363.894	3.72
364.262	3.67
364.631	3.51
364.999	3.64
365.367	3.7
365.735	3.38
366.104	3.61
366.472	3.4
366.84	3.77
367.208	3.82
367.576	3.62
367.944	3.92
368.312	3.81
368.68	3.72
369.048	3.84
369.416	3.7
369.783	3.81
370.151	3.78
370.519	3.65
370.886	3.94
371.254	3.42
371.621	4.07
371.989	3.57
372.356	3.63
372.724	3.91
373.091	3.62
373.458	3.69
373.826	3.67
374.193	3.25
374.56	3.9
374.927	3.83
375.294	3.71
375.661	4.05
376.028	4.1
376.395	3.97
376.762	4.16
377.129	3.74
377.496	4.01
377.863	3.59
378.229	3.92
378.596	3.54
378.963	3.82
379.329	3.53
379.696	3.9
380.062	3.95
380.429	4.01
380.795	3.96
381.161	4.29
381.528	3.6
381.894	4.04
382.26	3.7
382.626	3.77
382.993	3.84
383.359	3.7
383.725	3.88
384.091	3.59
384.457	3.68
384.823	3.98
385.188	4.1
385.554	3.99
385.92	3.64
386.286	3.76
386.651	3.87
387.017	4.21
387.383	3.66
387.748	4.03
388.114	4.04
388.479	3.87
388.845	3.77
389.21	3.73
389.575	3.6
389.94	3.9
390.306	4.18
390.671	3.8
391.036	4.24
391.401	4.02
391.766	4.2
392.131	3.78
392.496	3.78
392.861	3.79
393.226	3.99
393.591	4.06
393.956	3.58
394.32	3.87
394.685	4.03
395.05	3.83
395.414	4
395.779	3.83
396.143	3.89
396.508	3.76
396.872	4.01
397.236	3.78
397.601	3.91
397.965	3.86
398.329	4.13
398.694	3.55
399.058	4.25
399.422	3.78
399.786	3.84
400.15	3.72
400.514	3.89
400.878	3.73
401.242	3.8
401.605	3.95
401.969	3.96
402.333	4.04
402.697	3.71
403.06	3.76
403.424	4.08
403.787	3.7
404.151	4.03
404.514	3.6
404.878	3.82
405.241	3.93
405.604	3.81
405.968	3.98
406.331	3.9
406.694	3.96
407.057	3.71
407.42	3.91
407.783	3.83
408.146	3.97
408.509	3.7
408.872	3.87
409.235	3.92
409.598	3.94
409.961	3.82
410.323	3.94
410.686	4.04
411.049	4.15
411.411	4.2
411.774	3.89
412.136	4.07
412.499	4.23
412.861	3.83
413.223	4.11
413.586	3.86
413.948	3.86
414.31	4.04
414.672	4.13
415.035	3.97
415.397	3.9
415.759	3.9
416.121	3.92
416.483	4
416.845	3.96
417.206	4.15
417.568	3.89
417.93	4.11
418.292	3.8
418.653	3.93
419.015	3.78
419.377	3.96
419.738	3.88
420.1	3.94
420.461	3.95
420.822	3.84
421.184	3.8
421.545	4.02
421.906	3.77
422.267	3.85
422.629	3.89
422.99	3.9
423.351	3.93
423.712	3.84
424.073	3.84
424.434	3.86
424.795	3.98
425.155	3.86
425.516	3.87
425.877	3.91
426.238	3.87
426.598	3.84
426.959	3.86
427.32	3.97
427.68	3.93
428.041	3.92
428.401	4.01
428.761	3.87
429.122	4
429.482	4.29
429.842	4.05
430.202	3.95
430.563	4.04
430.923	4.16
431.283	3.79
431.643	4.01
432.003	4.04
432.363	3.94
432.722	3.9
433.082	4.01
433.442	3.97
433.802	4.15
434.161	3.97
434.521	4.11
434.881	3.99
435.24	3.98
435.6	4.04
435.959	4.04
436.319	3.98
436.678	4.14
437.037	4.11
437.396	3.92
437.756	4.11
438.115	4.14
438.474	4
438.833	4
439.192	4.15
439.551	4.05
439.91	3.9
440.269	4.09
440.628	4.11
440.987	3.86
441.345	4.04
441.704	4
442.063	4.07
442.421	3.91
442.78	4
443.138	3.94
443.497	4.08
443.855	3.92
444.214	4
444.572	4.04
444.93	4.07
445.288	3.93
445.647	4.23
446.005	3.95
446.363	3.88
446.721	3.92
447.079	3.98
447.437	3.88
447.795	4.03
448.153	3.96
448.51	3.95
448.868	3.9
449.226	4.05
449.584	3.98
449.941	3.98
450.299	4.13
450.656	4.03
451.014	4.14
451.371	4.08
451.729	4.09
452.086	4.06
452.443	4.17
452.801	4.08
453.158	4.09
453.515	4.05
453.872	4.14
454.229	4.07
454.586	3.9
454.943	3.96
455.3	4.02
455.657	4.21
456.014	4.24
456.371	4.22
456.727	4.06
457.084	4.15
457.441	4.22
457.797	4.08
458.154	4.07
458.51	4.09
458.867	4.31
459.223	4.26
459.58	4.09
459.936	4
460.292	4.13
460.648	4.25
461.005	4.06
461.361	4.01
461.717	4.17
462.073	4.01
462.429	4.04
462.785	4
463.141	4.08
463.496	3.96
463.852	4.31
464.208	4.14
464.564	4.23
464.919	4.21
465.275	4.21
465.631	4.29
465.986	4.12
466.342	4.04
466.697	4.3
467.052	4.26
467.408	4.33
467.763	4.21
468.118	4.35
468.473	4.32
468.829	4.22
469.184	4.05
469.539	4.19
469.894	4.43
470.249	4.27
470.603	4.27
470.958	4.21
471.313	4.46
471.668	4.33
472.023	4.36
472.377	4.24
472.732	4.21
473.086	4.19
473.441	4.19
473.795	4.3
474.15	4.24
474.504	4.11
474.859	4.25
475.213	4.01
475.567	4.13
475.921	4.29
476.275	4.08
476.63	4.22
476.984	4.26
477.338	4.18
477.692	4.16
478.045	4.42
478.399	4.03
478.753	4.19
479.107	4.21
479.461	4.3
479.814	4.32
480.168	4.01
480.521	4.2
480.875	4.29
481.228	4.34
481.582	4.33
481.935	4.33
482.289	4.33
482.642	4.33
482.995	4.21
483.348	4.2
483.701	4.43
484.055	4.23
484.408	4.06
484.761	4.11
485.114	4.07
485.466	3.99
485.819	3.95
486.172	3.96
486.525	4
486.878	4.01
487.23	4.04
487.583	4.11
487.936	4.17
488.288	4.11
488.641	4.15
488.993	4.1
489.345	4.11
489.698	4.03
490.05	4.1
490.402	4.12
490.754	4.1
491.107	4.21
491.459	4.18
491.811	4.27
492.163	4.19
492.515	4.25
492.866	4.14
493.218	4.13
493.57	4.11
493.922	4.11
494.274	4.15
494.625	4.28
494.977	4.33
495.328	4.33
495.68	4.34
496.031	4.43
496.383	4.44
496.734	4.38
497.086	4.3
497.437	4.34
497.788	4.4
498.139	4.35
498.49	4.41
498.842	4.32
499.193	4.31
499.544	4.39
499.894	4.4
500.245	4.46
500.596	4.4
500.947	4.39
501.298	4.45
501.648	4.46
501.999	4.4
502.35	4.49
502.7	4.46
503.051	4.46
503.401	4.35
503.752	4.65
504.102	4.46
504.452	4.58
504.803	4.56
505.153	4.49
505.503	4.57
505.853	4.56
506.203	4.45
506.553	4.48
506.903	4.6
507.253	4.49
507.603	4.56
507.953	4.53
508.303	4.5
508.652	4.58
509.002	4.58
509.352	4.58
509.701	4.58
510.051	4.55
510.4	4.51
510.75	4.5
511.099	4.46
511.449	4.59
511.798	4.48
512.147	4.54
512.496	4.58
512.846	4.65
513.195	4.45
513.544	4.62
513.893	4.59
514.242	4.63
514.591	4.6
514.939	4.59
515.288	4.52
515.637	4.57
515.986	4.63
516.334	4.65
516.683	4.7
517.032	4.75
517.38	4.72
517.729	4.78
518.077	4.73
518.426	4.79
518.774	4.74
519.122	4.67
519.47	4.62
519.819	4.59
520.167	4.59
520.515	4.55
520.863	4.62
521.211	4.6
521.559	4.59
521.907	4.63
522.255	4.71
522.602	4.76
522.95	4.73
523.298	4.69
523.645	4.81
523.993	4.78
524.341	4.72
524.688	4.73
525.036	4.88
525.383	4.74
525.73	4.8
526.078	4.85
526.425	4.77
526.772	4.83
527.119	4.8
527.466	4.71
527.814	4.68
528.161	4.75
528.508	4.86
528.854	4.77
529.201	4.75
529.548	4.78
529.895	4.62
530.242	4.68
530.588	4.61
530.935	4.65
531.282	4.69
531.628	4.7
531.975	4.74
532.321	4.73
532.667	4.75
533.014	4.84
533.36	4.87
533.706	4.85
534.052	4.91
534.399	4.95
534.745	4.89
535.091	4.81
535.437	4.89
535.783	4.84
536.129	4.89
536.474	4.85
536.82	4.95
537.166	5.05
537.512	5
537.857	5.06
538.203	5.02
538.549	5.03
538.894	4.99
539.239	5.07
539.585	5.09
539.93	5.15
540.276	5.19
540.621	5.06
540.966	5
541.311	5.13
541.656	5.19
542.001	5.17
542.346	5.13
542.691	5.07
543.036	5.03
543.381	4.97
543.726	5.02
544.071	5.08
544.415	5.11
544.76	5.23
545.105	5.12
545.449	5.26
545.794	5.27
546.138	5.11
546.483	5.29
546.827	5.38
547.171	5.37
547.516	5.39
547.86	5.38
548.204	5.44
548.548	5.28
548.892	5.38
549.236	5.42
549.58	5.46
549.924	5.43
550.268	5.49
550.612	5.38
550.956	5.73
551.3	5.66
551.643	5.7
551.987	5.61
552.33	5.61
552.674	5.73
553.017	5.79
553.361	5.91
553.704	5.67
554.048	5.68
554.391	5.66
554.734	5.62
555.077	5.83
555.42	5.62
555.764	5.71
556.107	5.85
556.45	5.77
556.793	5.83
557.135	5.76
557.478	5.95
557.821	5.79
558.164	5.9
558.507	5.82
558.849	6.01
559.192	6.13
559.534	5.82
559.877	6.18
560.219	5.9
560.562	5.97
560.904	6.06
561.246	6.11
561.589	6
561.931	6.05
562.273	5.93
562.615	6.01
562.957	6.01
563.299	6.13
563.641	6.15
563.983	6.2
564.325	6.27
564.667	6.3
565.008	6.09
565.35	6.11
565.692	6.23
566.033	6.17
566.375	6.25
566.716	6.13
567.058	6.45
567.399	6.42
567.741	6.4
568.082	6.35
568.423	6.35
568.764	6.4
569.105	6.34
569.447	6.35
569.788	6.45
570.129	6.34
570.47	6.4
570.811	6.31
571.151	6.58
571.492	6.57
571.833	6.65
572.174	6.65
572.514	6.38
572.855	6.67
573.195	6.53
573.536	6.48
573.876	6.7
574.217	6.72
574.557	6.5
574.898	6.64
575.238	6.73
575.578	6.71
575.918	6.55
576.258	6.87
576.598	6.83
576.938	6.71
577.278	6.8
577.618	6.94
577.958	6.75
578.298	6.92
578.638	6.88
578.977	6.89
579.317	6.9
579.657	6.98
579.996	7.15
580.336	6.98
580.675	7.05
581.014	7.07
581.354	7.29
581.693	7.24
582.032	7.17
582.372	7.4
582.711	7.26
583.05	7.37
583.389	7.33
583.728	7.24
584.067	7.73
584.406	7.63
584.745	7.52
585.083	7.19
585.422	7.32
585.761	7.43
586.1	7.57
586.438	7.55
586.777	7.57
587.115	7.58
587.454	7.72
587.792	7.36
588.13	7.67
588.469	7.51
588.807	7.59
589.145	7.75
589.483	7.72
589.821	7.83
590.159	7.5
590.497	7.81
590.835	7.76
591.173	7.83
591.511	7.68
591.849	7.67
592.187	7.9
592.524	7.84
592.862	7.69
593.2	7.87
593.537	7.86
593.875	7.88
594.212	7.99
594.55	8.13
594.887	8.24
595.224	8.17
595.561	8.37
595.899	8.1
596.236	8.17
596.573	8.16
596.91	8.4
597.247	8.13
597.584	8.1
597.921	8.38
598.258	8.28
598.594	8.6
598.931	8.43
599.268	8.08
599.604	8.18
599.941	8.31
600.277	8.38
600.614	8.38
600.95	8.59
601.287	8.5
601.623	8.63
601.959	8.57
602.296	8.6
602.632	8.78
602.968	8.7
603.304	8.49
603.64	8.83
603.976	8.88
604.312	8.67
604.648	8.89
604.984	8.86
605.319	8.87
605.655	8.88
605.991	8.81
606.326	8.61
606.662	8.9
606.998	8.9
607.333	8.85
607.668	9.07
608.004	9.13
608.339	9.19
608.674	9.25
609.01	9.15
609.345	9.29
609.68	9.24
610.015	9.29
610.35	9.08
610.685	9.5
611.02	9.51
611.355	9.22
611.689	9.17
612.024	9.15
612.359	9.34
612.694	9.41
613.028	9.25
613.363	9.34
613.697	9.58
614.032	9.69
614.366	9.8
614.7	9.92
615.035	9.67
615.369	9.57
615.703	9.61
616.037	9.53
616.371	9.68
616.705	9.69
617.039	9.69
617.373	9.79
617.707	9.62
618.041	10.1
618.375	9.63
618.709	9.81
619.042	10.14
619.376	9.75
619.71	9.95
620.043	9.88
620.377	9.86
620.71	10.16
621.043	9.72
621.377	9.82
621.71	9.94
622.043	10.42
622.376	10.39
622.709	10.25
623.043	10.32
623.376	10.38
623.709	10.22
624.041	10.5
624.374	10.42
624.707	10.28
625.04	10.17
625.373	10.84
625.705	10.84
626.038	10.41
626.37	10.84
626.703	10.71
627.035	10.55
627.368	10.97
627.7	10.51
628.032	10.49
628.365	10.87
628.697	11
629.029	10.78
629.361	10.75
629.693	10.69
630.025	10.53
630.357	10.85
630.689	10.72
631.021	10.86
631.353	10.84
631.684	10.66
632.016	11.03
632.348	11.17
632.679	11.13
633.011	11.16
633.342	11.4
633.674	11.24
634.005	11.43
634.336	11.34
634.668	10.96
634.999	11.56
635.33	11.22
635.661	11.56
635.992	11.61
636.323	11.16
636.654	12.02
636.985	11.65
637.316	11.48
637.647	11.39
637.977	11.93
638.308	11.49
638.639	11.7
638.969	11.7
639.3	11.64
639.63	12.21
639.961	12.41
640.291	11.35
640.622	12.05
640.952	11.97
641.282	12.09
641.612	12.05
641.943	12.29
642.273	12.04
642.603	12.2
642.933	11.84
643.263	11.84
643.592	11.93
643.922	12.57
644.252	12.27
644.582	11.73
644.911	12.16
645.241	12.15
645.571	12.43
645.9	11.96
646.23	12.36
646.559	12.75
646.888	12.44
647.218	13.14
647.547	12.42
647.876	13.02
648.205	12.77
648.534	12.84
648.863	13.31
649.192	13.03
649.521	13.12
649.85	12.73
650.179	13.27
650.508	13.52
650.837	12.97
651.165	12.76
651.494	12.66
651.822	12.65
652.151	13.22
652.479	12.85
652.808	13.25
653.136	13.6
653.465	13.05
653.793	13.5
654.121	13.17
654.449	13.5
654.777	13.63
655.105	13.49
655.433	13.36
655.761	13.53
656.089	13.38
656.417	13.58
656.745	13.6
657.073	13.27
657.4	13.72
657.728	12.77
658.056	13.99
658.383	13.39
658.711	13.63
659.038	13.55
659.365	13.91
659.693	13.66
660.02	13.35
660.347	13.91
660.674	13.69
661.001	13.65
661.329	13.92
661.656	13.62
661.982	13.79
662.309	13.84
662.636	13.82
662.963	14.08
663.29	14.33
663.616	14.48
663.943	14.58
664.27	14.14
664.596	14.34
664.923	14.79
665.249	14.32
665.576	14.05
665.902	14.41
666.228	14.17
666.554	14.2
666.881	14.43
667.207	14.39
667.533	14.78
667.859	14.69
668.185	14.72
668.511	14.99
668.837	15.1
669.162	15.57
669.488	14.26
669.814	14.92
670.139	14.27
670.465	14.69
670.791	15.04
671.116	14.46
671.442	14.72
671.767	14.74
672.092	15.76
672.418	14.96
672.743	15.15
673.068	14.49
673.393	15.07
673.718	15.33
674.043	15.71
674.368	14.89
674.693	15.17
675.018	14.99
675.343	15.19
675.667	15.47
675.992	15.54
676.317	15.08
676.641	15.55
676.966	14.48
677.29	15.38
677.615	15.19
677.939	15.52
678.264	15.7
678.588	15.81
678.912	15.18
679.236	15.33
679.56	16.3
679.885	16.46
680.209	16.12
680.532	15.71
680.856	14.98
681.18	15.32
681.504	15.66
681.828	15.6
682.152	15.54
682.475	15.98
682.799	15.73
683.122	16.25
683.446	16.37
683.769	16.48
684.093	15.62
684.416	15.81
684.739	16.52
685.062	16.28
685.386	16.57
685.709	16.24
686.032	16.33
686.355	16.82
686.678	17.27
687.001	16.45
687.324	16.03
687.646	17.08
687.969	17.12
688.292	16.59
688.614	16.58
688.937	16.45
