Data from 445_chest_Reflection__3__33.txt Node

Date: Tue Dec 12 18:31:30 CST 2023
User: ToomeyLab
Spectrometer: FLMS14357
Trigger mode: 0
Integration Time (sec): 1.000000E-2
Scans to average: 100
Electric dark correction enabled: true
Nonlinearity correction enabled: false
Boxcar width: 0
XAxis mode: Wavelengths
Number of Pixels in Spectrum: 2048
>>>>>Begin Spectral Data<<<<<
189.047	-108.82
189.435	-108.82
189.823	-108.82
190.211	-114.71
190.599	42.29
190.987	86.4
191.375	12.07
191.763	368.99
192.151	45.09
192.538	444.79
192.926	64.03
193.314	-286
193.702	93.02
194.089	110.14
194.477	3150
194.864	0.22
195.252	-6.08
195.639	-90.38
196.027	435.92
196.414	29.82
196.801	429.25
197.189	-159.09
197.576	-56.67
197.963	78.71
198.351	23.17
198.738	34.71
199.125	70.89
199.512	28.22
199.899	19.75
200.286	4.6
200.673	26.21
201.06	-33.46
201.447	-34.5
201.833	32.63
202.22	7
202.607	-44.22
202.994	33.49
203.38	17.41
203.767	-11.68
204.154	44.23
204.54	86.64
204.927	15.35
205.313	67.44
205.699	-16.96
206.086	-3.2
206.472	21.37
206.858	9.62
207.245	50.89
207.631	41.76
208.017	17.64
208.403	3.21
208.789	14.69
209.175	-29.15
209.561	23.11
209.947	-5.04
210.333	32.67
210.719	-2.45
211.105	-17.18
211.491	43.97
211.876	36.67
212.262	24.32
212.648	-25.26
213.034	15.99
213.419	-6.35
213.805	21.39
214.19	40.68
214.576	30.73
214.961	5.49
215.346	6.5
215.732	47.91
216.117	-10.4
216.502	-17.15
216.888	-12.57
217.273	-35.35
217.658	-21.88
218.043	15.84
218.428	10.37
218.813	32.19
219.198	-16.96
219.583	12.52
219.968	38
220.353	20.29
220.738	14.54
221.122	-7.03
221.507	-6.15
221.892	-0.08
222.276	9.84
222.661	9.6
223.046	-5.83
223.43	8.56
223.815	3.57
224.199	8.06
224.583	3.94
224.968	7.6
225.352	-2.16
225.736	13.68
226.121	-0.94
226.505	-0.24
226.889	-1.31
227.273	0.24
227.657	0.84
228.041	6.75
228.425	0.16
228.809	2.76
229.193	1.1
229.577	1.74
229.961	0.27
230.344	2.36
230.728	1.85
231.112	2.16
231.495	0.78
231.879	1.49
232.263	1.13
232.646	1.88
233.03	2.28
233.413	1.24
233.797	1.44
234.18	1.32
234.563	-1.16
234.946	2.61
235.33	2.99
235.713	2.62
236.096	0.4
236.479	3.16
236.862	2.84
237.245	1.85
237.628	2.95
238.011	3.9
238.394	2.19
238.777	1.71
239.16	2.18
239.543	2.06
239.925	1.4
240.308	1.9
240.691	2.5
241.073	1.76
241.456	2.83
241.838	0.52
242.221	2.12
242.603	2.22
242.986	1.44
243.368	1.2
243.75	1.36
244.133	1.27
244.515	1.62
244.897	1.64
245.279	2
245.661	0.96
246.043	1.01
246.425	1.84
246.807	0.82
247.189	1.65
247.571	1.82
247.953	0.96
248.335	1.72
248.717	1.32
249.098	1.34
249.48	1.2
249.862	1.41
250.243	1.19
250.625	1.86
251.006	1.39
251.388	1.26
251.769	1.24
252.151	0.88
252.532	2.17
252.913	2.48
253.295	1.73
253.676	1.11
254.057	0.91
254.438	1.82
254.819	0.74
255.2	1.16
255.581	0.85
255.962	1.87
256.343	1.01
256.724	1.91
257.105	2.6
257.486	1.89
257.867	0.72
258.247	1.84
258.628	1.44
259.009	0.69
259.389	1.58
259.77	1.59
260.15	0.96
260.531	2.34
260.911	1.71
261.292	1
261.672	1.13
262.052	1.19
262.432	1.24
262.813	1.5
263.193	1.89
263.573	1.33
263.953	2.27
264.333	2.49
264.713	1.46
265.093	1.83
265.473	2.38
265.853	1.15
266.233	2.3
266.612	1.27
266.992	1.1
267.372	1.37
267.752	2.26
268.131	0.9
268.511	1.17
268.89	0.72
269.27	0.95
269.649	1.68
270.029	1.23
270.408	2.18
270.787	1.23
271.167	1.3
271.546	2.11
271.925	1.66
272.304	1.68
272.683	0.75
273.062	1.33
273.441	1.69
273.82	1.51
274.199	1.36
274.578	1.4
274.957	1.07
275.336	1.49
275.715	1.38
276.093	1.03
276.472	1.56
276.851	1.6
277.229	1.22
277.608	1.34
277.986	0.63
278.365	1.49
278.743	1.42
279.122	1.52
279.5	0.92
279.878	0.88
280.257	1.15
280.635	1.69
281.013	1.14
281.391	1.22
281.769	0.96
282.147	1.68
282.525	1.17
282.903	1.56
283.281	1.43
283.659	1.56
284.037	1.47
284.415	1.55
284.792	1.37
285.17	1.33
285.548	1.47
285.925	1.05
286.303	1.23
286.68	1.22
287.058	1.13
287.435	1.36
287.813	0.78
288.19	1.4
288.567	1.17
288.945	1.22
289.322	1.04
289.699	1.24
290.076	1.07
290.453	1.32
290.83	1.02
291.207	1.72
291.584	1.03
291.961	1.23
292.338	0.97
292.715	1.55
293.092	1.06
293.469	1.7
293.845	1.74
294.222	1.07
294.599	0.95
294.975	0.42
295.352	1.44
295.728	1.62
296.105	1.02
296.481	1.79
296.858	1.3
297.234	1.53
297.61	1.02
297.986	1.38
298.363	1.49
298.739	1.44
299.115	0.9
299.491	1.08
299.867	0.93
300.243	1.41
300.619	1.21
300.995	1.45
301.371	1.81
301.746	1.49
302.122	2.19
302.498	1.58
302.874	1.38
303.249	1.71
303.625	1.09
304	1.24
304.376	1.69
304.751	1.6
305.127	1.15
305.502	2.34
305.878	1.23
306.253	1.41
306.628	1.86
307.003	1.71
307.378	1.08
307.754	1.46
308.129	1.18
308.504	2.68
308.879	1.4
309.254	2
309.629	1.44
310.003	1.61
310.378	1.93
310.753	1.6
311.128	1.68
311.502	1.16
311.877	1.26
312.252	1.33
312.626	1.71
313.001	1.32
313.375	1.26
313.75	1.85
314.124	1.93
314.498	1.45
314.873	1.42
315.247	1.54
315.621	1.42
315.995	1.88
316.369	1.87
316.743	1.22
317.117	1.04
317.491	1.24
317.865	1.7
318.239	1.33
318.613	1.98
318.987	1.64
319.361	1.14
319.734	1.55
320.108	1.66
320.482	1.68
320.855	1.46
321.229	1.74
321.602	1.96
321.976	1.82
322.349	2.11
322.723	1.6
323.096	2.08
323.469	1.58
323.843	2.84
324.216	1.97
324.589	1.69
324.962	1.43
325.335	2.26
325.708	1.55
326.081	1.58
326.454	1.14
326.827	2.44
327.2	2.21
327.573	1.75
327.945	2.1
328.318	1.97
328.691	1.45
329.063	2.43
329.436	2.01
329.809	1.79
330.181	1.19
330.553	1.35
330.926	1.91
331.298	1.71
331.671	1.79
332.043	1.73
332.415	2.32
332.787	1.37
333.159	2.06
333.532	1.9
333.904	1.8
334.276	2.51
334.648	1.59
335.02	1.48
335.391	1.88
335.763	1.24
336.135	1.66
336.507	2.25
336.879	1.26
337.25	1.87
337.622	2.3
337.993	1.82
338.365	1.46
338.736	1.73
339.108	1.52
339.479	1.95
339.851	1.5
340.222	1.17
340.593	1.68
340.964	1.77
341.336	1.78
341.707	1.08
342.078	1.33
342.449	1.81
342.82	1.88
343.191	1.64
343.562	1.8
343.933	2.2
344.303	2.02
344.674	2.16
345.045	1.93
345.416	2.5
345.786	1.85
346.157	1.67
346.527	2.42
346.898	1.66
347.268	1.61
347.639	1.79
348.009	1.74
348.38	1.69
348.75	2.21
349.12	2.23
349.49	1.55
349.861	2.12
350.231	1.76
350.601	2.05
350.971	2.1
351.341	1.78
351.711	2.35
352.081	2.06
352.45	1.63
352.82	1.9
353.19	1.79
353.56	1.52
353.929	1.34
354.299	1.34
354.669	1.28
355.038	1.73
355.408	1.82
355.777	1.88
356.147	2.04
356.516	1.84
356.885	2.12
357.254	1.94
357.624	1.38
357.993	1.8
358.362	1.67
358.731	1.73
359.1	1.73
359.469	1.82
359.838	1.59
360.207	1.74
360.576	1.73
360.945	1.64
361.314	1.79
361.682	1.88
362.051	2.21
362.42	1.74
362.788	1.69
363.157	2.02
363.525	1.88
363.894	1.77
364.262	1.68
364.631	1.41
364.999	1.9
365.367	1.66
365.735	1.47
366.104	1.96
366.472	1.75
366.84	1.84
367.208	1.97
367.576	1.79
367.944	2.19
368.312	1.92
368.68	1.89
369.048	2.05
369.416	1.77
369.783	1.93
370.151	1.99
370.519	1.62
370.886	2.09
371.254	1.68
371.621	2.15
371.989	1.75
372.356	1.74
372.724	2.07
373.091	2.09
373.458	2.16
373.826	1.92
374.193	1.79
374.56	2.18
374.927	2.07
375.294	2.09
375.661	2.34
376.028	1.86
376.395	2.21
376.762	2.28
377.129	1.79
377.496	1.92
377.863	2.27
378.229	1.84
378.596	1.49
378.963	2.05
379.329	1.83
379.696	1.82
380.062	2.28
380.429	1.88
380.795	2.27
381.161	2.24
381.528	1.8
381.894	2.07
382.26	1.66
382.626	2.1
382.993	2.03
383.359	1.94
383.725	1.95
384.091	1.92
384.457	2.01
384.823	1.62
385.188	2.24
385.554	1.9
385.92	2.05
386.286	2.09
386.651	2.14
387.017	2.23
387.383	2.05
387.748	1.76
388.114	2.13
388.479	2.13
388.845	1.85
389.21	1.93
389.575	1.71
389.94	2.03
390.306	2.32
390.671	1.83
391.036	2.12
391.401	1.74
391.766	1.91
392.131	2.07
392.496	1.9
392.861	1.89
393.226	2.11
393.591	1.78
393.956	1.82
394.32	2.08
394.685	1.81
395.05	1.96
395.414	1.79
395.779	2.01
396.143	2.01
396.508	1.84
396.872	1.88
397.236	1.83
397.601	1.92
397.965	1.88
398.329	1.98
398.694	1.89
399.058	1.95
399.422	2
399.786	1.76
400.15	1.94
400.514	2.45
400.878	2.17
401.242	1.87
401.605	2.21
401.969	2.08
402.333	2.2
402.697	1.87
403.06	1.74
403.424	2.29
403.787	1.62
404.151	2.31
404.514	2.08
404.878	1.86
405.241	2.13
405.604	1.95
405.968	1.89
406.331	2.06
406.694	2.17
407.057	1.73
407.42	2.1
407.783	1.87
408.146	1.92
408.509	1.96
408.872	1.97
409.235	2.04
409.598	1.67
409.961	1.95
410.323	2.11
410.686	2.18
411.049	2.24
411.411	2.23
411.774	2.18
412.136	2.21
412.499	2.15
412.861	1.81
413.223	2.08
413.586	1.77
413.948	2.06
414.31	2.1
414.672	1.97
415.035	1.96
415.397	1.92
415.759	2.19
416.121	1.87
416.483	1.98
416.845	2.06
417.206	2.13
417.568	2.07
417.93	2.07
418.292	1.93
418.653	2.13
419.015	1.97
419.377	1.91
419.738	1.98
420.1	1.85
420.461	2.04
420.822	1.96
421.184	2.03
421.545	2.11
421.906	1.9
422.267	1.97
422.629	1.98
422.99	2.03
423.351	1.95
423.712	1.83
424.073	1.95
424.434	1.98
424.795	2.1
425.155	1.89
425.516	1.91
425.877	1.97
426.238	1.9
426.598	1.96
426.959	2.01
427.32	2
427.68	2.01
428.041	2.08
428.401	1.92
428.761	1.99
429.122	2
429.482	2.12
429.842	2.16
430.202	2.03
430.563	2.02
430.923	2.17
431.283	2.06
431.643	2.19
432.003	2.09
432.363	2.1
432.722	1.8
433.082	2.01
433.442	2.11
433.802	2.3
434.161	2.01
434.521	2.21
434.881	2.02
435.24	2.11
435.6	2
435.959	2.15
436.319	2.12
436.678	2.17
437.037	2.02
437.396	1.87
437.756	2.04
438.115	2.12
438.474	1.89
438.833	2.21
439.192	2.17
439.551	1.93
439.91	2.01
440.269	2.18
440.628	1.95
440.987	1.95
441.345	2.05
441.704	2.03
442.063	2.15
442.421	2.13
442.78	2.09
443.138	2.04
443.497	2.15
443.855	2.06
444.214	2.12
444.572	2.13
444.93	2.02
445.288	1.95
445.647	2.14
446.005	2.06
446.363	1.99
446.721	2.06
447.079	2.12
447.437	1.93
447.795	2.11
448.153	2.03
448.51	2.05
448.868	2.08
449.226	2.13
449.584	2.08
449.941	2.1
450.299	2.21
450.656	2.09
451.014	2.17
451.371	2.2
451.729	2.2
452.086	2.05
452.443	2.19
452.801	2.08
453.158	2.06
453.515	2.09
453.872	2.06
454.229	2.15
454.586	1.97
454.943	2.04
455.3	2.2
455.657	1.97
456.014	2.23
456.371	2.34
456.727	2.12
457.084	2.05
457.441	2.15
457.797	2.06
458.154	2.03
458.51	2.1
458.867	2.23
459.223	2.15
459.58	2.18
459.936	2.02
460.292	2.07
460.648	2.19
461.005	2.06
461.361	2.02
461.717	2.17
462.073	2.06
462.429	2.08
462.785	2.08
463.141	2.11
463.496	2.03
463.852	2.43
464.208	2.2
464.564	2.22
464.919	2.32
465.275	2.15
465.631	2.26
465.986	2.14
466.342	2.07
466.697	2.16
467.052	2.37
467.408	2.37
467.763	2.26
468.118	2.31
468.473	2.48
468.829	2.36
469.184	2.12
469.539	2.38
469.894	2.24
470.249	2.21
470.603	2.2
470.958	2.18
471.313	2.48
471.668	2.26
472.023	2.33
472.377	2.22
472.732	2.15
473.086	2.28
473.441	2.23
473.795	2.3
474.15	2.23
474.504	2.16
474.859	2.24
475.213	2.11
475.567	2.36
475.921	2.37
476.275	2.17
476.63	2.18
476.984	2.39
477.338	2.2
477.692	2.34
478.045	2.38
478.399	2.04
478.753	2.19
479.107	2.26
479.461	2.31
479.814	2.2
480.168	2.12
480.521	2.13
480.875	2.24
481.228	2.36
481.582	2.17
481.935	2.21
482.289	2.42
482.642	2.34
482.995	2.25
483.348	2.23
483.701	2.39
484.055	2.24
484.408	2.18
484.761	2.2
485.114	2.16
485.466	2.1
485.819	2.09
486.172	2.05
486.525	2.11
486.878	2.12
487.23	2.17
487.583	2.15
487.936	2.25
488.288	2.13
488.641	2.12
488.993	2.2
489.345	2.23
489.698	2.13
490.05	2.15
490.402	2.18
490.754	2.18
491.107	2.22
491.459	2.24
491.811	2.28
492.163	2.22
492.515	2.28
492.866	2.18
493.218	2.16
493.57	2.19
493.922	2.11
494.274	2.18
494.625	2.33
494.977	2.35
495.328	2.37
495.68	2.22
496.031	2.49
496.383	2.34
496.734	2.36
497.086	2.31
497.437	2.37
497.788	2.32
498.139	2.28
498.49	2.34
498.842	2.26
499.193	2.32
499.544	2.35
499.894	2.34
500.245	2.36
500.596	2.26
500.947	2.29
501.298	2.45
501.648	2.42
501.999	2.41
502.35	2.35
502.7	2.32
503.051	2.32
503.401	2.38
503.752	2.56
504.102	2.42
504.452	2.51
504.803	2.58
505.153	2.47
505.503	2.44
505.853	2.57
506.203	2.52
506.553	2.4
506.903	2.42
507.253	2.43
507.603	2.46
507.953	2.42
508.303	2.59
508.652	2.47
509.002	2.5
509.352	2.33
509.701	2.52
510.051	2.52
510.4	2.39
510.75	2.37
511.099	2.35
511.449	2.43
511.798	2.37
512.147	2.49
512.496	2.56
512.846	2.45
513.195	2.48
513.544	2.47
513.893	2.53
514.242	2.42
514.591	2.41
514.939	2.46
515.288	2.51
515.637	2.46
515.986	2.46
516.334	2.6
516.683	2.52
517.032	2.6
517.38	2.46
517.729	2.53
518.077	2.51
518.426	2.55
518.774	2.51
519.122	2.55
519.47	2.49
519.819	2.55
520.167	2.49
520.515	2.43
520.863	2.46
521.211	2.5
521.559	2.54
521.907	2.58
522.255	2.57
522.602	2.61
522.95	2.59
523.298	2.49
523.645	2.7
523.993	2.73
524.341	2.72
524.688	2.46
525.036	2.75
525.383	2.52
525.73	2.73
526.078	2.59
526.425	2.68
526.772	2.57
527.119	2.66
527.466	2.64
527.814	2.5
528.161	2.66
528.508	2.61
528.854	2.56
529.201	2.65
529.548	2.62
529.895	2.52
530.242	2.51
530.588	2.46
530.935	2.54
531.282	2.58
531.628	2.56
531.975	2.6
532.321	2.56
532.667	2.54
533.014	2.59
533.36	2.58
533.706	2.66
534.052	2.62
534.399	2.7
534.745	2.62
535.091	2.58
535.437	2.67
535.783	2.6
536.129	2.63
536.474	2.64
536.82	2.76
537.166	2.81
537.512	2.7
537.857	2.85
538.203	2.7
538.549	2.8
538.894	2.77
539.239	2.71
539.585	2.72
539.93	2.84
540.276	2.78
540.621	2.85
540.966	2.82
541.311	2.87
541.656	2.88
542.001	2.79
542.346	2.78
542.691	2.76
543.036	2.67
543.381	2.7
543.726	2.78
544.071	2.76
544.415	2.69
544.76	2.9
545.105	2.87
545.449	2.9
545.794	2.94
546.138	2.81
546.483	2.91
546.827	3.02
547.171	2.97
547.516	2.91
547.86	3.11
548.204	2.96
548.548	3
548.892	3.07
549.236	3
549.58	3.01
549.924	3
550.268	3.15
550.612	2.91
550.956	3.1
551.3	3.15
551.643	3.22
551.987	3.05
552.33	3.1
552.674	3.2
553.017	3.31
553.361	3.31
553.704	3.14
554.048	3.26
554.391	3.19
554.734	3.27
555.077	3.24
555.42	3.1
555.764	3.31
556.107	3.14
556.45	2.99
556.793	3.19
557.135	3.2
557.478	3.17
557.821	3.13
558.164	3.17
558.507	3.32
558.849	3.24
559.192	3.45
559.534	3.36
559.877	3.41
560.219	3.31
560.562	3.3
560.904	3.31
561.246	3.54
561.589	3.42
561.931	3.43
562.273	3.2
562.615	3.17
562.957	3.4
563.299	3.52
563.641	3.56
563.983	3.43
564.325	3.6
564.667	3.56
565.008	3.27
565.35	3.45
565.692	3.58
566.033	3.51
566.375	3.5
566.716	3.49
567.058	3.66
567.399	3.65
567.741	3.66
568.082	3.56
568.423	3.59
568.764	3.5
569.105	3.55
569.447	3.74
569.788	3.7
570.129	3.47
570.47	3.72
570.811	3.71
571.151	3.81
571.492	3.83
571.833	3.72
572.174	3.69
572.514	3.62
572.855	3.71
573.195	3.7
573.536	3.51
573.876	3.65
574.217	3.77
574.557	3.77
574.898	3.71
575.238	3.83
575.578	3.78
575.918	3.72
576.258	4.1
576.598	3.83
576.938	3.96
577.278	3.88
577.618	4.09
577.958	3.8
578.298	3.96
578.638	3.96
578.977	3.91
579.317	3.97
579.657	4.06
579.996	3.98
580.336	4.27
580.675	3.86
581.014	4.02
581.354	4.13
581.693	3.81
582.032	4.18
582.372	4.22
582.711	4.17
583.05	4.23
583.389	4.21
583.728	4.31
584.067	4.36
584.406	4.54
584.745	4.42
585.083	4.14
585.422	4.29
585.761	4.52
586.1	4.35
586.438	4.46
586.777	4.39
587.115	4.22
587.454	4.52
587.792	4.15
588.13	4.59
588.469	4.36
588.807	4.59
589.145	4.51
589.483	4.44
589.821	4.68
590.159	4.43
590.497	4.57
590.835	4.52
591.173	4.04
591.511	4.5
591.849	4.59
592.187	4.69
592.524	4.27
592.862	4.68
593.2	4.39
593.537	4.47
593.875	4.79
594.212	4.76
594.55	4.73
594.887	4.95
595.224	4.78
595.561	4.85
595.899	4.85
596.236	4.47
596.573	4.79
596.91	4.85
597.247	4.8
597.584	4.7
597.921	4.89
598.258	4.74
598.594	4.92
598.931	4.84
599.268	4.76
599.604	4.72
599.941	5.08
600.277	4.87
600.614	5.07
600.95	5.04
601.287	5.08
601.623	5.15
601.959	5.01
602.296	5.28
602.632	5.1
602.968	4.97
603.304	4.91
603.64	5.1
603.976	5.17
604.312	5.13
604.648	5.15
604.984	5.15
605.319	5.2
605.655	5.08
605.991	5.24
606.326	4.9
606.662	5.25
606.998	5.01
607.333	5.21
607.668	5.2
608.004	5.25
608.339	5.49
608.674	5.44
609.01	5.08
609.345	5.5
609.68	5.49
610.015	5.45
610.35	5.49
610.685	5.66
611.02	5.52
611.355	5.42
611.689	5.42
612.024	5.51
612.359	5.48
612.694	5.54
613.028	5.79
613.363	5.51
613.697	5.93
614.032	5.75
614.366	5.92
614.7	5.3
615.035	5.9
615.369	5.89
615.703	5.74
616.037	5.75
616.371	6.1
616.705	5.9
617.039	6.18
617.373	5.72
617.707	5.62
618.041	5.78
618.375	5.75
618.709	6.07
619.042	6.13
619.376	6.02
619.71	5.94
620.043	6.19
620.377	6.11
620.71	5.8
621.043	5.64
621.377	5.83
621.71	6.24
622.043	6.28
622.376	6.17
622.709	6.23
623.043	6.43
623.376	6.66
623.709	6.49
624.041	6.28
624.374	5.98
624.707	6.16
625.04	6.01
625.373	6.49
625.705	6.52
626.038	6.29
626.37	6.66
626.703	6.34
627.035	6.4
627.368	6.59
627.7	6.28
628.032	6.65
628.365	6.52
628.697	6.63
629.029	6.47
629.361	6.33
629.693	6.41
630.025	6.3
630.357	6.73
630.689	6.37
631.021	6.77
631.353	6.87
631.684	6.69
632.016	7.11
632.348	6.73
632.679	6.71
633.011	6.99
633.342	6.99
633.674	7.28
634.005	7.03
634.336	6.96
634.668	7.16
634.999	7.14
635.33	7.03
635.661	7.02
635.992	7.07
636.323	6.92
636.654	6.96
636.985	6.9
637.316	7.15
637.647	6.81
637.977	7.21
638.308	7.23
638.639	7.4
638.969	6.86
639.3	7.09
639.63	7.61
639.961	7.31
640.291	7.08
640.622	7.26
640.952	7.59
641.282	7.48
641.612	7.69
641.943	7
642.273	7.64
642.603	7.83
642.933	7.56
643.263	7.58
643.592	7.46
643.922	8.03
644.252	7.55
644.582	7.25
644.911	7.22
645.241	7.86
645.571	7.85
645.9	7.62
646.23	7.03
646.559	8.23
646.888	7.65
647.218	7.76
647.547	7.93
647.876	7.92
648.205	7.6
648.534	8.26
648.863	7.83
649.192	8.71
649.521	8.76
649.85	7.97
650.179	7.94
650.508	8.31
650.837	7.91
651.165	8.06
651.494	7.95
651.822	8.37
652.151	8.27
652.479	8.13
652.808	8.04
653.136	7.86
653.465	7.77
653.793	8.59
654.121	8.44
654.449	8.33
654.777	8.35
655.105	8.63
655.433	8.09
655.761	8.15
656.089	8.46
656.417	8.49
656.745	8.19
657.073	8.03
657.4	8.49
657.728	7.87
658.056	8.81
658.383	8.01
658.711	8.23
659.038	8.58
659.365	8.33
659.693	8.44
660.02	8.27
660.347	8.55
660.674	8.81
661.001	8.46
661.329	8.8
661.656	8.62
661.982	8.35
662.309	9.19
662.636	8.73
662.963	8.93
663.29	9.25
663.616	8.81
663.943	9.43
664.27	9.45
664.596	9.19
664.923	9.42
665.249	9.01
665.576	9.14
665.902	9.31
666.228	9.54
666.554	8.91
666.881	8.5
667.207	9.19
667.533	9.64
667.859	9.13
668.185	9.3
668.511	9.47
668.837	9.35
669.162	10.48
669.488	9.14
669.814	9.15
670.139	8.97
670.465	8.76
670.791	9.29
671.116	9.07
671.442	9.58
671.767	9.28
672.092	9.92
672.418	9.64
672.743	9.58
673.068	8.88
673.393	9.53
673.718	9.49
674.043	9.5
674.368	9.02
674.693	9.34
675.018	9.08
675.343	9.57
675.667	10.03
675.992	9.93
676.317	9.24
676.641	9.85
676.966	10.22
677.29	10.01
677.615	10.45
677.939	10.19
678.264	10.58
678.588	9.98
678.912	10.08
679.236	9.75
679.56	10.91
679.885	9.96
680.209	10.35
680.532	10.14
680.856	10.2
681.18	9.94
681.504	10.22
681.828	10.31
682.152	9.98
682.475	10.19
682.799	10.44
683.122	10.19
683.446	10.34
683.769	11.01
684.093	10.58
684.416	9.92
684.739	10.99
685.062	10.23
685.386	10.11
685.709	10.74
686.032	9.78
686.355	10.49
686.678	11.31
687.001	10.61
687.324	10.87
687.646	10.98
687.969	10.87
688.292	10.42
688.614	10.56
688.937	11.07
689.26	11.08
689.582	10.75
689.904	10.89
690.227	10.27
690.549	10.65
690.871	10.99
691.194	11.18
691.516	11.46
691.838	10.34
