Data from 445_crown_Reflection__2__37.txt Node

Date: Tue Dec 12 18:33:10 CST 2023
User: ToomeyLab
Spectrometer: FLMS14357
Trigger mode: 0
Integration Time (sec): 1.000000E-2
Scans to average: 100
Electric dark correction enabled: true
Nonlinearity correction enabled: false
Boxcar width: 0
XAxis mode: Wavelengths
Number of Pixels in Spectrum: 2048
>>>>>Begin Spectral Data<<<<<
189.047	-139.22
189.435	-139.22
189.823	-139.22
190.211	-652.94
190.599	6.99
190.987	129.12
191.375	-8.97
191.763	191.14
192.151	50.95
192.538	-379.17
192.926	128.39
193.314	-148
193.702	47.86
194.089	50.35
194.477	11300
194.864	71.18
195.252	60
195.639	-108.97
196.027	176.06
196.414	79.37
196.801	613.21
197.189	-9.09
197.576	-308.89
197.963	65.25
198.351	25.63
198.738	30.18
199.125	53.42
199.512	-3.5
199.899	22.17
200.286	30
200.673	10.8
201.06	29.33
201.447	-80.68
201.833	37.64
202.22	8.58
202.607	-86.02
202.994	35.18
203.38	16.67
203.767	-6.53
204.154	47.24
204.54	48.89
204.927	20.89
205.313	21.71
205.699	58.66
206.086	9.67
206.472	28.55
206.858	39.19
207.245	23.69
207.631	11.44
208.017	-5.66
208.403	-31.26
208.789	21.81
209.175	-17.65
209.561	21.33
209.947	-9.64
210.333	36.51
210.719	32.9
211.105	-9.68
211.491	41.78
211.876	-16.13
212.262	31.98
212.648	7.9
213.034	-8.66
213.419	-6.4
213.805	12.57
214.19	26.41
214.576	13.09
214.961	4.05
215.346	25.9
215.732	23.69
216.117	26.34
216.502	7.39
216.888	32.87
217.273	33.65
217.658	4.55
218.043	25.02
218.428	50.87
218.813	7.53
219.198	-6.98
219.583	0.72
219.968	8.02
220.353	3.92
220.738	3.26
221.122	13.59
221.507	12.15
221.892	0.73
222.276	7.64
222.661	3.23
223.046	9.38
223.43	-0.65
223.815	-3.36
224.199	18.36
224.583	3.85
224.968	2.22
225.352	-5.79
225.736	4.42
226.121	1.84
226.505	0.51
226.889	5.91
227.273	1.43
227.657	6.24
228.041	6.84
228.425	3.88
228.809	1.11
229.193	0.98
229.577	3.74
229.961	1.65
230.344	1.74
230.728	2.72
231.112	2.35
231.495	2.52
231.879	2.76
232.263	1.53
232.646	1.38
233.03	3.13
233.413	2.18
233.797	2.25
234.18	0.58
234.563	1.65
234.946	4.02
235.33	2.29
235.713	3.68
236.096	1.66
236.479	2.27
236.862	2.46
237.245	4.08
237.628	2.99
238.011	3.53
238.394	2.68
238.777	3.41
239.16	2.12
239.543	3.47
239.925	2.45
240.308	1.3
240.691	3.73
241.073	3.88
241.456	2.32
241.838	2.01
242.221	3.11
242.603	2.68
242.986	1.45
243.368	2.89
243.75	1.95
244.133	2.56
244.515	2.76
244.897	2.1
245.279	3.41
245.661	2.49
246.043	2.01
246.425	3.07
246.807	2.07
247.189	2.52
247.571	2.55
247.953	2.37
248.335	2.42
248.717	2.54
249.098	2.52
249.48	2.46
249.862	2.24
250.243	2.45
250.625	2.98
251.006	2.69
251.388	2.42
251.769	2.65
252.151	2.55
252.532	2.11
252.913	3.03
253.295	3.04
253.676	2.04
254.057	2.22
254.438	2.97
254.819	2.44
255.2	2.07
255.581	2.76
255.962	1.94
256.343	1.93
256.724	3.16
257.105	2.69
257.486	1.81
257.867	2.51
258.247	2.64
258.628	2.39
259.009	1.87
259.389	2.64
259.77	1.37
260.15	2.37
260.531	3.01
260.911	2.51
261.292	2.12
261.672	2.22
262.052	2.45
262.432	2.47
262.813	2.59
263.193	2.32
263.573	2.7
263.953	4.12
264.333	3.73
264.713	2.82
265.093	2.37
265.473	2.49
265.853	2.63
266.233	1.88
266.612	2.31
266.992	2.31
267.372	2.54
267.752	3.25
268.131	2.03
268.511	1.92
268.89	1.89
269.27	1.5
269.649	2.39
270.029	2.14
270.408	2.61
270.787	2.16
271.167	2.37
271.546	2.88
271.925	2.63
272.304	2.89
272.683	2.04
273.062	2.2
273.441	2.41
273.82	1.99
274.199	2.4
274.578	2.46
274.957	2.17
275.336	2.86
275.715	2.64
276.093	2.04
276.472	2.51
276.851	2.9
277.229	2.22
277.608	2.47
277.986	1.84
278.365	2.42
278.743	2.35
279.122	2.78
279.5	1.59
279.878	2.37
280.257	2.39
280.635	2.69
281.013	1.91
281.391	2.12
281.769	2.62
282.147	2.3
282.525	2
282.903	2.08
283.281	2.44
283.659	2.66
284.037	2.61
284.415	2.5
284.792	2.32
285.17	2.15
285.548	2.77
285.925	2.4
286.303	2.39
286.68	2.23
287.058	2.32
287.435	2.47
287.813	2.2
288.19	2.26
288.567	2.33
288.945	2.36
289.322	2.08
289.699	2.44
290.076	1.87
290.453	2.47
290.83	2.38
291.207	2.87
291.584	2.51
291.961	2.49
292.338	2.21
292.715	2.42
293.092	2.27
293.469	2.31
293.845	2.73
294.222	2.42
294.599	2.77
294.975	2.55
295.352	2.77
295.728	2.72
296.105	3.12
296.481	3.04
296.858	3.14
297.234	3.16
297.61	2.79
297.986	2.91
298.363	3.16
298.739	2.84
299.115	2.79
299.491	2.76
299.867	2.91
300.243	2.68
300.619	2.98
300.995	3.14
301.371	2.74
301.746	3.19
302.122	3.54
302.498	2.73
302.874	2.67
303.249	3.48
303.625	2.79
304	3.45
304.376	3.18
304.751	2.77
305.127	2.98
305.502	3.17
305.878	3.11
306.253	3.07
306.628	3
307.003	3.35
307.378	3.04
307.754	2.72
308.129	2.79
308.504	3.97
308.879	2.59
309.254	3.65
309.629	2.71
310.003	3.19
310.378	3.58
310.753	3.76
311.128	3.22
311.502	2.81
311.877	2.82
312.252	2.65
312.626	3.25
313.001	2.7
313.375	2.94
313.75	3.01
314.124	3.31
314.498	3.05
314.873	3.16
315.247	3.58
315.621	2.89
315.995	3.5
316.369	3.41
316.743	3.19
317.117	2.9
317.491	3.39
317.865	3.19
318.239	2.77
318.613	3.46
318.987	3.8
319.361	2.82
319.734	3.42
320.108	3.61
320.482	3.34
320.855	3.39
321.229	3.87
321.602	3.26
321.976	3.63
322.349	3.06
322.723	3.27
323.096	3.13
323.469	3.09
323.843	4.23
324.216	4.01
324.589	3.5
324.962	3.64
325.335	3.86
325.708	3.51
326.081	3.34
326.454	3.57
326.827	3.67
327.2	3.55
327.573	3.47
327.945	3.71
328.318	3.89
328.691	2.86
329.063	3.42
329.436	3.74
329.809	3.03
330.181	3.05
330.553	3.5
330.926	4.17
331.298	3.52
331.671	3.61
332.043	3.72
332.415	3.86
332.787	3.62
333.159	3.25
333.532	3.55
333.904	3.47
334.276	4.19
334.648	3.32
335.02	2.8
335.391	3.74
335.763	3.39
336.135	3.72
336.507	4.04
336.879	3.47
337.25	3.92
337.622	3.39
337.993	3.38
338.365	3.27
338.736	4.25
339.108	3.39
339.479	3.41
339.851	3.68
340.222	2.94
340.593	3.29
340.964	3.66
341.336	3.67
341.707	3.54
342.078	3.58
342.449	3.39
342.82	3.83
343.191	3.81
343.562	3.88
343.933	3.75
344.303	3.71
344.674	3.38
345.045	3.98
345.416	3.83
345.786	3.57
346.157	3.33
346.527	3.75
346.898	3.25
347.268	3.49
347.639	3.67
348.009	3.74
348.38	3.71
348.75	3.99
349.12	3.66
349.49	3.07
349.861	3.99
350.231	3.38
350.601	4.29
350.971	3.33
351.341	3.65
351.711	3.85
352.081	3.51
352.45	2.96
352.82	3.26
353.19	3.32
353.56	3.34
353.929	2.83
354.299	3.09
354.669	3.72
355.038	2.78
355.408	3.12
355.777	3.67
356.147	3.14
356.516	3.42
356.885	3.51
357.254	3.26
357.624	3.22
357.993	3.52
358.362	3.71
358.731	3.59
359.1	3.5
359.469	3.35
359.838	3.34
360.207	3.54
360.576	3.69
360.945	3.07
361.314	3.85
361.682	3.57
362.051	3.68
362.42	3.59
362.788	3.18
363.157	3.84
363.525	3.69
363.894	3.21
364.262	3.54
364.631	3.23
364.999	3.63
365.367	3.78
365.735	3.6
366.104	3.3
366.472	3.28
366.84	3.44
367.208	3.41
367.576	3.61
367.944	3.71
368.312	3.49
368.68	3.53
369.048	3.71
369.416	3.52
369.783	3.93
370.151	3.83
370.519	3.37
370.886	3.68
371.254	3.57
371.621	3.98
371.989	3.41
372.356	3.36
372.724	3.44
373.091	3.32
373.458	3.55
373.826	3.61
374.193	3.45
374.56	3.86
374.927	3.63
375.294	3.56
375.661	3.76
376.028	3.73
376.395	3.68
376.762	4.07
377.129	3.66
377.496	3.5
377.863	3.38
378.229	3.66
378.596	3.36
378.963	3.72
379.329	3.34
379.696	3.48
380.062	3.72
380.429	3.86
380.795	4.08
381.161	3.92
381.528	3.64
381.894	3.78
382.26	3.53
382.626	3.68
382.993	3.71
383.359	3.39
383.725	3.62
384.091	3.26
384.457	3.55
384.823	3.43
385.188	3.55
385.554	3.83
385.92	3.45
386.286	3.64
386.651	3.91
387.017	3.86
387.383	3.7
387.748	3.63
388.114	3.77
388.479	3.61
388.845	3.7
389.21	3.78
389.575	3.37
389.94	3.61
390.306	3.95
390.671	3.67
391.036	3.84
391.401	3.56
391.766	3.62
392.131	3.5
392.496	3.45
392.861	3.66
393.226	3.75
393.591	3.56
393.956	3.76
394.32	3.82
394.685	3.74
395.05	3.68
395.414	3.63
395.779	3.72
396.143	3.77
396.508	3.59
396.872	3.46
397.236	3.47
397.601	3.65
397.965	3.6
398.329	3.82
398.694	3.49
399.058	4.01
399.422	3.77
399.786	3.67
400.15	3.6
400.514	3.73
400.878	3.74
401.242	3.69
401.605	4.1
401.969	3.57
402.333	3.84
402.697	3.84
403.06	3.58
403.424	3.88
403.787	3.57
404.151	3.82
404.514	3.47
404.878	3.39
405.241	3.89
405.604	3.53
405.968	3.81
406.331	3.99
406.694	3.9
407.057	3.66
407.42	3.72
407.783	3.53
408.146	3.68
408.509	3.6
408.872	3.52
409.235	3.67
409.598	3.63
409.961	3.76
410.323	3.89
410.686	3.83
411.049	3.73
411.411	4.21
411.774	3.89
412.136	3.84
412.499	3.89
412.861	3.78
413.223	4.02
413.586	3.62
413.948	3.54
414.31	4.11
414.672	3.85
415.035	3.72
415.397	3.96
415.759	3.72
416.121	3.63
416.483	3.87
416.845	3.82
417.206	4
417.568	3.73
417.93	3.97
418.292	3.6
418.653	3.93
419.015	3.68
419.377	3.88
419.738	3.77
420.1	3.79
420.461	3.85
420.822	3.82
421.184	3.81
421.545	4.01
421.906	3.67
422.267	3.68
422.629	3.73
422.99	3.76
423.351	3.72
423.712	3.7
424.073	3.85
424.434	3.78
424.795	3.91
425.155	3.76
425.516	3.66
425.877	3.72
426.238	3.72
426.598	3.75
426.959	3.7
427.32	3.86
427.68	3.63
428.041	3.87
428.401	3.83
428.761	3.89
429.122	3.9
429.482	4.06
429.842	3.98
430.202	3.84
430.563	3.75
430.923	3.9
431.283	3.74
431.643	4.12
432.003	3.84
432.363	4.05
432.722	3.86
433.082	3.87
433.442	4.04
433.802	4.16
434.161	3.81
434.521	3.97
434.881	3.87
435.24	3.95
435.6	3.86
435.959	4.01
436.319	3.98
436.678	3.98
437.037	3.81
437.396	3.89
437.756	3.92
438.115	4.04
438.474	3.86
438.833	3.97
439.192	4.07
439.551	3.99
439.91	4.05
440.269	3.91
440.628	3.98
440.987	3.8
441.345	3.95
441.704	3.95
442.063	4.07
442.421	4.04
442.78	3.95
443.138	3.97
443.497	3.99
443.855	4.02
444.214	4.09
444.572	4.17
444.93	4.02
445.288	3.85
445.647	4.08
446.005	3.96
446.363	3.8
446.721	3.89
447.079	4
447.437	3.77
447.795	4.02
448.153	3.98
448.51	4.02
448.868	3.98
449.226	4.08
449.584	4
449.941	4.04
450.299	4.16
450.656	3.97
451.014	4.04
451.371	4.14
451.729	4.09
452.086	4.13
452.443	4.12
452.801	4.33
453.158	4.02
453.515	4.03
453.872	3.99
454.229	4.24
454.586	3.99
454.943	4.11
455.3	4.04
455.657	4.3
456.014	4.13
456.371	4.21
456.727	4.27
457.084	4.12
457.441	4.33
457.797	4.21
458.154	4.1
458.51	4.05
458.867	4.27
459.223	4.28
459.58	4.08
459.936	4.15
460.292	4.19
460.648	4.28
461.005	4.08
461.361	3.97
461.717	4.13
462.073	4.07
462.429	4.13
462.785	4.1
463.141	4.23
463.496	4.23
463.852	4.26
464.208	4.19
464.564	4.22
464.919	4.28
465.275	4.32
465.631	4.29
465.986	4.35
466.342	4.12
466.697	4.3
467.052	4.43
467.408	4.32
467.763	4.38
468.118	4.2
468.473	4.31
468.829	4.27
469.184	4.15
469.539	4.4
469.894	4.33
470.249	4.38
470.603	4.5
470.958	4.34
471.313	4.67
471.668	4.51
472.023	4.2
472.377	4.16
472.732	4.37
473.086	4.39
473.441	4.45
473.795	4.44
474.15	4.49
474.504	4.13
474.859	4.56
475.213	4.32
475.567	4.3
475.921	4.35
476.275	4.27
476.63	4.31
476.984	4.37
477.338	4.45
477.692	4.4
478.045	4.46
478.399	4.27
478.753	4.32
479.107	4.48
479.461	4.37
479.814	4.39
480.168	4.24
480.521	4.31
480.875	4.5
481.228	4.44
481.582	4.4
481.935	4.33
482.289	4.41
482.642	4.51
482.995	4.34
483.348	4.4
483.701	4.56
484.055	4.42
484.408	4.31
484.761	4.31
485.114	4.22
485.466	4.15
485.819	4.15
486.172	4.13
486.525	4.14
486.878	4.2
487.23	4.28
487.583	4.28
487.936	4.35
488.288	4.27
488.641	4.27
488.993	4.3
489.345	4.23
489.698	4.23
490.05	4.24
490.402	4.28
490.754	4.3
491.107	4.32
491.459	4.4
491.811	4.49
492.163	4.47
492.515	4.41
492.866	4.38
493.218	4.32
493.57	4.31
493.922	4.27
494.274	4.4
494.625	4.44
494.977	4.53
495.328	4.49
495.68	4.45
496.031	4.68
496.383	4.51
496.734	4.57
497.086	4.49
497.437	4.56
497.788	4.55
498.139	4.63
498.49	4.62
498.842	4.55
499.193	4.54
499.544	4.58
499.894	4.47
500.245	4.66
500.596	4.55
500.947	4.68
501.298	4.72
501.648	4.69
501.999	4.73
502.35	4.62
502.7	4.7
503.051	4.65
503.401	4.73
503.752	4.82
504.102	4.68
504.452	4.73
504.803	4.84
505.153	4.75
505.503	4.78
505.853	4.76
506.203	4.71
506.553	4.64
506.903	4.75
507.253	4.78
507.603	4.5
507.953	4.7
508.303	4.72
508.652	4.74
509.002	4.62
509.352	4.75
509.701	4.77
510.051	4.71
510.4	4.7
510.75	4.7
511.099	4.71
511.449	4.87
511.798	4.76
512.147	4.81
512.496	4.86
512.846	4.78
513.195	4.73
513.544	4.82
513.893	4.76
514.242	4.79
514.591	4.78
514.939	4.75
515.288	4.7
515.637	4.69
515.986	4.85
516.334	4.92
516.683	4.7
517.032	4.87
517.38	4.83
517.729	4.91
518.077	4.79
518.426	4.93
518.774	4.95
519.122	4.86
519.47	4.66
519.819	4.79
520.167	4.83
520.515	4.69
520.863	4.81
521.211	4.74
521.559	4.84
521.907	4.88
522.255	4.9
522.602	5.02
522.95	4.95
523.298	4.83
523.645	5.01
523.993	4.92
524.341	4.9
524.688	4.81
525.036	5.05
525.383	5.01
525.73	4.9
526.078	4.89
526.425	4.86
526.772	4.87
527.119	4.93
527.466	4.89
527.814	4.79
528.161	4.9
528.508	4.96
528.854	4.82
529.201	4.97
529.548	4.98
529.895	4.79
530.242	4.73
530.588	4.74
530.935	4.76
531.282	4.8
531.628	4.82
531.975	4.83
532.321	4.85
532.667	4.93
533.014	4.94
533.36	5.01
533.706	4.84
534.052	4.97
534.399	5.04
534.745	4.88
535.091	4.85
535.437	4.88
535.783	4.91
536.129	4.99
536.474	5.01
536.82	4.99
537.166	5.14
537.512	5.11
537.857	5.23
538.203	5.03
538.549	5.09
538.894	5.04
539.239	5
539.585	5.12
539.93	5.15
540.276	5.02
540.621	5.18
540.966	5.27
541.311	5.32
541.656	5.24
542.001	5.28
542.346	5.02
542.691	5.04
543.036	4.97
543.381	4.87
543.726	4.96
544.071	4.97
544.415	4.98
544.76	5.09
545.105	5.14
545.449	5.18
545.794	5.27
546.138	5.05
546.483	5.17
546.827	5.31
547.171	5.25
547.516	5.16
547.86	5.21
548.204	5.28
548.548	5.29
548.892	5.3
549.236	5.25
549.58	5.29
549.924	5.34
550.268	5.34
550.612	5.26
550.956	5.37
551.3	5.35
551.643	5.37
551.987	5.5
552.33	5.34
552.674	5.46
553.017	5.44
553.361	5.67
553.704	5.48
554.048	5.58
554.391	5.51
554.734	5.47
555.077	5.5
555.42	5.51
555.764	5.42
556.107	5.75
556.45	5.34
556.793	5.44
557.135	5.47
557.478	5.44
557.821	5.68
558.164	5.65
558.507	5.61
558.849	5.55
559.192	5.64
559.534	5.69
559.877	5.49
560.219	5.61
560.562	5.52
560.904	5.71
561.246	5.56
561.589	5.81
561.931	5.75
562.273	5.6
562.615	5.59
562.957	5.72
563.299	5.8
563.641	5.84
563.983	5.6
564.325	5.69
564.667	5.77
565.008	5.66
565.35	5.67
565.692	5.86
566.033	5.56
566.375	5.67
566.716	5.45
567.058	5.77
567.399	5.68
567.741	5.79
568.082	5.61
568.423	5.69
568.764	5.77
569.105	5.62
569.447	5.69
569.788	5.75
570.129	5.71
570.47	5.88
570.811	5.93
571.151	5.9
571.492	5.84
571.833	5.91
572.174	5.77
572.514	5.87
572.855	5.8
573.195	5.74
573.536	5.63
573.876	5.79
574.217	5.84
574.557	5.56
574.898	5.75
575.238	5.93
575.578	5.86
575.918	5.83
576.258	5.95
576.598	5.79
576.938	5.91
577.278	5.84
577.618	5.95
577.958	5.81
578.298	6.02
578.638	5.85
578.977	5.99
579.317	5.86
579.657	5.84
579.996	6
580.336	5.99
580.675	5.82
581.014	5.99
581.354	6.01
581.693	5.93
582.032	5.93
582.372	6.24
582.711	5.95
583.05	6.23
583.389	6.21
583.728	6.09
584.067	6.14
584.406	6.38
584.745	6.15
585.083	5.94
585.422	6.37
585.761	6.29
586.1	6.09
586.438	6.02
586.777	6.24
587.115	6.21
587.454	6.39
587.792	5.84
588.13	6.44
588.469	6.27
588.807	6.11
589.145	6.15
589.483	6.16
589.821	6.32
590.159	6.09
590.497	6.2
590.835	6.1
591.173	6.2
591.511	6.28
591.849	6.2
592.187	6.15
592.524	5.87
592.862	6.06
593.2	5.89
593.537	5.9
593.875	6.59
594.212	6.38
594.55	6.51
594.887	6.45
595.224	6.41
595.561	6.36
595.899	6.15
596.236	6.2
596.573	6.25
596.91	6.52
597.247	6.24
597.584	6.23
597.921	6.27
598.258	6.51
598.594	6.58
598.931	6.24
599.268	6.19
599.604	6.26
599.941	6.35
600.277	6.42
600.614	6.56
600.95	6.62
601.287	6.35
601.623	6.69
601.959	6.43
602.296	6.52
602.632	6.51
602.968	6.56
603.304	6.29
603.64	6.52
603.976	6.38
604.312	6.59
604.648	6.48
604.984	6.65
605.319	6.53
605.655	6.34
605.991	6.43
606.326	6.38
606.662	6.66
606.998	6.28
607.333	6.5
607.668	6.53
608.004	6.41
608.339	6.38
608.674	6.44
609.01	6.48
609.345	6.69
609.68	6.54
610.015	6.19
610.35	6.44
610.685	6.76
611.02	6.62
611.355	6.57
611.689	6.48
612.024	6.54
612.359	6.58
612.694	6.49
613.028	6.65
613.363	6.62
613.697	6.97
614.032	6.83
614.366	6.91
614.7	6.67
615.035	6.67
615.369	6.4
615.703	6.67
616.037	6.75
616.371	6.24
616.705	6.81
617.039	6.82
617.373	6.75
617.707	6.65
618.041	6.56
618.375	6.49
618.709	6.82
619.042	6.65
619.376	6.43
619.71	6.72
620.043	6.58
620.377	6.8
620.71	6.77
621.043	6.68
621.377	6.78
621.71	7.22
622.043	7.13
622.376	7.22
622.709	7.15
623.043	7
623.376	7.47
623.709	7.04
624.041	6.95
624.374	6.64
624.707	6.79
625.04	6.83
625.373	7.39
625.705	7.15
626.038	6.83
626.37	7.05
626.703	7.24
627.035	7.04
627.368	7.01
627.7	7.08
628.032	6.48
628.365	6.84
628.697	6.9
629.029	6.86
629.361	6.7
629.693	7.11
630.025	6.93
630.357	7.45
630.689	6.84
631.021	7.22
631.353	7.26
631.684	7.15
632.016	7.38
632.348	7.2
632.679	6.74
633.011	7.54
633.342	7.71
633.674	7.21
634.005	7.25
634.336	7.66
634.668	7.52
634.999	7.46
635.33	7.44
635.661	7.27
635.992	7.32
636.323	7.06
636.654	7.19
636.985	7.19
637.316	7.49
637.647	7.14
637.977	7.41
638.308	7.35
638.639	7.1
638.969	7
639.3	6.91
639.63	7.31
639.961	7.43
640.291	7.14
640.622	7.28
640.952	7.27
641.282	7.3
641.612	7.21
641.943	7.59
642.273	7.58
642.603	7.85
642.933	7.33
643.263	7.14
643.592	7.43
643.922	7.78
644.252	7.62
644.582	7.32
644.911	7.15
645.241	7.03
645.571	7.87
645.9	7.87
646.23	7.83
646.559	7.4
646.888	7.74
647.218	7.46
647.547	7.52
647.876	7.58
648.205	7.82
648.534	8.02
648.863	7.77
649.192	8.01
649.521	7.71
649.85	7.08
650.179	7.74
650.508	7.76
650.837	7.19
651.165	7.55
651.494	7.71
651.822	7.31
652.151	8.01
652.479	7.55
652.808	8.3
653.136	8.08
653.465	7.55
653.793	7.39
654.121	7.64
654.449	7.91
654.777	8.02
655.105	8.34
655.433	8
655.761	7.92
656.089	7.5
656.417	7.94
656.745	7.79
657.073	7.5
657.4	7.62
657.728	7.44
658.056	7.84
658.383	6.99
658.711	8.21
659.038	8.27
659.365	8.62
659.693	7.79
660.02	7.25
660.347	8.37
660.674	7.88
661.001	7.91
661.329	8.09
661.656	7.68
661.982	7.85
662.309	7.98
662.636	7.83
662.963	8.41
663.29	8.2
663.616	7.73
663.943	8.18
664.27	8.42
664.596	7.92
664.923	9.06
665.249	8.01
665.576	8.52
665.902	8.41
666.228	8.07
666.554	7.94
666.881	7.37
667.207	8.38
667.533	8.38
667.859	8.16
668.185	8.16
668.511	8.21
668.837	8.19
669.162	8.66
669.488	8.05
669.814	7.83
670.139	8.15
670.465	8.1
670.791	8.17
671.116	7.99
671.442	8.49
671.767	8.4
672.092	8.43
672.418	8.54
672.743	7.91
673.068	8.34
673.393	7.89
673.718	8.52
674.043	8.63
674.368	8.07
674.693	8.31
675.018	8.5
675.343	8.34
675.667	8.68
675.992	8.71
676.317	8.41
676.641	8.38
676.966	8.42
677.29	8.61
677.615	8.32
677.939	7.84
678.264	9.08
678.588	8.23
678.912	9.05
679.236	8.65
679.56	8.85
679.885	8.49
680.209	8.45
680.532	8.57
680.856	8.54
681.18	8.85
681.504	8.76
681.828	8.56
682.152	8.62
682.475	8.47
682.799	8.88
683.122	8.74
683.446	8.47
683.769	9.38
684.093	7.99
684.416	8.53
684.739	8.82
685.062	8.83
685.386	9.01
685.709	8.48
686.032	8.64
686.355	8.95
686.678	8.99
687.001	8.22
687.324	8.81
687.646	8.9
687.969	8.36
688.292	8.37
688.614	9.27
688.937	9.42
689.26	8.71
689.582	8.72
689.904	8.7
690.227	8.7
690.549	9.47
690.871	8.61
691.194	8.82
691.516	9.52
691.838	9.13
692.16	8.8
692.482	9.28
692.804	8.99
