Data from 445_forehead_Reflection__2__42.txt Node

Date: Tue Dec 12 18:34:28 CST 2023
User: ToomeyLab
Spectrometer: FLMS14357
Trigger mode: 0
Integration Time (sec): 1.000000E-2
Scans to average: 100
Electric dark correction enabled: true
Nonlinearity correction enabled: false
Boxcar width: 0
XAxis mode: Wavelengths
Number of Pixels in Spectrum: 2048
>>>>>Begin Spectral Data<<<<<
189.047	107.84
189.435	107.84
189.823	107.84
190.211	1329.41
190.599	55.18
190.987	114.56
191.375	-195.86
191.763	292.41
192.151	110.76
192.538	-137.5
192.926	-5.81
193.314	-1188
193.702	13.11
194.089	213.99
194.477	19800
194.864	-86.9
195.252	99.61
195.639	-226.92
196.027	432.39
196.414	-15.25
196.801	143.4
197.189	-1.3
197.576	-173.33
197.963	64.41
198.351	43.2
198.738	39.74
199.125	36.16
199.512	30.52
199.899	58
200.286	31.73
200.673	55.56
201.06	24.34
201.447	-28.66
201.833	34.97
202.22	38.44
202.607	63.13
202.994	58.63
203.38	95.56
203.767	14.88
204.154	50.92
204.54	91.87
204.927	53.31
205.313	79.17
205.699	63.86
206.086	13.32
206.472	44.81
206.858	29.22
207.245	62.85
207.631	33.77
208.017	45.64
208.403	45.72
208.789	44.2
209.175	23.84
209.561	67.64
209.947	58.25
210.333	57.98
210.719	33.09
211.105	36.35
211.491	71.09
211.876	35.72
212.262	78.65
212.648	-2.38
213.034	1.82
213.419	33.8
213.805	32.29
214.19	58.3
214.576	41.34
214.961	20.95
215.346	24.88
215.732	47.73
216.117	43.42
216.502	46.77
216.888	44.44
217.273	8.71
217.658	20.07
218.043	17.3
218.428	44.05
218.813	37.74
219.198	8.82
219.583	17.91
219.968	36.28
220.353	44.12
220.738	38.51
221.122	19.68
221.507	45.67
221.892	33.92
222.276	34.8
222.661	13.46
223.046	14.21
223.43	25.28
223.815	11.39
224.199	20.83
224.583	28.75
224.968	16.16
225.352	15.76
225.736	19.47
226.121	14.15
226.505	13.16
226.889	8.62
227.273	13
227.657	13.01
228.041	9.76
228.425	10.9
228.809	6.15
229.193	6.38
229.577	6.97
229.961	5.53
230.344	7.07
230.728	6.06
231.112	6.58
231.495	7.2
231.879	7.68
232.263	6.7
232.646	5.88
233.03	7.43
233.413	6.62
233.797	6.64
234.18	6.21
234.563	7.26
234.946	10.01
235.33	11.05
235.713	7.17
236.096	5.48
236.479	8.51
236.862	6.78
237.245	8.57
237.628	5.53
238.011	6.47
238.394	7.47
238.777	7.3
239.16	7.05
239.543	7.35
239.925	6.83
240.308	7.03
240.691	7.69
241.073	9.18
241.456	8.02
241.838	7.49
242.221	6.57
242.603	7.14
242.986	6.17
243.368	6.58
243.75	6.2
244.133	6.21
244.515	6.26
244.897	6.44
245.279	6.64
245.661	6.09
246.043	5.75
246.425	8.33
246.807	6.5
247.189	6.51
247.571	6.86
247.953	6.02
248.335	5.93
248.717	6.05
249.098	5.98
249.48	5.93
249.862	5.8
250.243	6.27
250.625	7.02
251.006	6.02
251.388	7.4
251.769	6.96
252.151	7.08
252.532	7
252.913	6.95
253.295	6.92
253.676	6.33
254.057	6.26
254.438	6.5
254.819	6.31
255.2	6.66
255.581	6.52
255.962	7
256.343	7.2
256.724	6.78
257.105	7.13
257.486	6.43
257.867	6.8
258.247	7.93
258.628	8.06
259.009	7.89
259.389	6.68
259.77	6.71
260.15	6.62
260.531	7.06
260.911	6.49
261.292	5.95
261.672	5.84
262.052	6.01
262.432	6.09
262.813	6.06
263.193	6.08
263.573	6.49
263.953	7.73
264.333	7.61
264.713	6.92
265.093	6.79
265.473	6.86
265.853	5.84
266.233	6.53
266.612	7.21
266.992	6.71
267.372	7.46
267.752	7.72
268.131	6.06
268.511	6.55
268.89	6.51
269.27	6.24
269.649	6.82
270.029	6.02
270.408	6.67
270.787	6.71
271.167	7.18
271.546	6.13
271.925	6.97
272.304	6.81
272.683	6.49
273.062	6.66
273.441	6.4
273.82	6.09
274.199	6.53
274.578	6.35
274.957	6.27
275.336	6.28
275.715	6.82
276.093	5.63
276.472	6.64
276.851	6.85
277.229	6.32
277.608	6.54
277.986	6.17
278.365	6.63
278.743	6.51
279.122	7.13
279.5	6.41
279.878	5.5
280.257	6.44
280.635	6.48
281.013	6.83
281.391	7
281.769	6.86
282.147	7
282.525	6.39
282.903	6.1
283.281	6.44
283.659	6.58
284.037	6.83
284.415	6.23
284.792	6.68
285.17	6.35
285.548	6.71
285.925	7.01
286.303	6.33
286.68	6.77
287.058	6.74
287.435	6.49
287.813	6.37
288.19	6.37
288.567	6.68
288.945	6.97
289.322	6.64
289.699	6.78
290.076	7.06
290.453	7.15
290.83	6.94
291.207	7.49
291.584	7.67
291.961	7.34
292.338	7.38
292.715	7.2
293.092	7.54
293.469	6.93
293.845	7.27
294.222	7.62
294.599	7.48
294.975	7.36
295.352	8.16
295.728	7.98
296.105	8.11
296.481	8.59
296.858	7.95
297.234	8.21
297.61	8.51
297.986	8.31
298.363	8.33
298.739	7.94
299.115	7.89
299.491	8.38
299.867	8.46
300.243	8.57
300.619	8.66
300.995	8.69
301.371	8.65
301.746	9.04
302.122	9.52
302.498	9.74
302.874	9.56
303.249	9.57
303.625	9.43
304	9.58
304.376	9.86
304.751	9.96
305.127	9.47
305.502	10.01
305.878	10.04
306.253	10.31
306.628	10.16
307.003	9.84
307.378	10.15
307.754	10.66
308.129	9.89
308.504	11.49
308.879	10.44
309.254	10.74
309.629	10.22
310.003	11.18
310.378	11.25
310.753	10.95
311.128	11.43
311.502	10.87
311.877	10.65
312.252	10.6
312.626	11.46
313.001	11.41
313.375	11.48
313.75	11.77
314.124	12.06
314.498	11.75
314.873	11.84
315.247	12.51
315.621	11.89
315.995	12.45
316.369	12.83
316.743	12.63
317.117	12.14
317.491	12.29
317.865	12.71
318.239	13.2
318.613	13.24
318.987	13.64
319.361	13.01
319.734	13.01
320.108	13.68
320.482	13.22
320.855	13.16
321.229	13.43
321.602	13.24
321.976	13.79
322.349	13.95
322.723	13.37
323.096	14.47
323.469	13.93
323.843	14.23
324.216	14.39
324.589	14.18
324.962	14.7
325.335	14.71
325.708	14.51
326.081	14.4
326.454	14.02
326.827	14.6
327.2	15.43
327.573	14.86
327.945	15
328.318	14.88
328.691	14.36
329.063	15.5
329.436	15.38
329.809	15.17
330.181	15.66
330.553	15.72
330.926	15.71
331.298	15.71
331.671	15.48
332.043	15.41
332.415	15.8
332.787	16.01
333.159	15.7
333.532	16.04
333.904	16.64
334.276	16.72
334.648	16.02
335.02	16.02
335.391	16.07
335.763	16.52
336.135	16.5
336.507	17.38
336.879	16.79
337.25	16.84
337.622	16.76
337.993	16.67
338.365	16.87
338.736	16.97
339.108	17.02
339.479	16.82
339.851	16.49
340.222	17.14
340.593	17.25
340.964	17.37
341.336	17.54
341.707	17.41
342.078	17.3
342.449	17.02
342.82	17.89
343.191	17.48
343.562	17.63
343.933	17.87
344.303	17.75
344.674	18.02
345.045	18.44
345.416	17.75
345.786	17.47
346.157	18.05
346.527	18.69
346.898	17.96
347.268	18.49
347.639	18.12
348.009	18.29
348.38	18.49
348.75	18.63
349.12	18.8
349.49	18.79
349.861	18.57
350.231	19.01
350.601	19.08
350.971	18.99
351.341	18.94
351.711	19.57
352.081	19.07
352.45	19.12
352.82	19.01
353.19	18.97
353.56	19.25
353.929	19.54
354.299	19.06
354.669	19.78
355.038	19.67
355.408	19.22
355.777	20.16
356.147	19.56
356.516	20.15
356.885	19.7
357.254	20.42
357.624	19.74
357.993	20
358.362	19.89
358.731	20.32
359.1	19.81
359.469	20.36
359.838	20.19
360.207	20.02
360.576	20.68
360.945	20.27
361.314	20.45
361.682	20.73
362.051	20.76
362.42	20.75
362.788	20.6
363.157	20.95
363.525	20.8
363.894	20.57
364.262	20.87
364.631	20.71
364.999	21.16
365.367	21.05
365.735	21.14
366.104	21.5
366.472	21.38
366.84	21.68
367.208	21.83
367.576	21.43
367.944	21.58
368.312	21.84
368.68	21.8
369.048	21.55
369.416	21.8
369.783	22.36
370.151	21.92
370.519	22.07
370.886	22.29
371.254	22.07
371.621	22.24
371.989	22.5
372.356	22.23
372.724	22.43
373.091	22.41
373.458	22.25
373.826	22.15
374.193	22.25
374.56	22.78
374.927	22.8
375.294	23.04
375.661	23.3
376.028	23.17
376.395	23.1
376.762	23.35
377.129	22.97
377.496	23.33
377.863	22.99
378.229	23.34
378.596	23.27
378.963	23.27
379.329	23.17
379.696	23.34
380.062	23.76
380.429	23.33
380.795	24.24
381.161	23.82
381.528	23.92
381.894	23.84
382.26	24.01
382.626	24.07
382.993	23.96
383.359	23.99
383.725	24.35
384.091	24.31
384.457	24.25
384.823	24.31
385.188	24.57
385.554	24.54
385.92	24.5
386.286	24.98
386.651	24.63
387.017	25.03
387.383	24.99
387.748	24.85
388.114	24.96
388.479	24.95
388.845	25.07
389.21	24.9
389.575	24.95
389.94	25.21
390.306	25.28
390.671	24.98
391.036	25.86
391.401	25.44
391.766	25.54
392.131	25.58
392.496	25.55
392.861	25.43
393.226	25.7
393.591	25.58
393.956	25.55
394.32	25.47
394.685	25.99
395.05	25.8
395.414	25.96
395.779	25.93
396.143	26.29
396.508	25.99
396.872	26.09
397.236	26.47
397.601	26.19
397.965	26.33
398.329	26.4
398.694	26.68
399.058	26.7
399.422	26.73
399.786	27.04
400.15	26.35
400.514	26.79
400.878	26.95
401.242	26.93
401.605	26.97
401.969	27.01
402.333	27.08
402.697	26.96
403.06	26.73
403.424	27.34
403.787	27.16
404.151	27.52
404.514	27.4
404.878	27.03
405.241	27.29
405.604	27.37
405.968	27.34
406.331	27.53
406.694	28
407.057	27.52
407.42	27.92
407.783	28.01
408.146	27.74
408.509	28.04
408.872	27.77
409.235	27.9
409.598	28.29
409.961	28.44
410.323	28.07
410.686	28.21
411.049	28.5
411.411	28.68
411.774	28.59
412.136	28.58
412.499	28.53
412.861	28.69
413.223	28.97
413.586	28.64
413.948	28.64
414.31	28.92
414.672	29.38
415.035	29.04
415.397	29.05
415.759	29.21
416.121	29.35
416.483	29.23
416.845	29.06
417.206	29.42
417.568	29.21
417.93	29.45
418.292	29.36
418.653	29.66
419.015	29.4
419.377	29.29
419.738	29.5
420.1	29.4
420.461	29.48
420.822	29.48
421.184	29.47
421.545	29.51
421.906	29.45
422.267	29.46
422.629	29.42
422.99	29.39
423.351	29.65
423.712	29.6
424.073	29.77
424.434	29.9
424.795	29.93
425.155	29.84
425.516	29.91
425.877	30.04
426.238	29.83
426.598	29.92
426.959	30.15
427.32	30.09
427.68	30.32
428.041	30.59
428.401	30.84
428.761	30.66
429.122	30.95
429.482	31.04
429.842	31
430.202	31.09
430.563	30.79
430.923	31.24
431.283	31.35
431.643	31.49
432.003	31.31
432.363	31.4
432.722	31.43
433.082	31.68
433.442	31.75
433.802	31.66
434.161	31.61
434.521	31.92
434.881	31.7
435.24	31.57
435.6	31.86
435.959	31.73
436.319	32.09
436.678	32.13
437.037	32.16
437.396	32.16
437.756	32.32
438.115	32.38
438.474	32.09
438.833	32.59
439.192	32.66
439.551	32.4
439.91	32.46
440.269	32.57
440.628	32.2
440.987	32.51
441.345	32.55
441.704	32.65
442.063	32.58
442.421	32.6
442.78	32.74
443.138	32.8
443.497	32.98
443.855	33.02
444.214	33.01
444.572	33.42
444.93	33.48
445.288	33.26
445.647	33.65
446.005	33.19
446.363	33.26
446.721	33.24
447.079	33.4
447.437	33.23
447.795	33.19
448.153	33.28
448.51	33.29
448.868	33.37
449.226	33.64
449.584	33.77
449.941	33.85
450.299	34.19
450.656	34.12
451.014	34.05
451.371	34.23
451.729	34.29
452.086	34.27
452.443	34.61
452.801	34.86
453.158	34.72
453.515	34.55
453.872	34.58
454.229	34.69
454.586	34.69
454.943	34.84
455.3	34.93
455.657	35.06
456.014	35.02
456.371	35.17
456.727	35.16
457.084	35.06
457.441	35.38
457.797	35.49
458.154	35.54
458.51	35.6
458.867	35.56
459.223	35.42
459.58	35.93
459.936	35.48
460.292	35.59
460.648	35.67
461.005	35.63
461.361	35.38
461.717	35.53
462.073	35.53
462.429	35.58
462.785	35.77
463.141	35.82
463.496	36.21
463.852	36.28
464.208	36.39
464.564	36.57
464.919	36.45
465.275	36.64
465.631	36.86
465.986	36.88
466.342	36.74
466.697	36.87
467.052	36.77
467.408	37.03
467.763	36.97
468.118	36.88
468.473	37.26
468.829	37.1
469.184	37.11
469.539	37.21
469.894	37.12
470.249	37.57
470.603	37.48
470.958	37.38
471.313	37.59
471.668	37.86
472.023	37.72
472.377	37.58
472.732	37.81
473.086	37.84
473.441	37.64
473.795	37.89
474.15	38.06
474.504	38.01
474.859	38.16
475.213	38.05
475.567	38.15
475.921	38.26
476.275	38.37
476.63	38.4
476.984	38.3
477.338	38.83
477.692	38.46
478.045	38.51
478.399	38.28
478.753	38.41
479.107	38.49
479.461	38.65
479.814	38.91
480.168	38.94
480.521	38.6
480.875	38.87
481.228	38.81
481.582	39.11
481.935	39.14
482.289	39.13
482.642	39.19
482.995	38.99
483.348	39.08
483.701	39.22
484.055	38.99
484.408	38.77
484.761	38.58
485.114	38.26
485.466	38.03
485.819	38.37
486.172	38.42
486.525	38.58
486.878	38.56
487.23	38.9
487.583	39.06
487.936	39.25
488.288	39.12
488.641	38.99
488.993	39.07
489.345	38.96
489.698	39.05
490.05	39.18
490.402	39.18
490.754	39.36
491.107	39.72
491.459	39.82
491.811	39.98
492.163	40.14
492.515	39.98
492.866	39.73
493.218	39.56
493.57	39.66
493.922	39.75
494.274	39.93
494.625	40.34
494.977	40.66
495.328	40.8
495.68	40.97
496.031	41
496.383	41.07
496.734	41.25
497.086	41.17
497.437	41.53
497.788	41.58
498.139	41.38
498.49	41.37
498.842	41.39
499.193	41.41
499.544	41.5
499.894	41.32
500.245	41.74
500.596	41.75
500.947	41.81
501.298	41.77
501.648	41.95
501.999	42.19
502.35	42.29
502.7	42.15
503.051	42.46
503.401	42.38
503.752	42.6
504.102	42.65
504.452	42.52
504.803	42.62
505.153	42.64
505.503	42.71
505.853	42.84
506.203	42.73
506.553	42.8
506.903	42.94
507.253	43.2
507.603	43.15
507.953	43.29
508.303	43.15
508.652	43.3
509.002	43.14
509.352	43.17
509.701	43.09
510.051	43.46
510.4	43.14
510.75	43.42
511.099	43.39
511.449	43.35
511.798	43.63
512.147	43.6
512.496	43.69
512.846	43.74
513.195	43.76
513.544	43.71
513.893	43.81
514.242	43.86
514.591	43.94
514.939	44.02
515.288	44.17
515.637	44.1
515.986	44.16
516.334	44.28
516.683	44.37
517.032	44.58
517.38	44.75
517.729	44.59
518.077	44.63
518.426	44.71
518.774	44.63
519.122	44.81
519.47	44.62
519.819	44.55
520.167	44.35
520.515	44.6
520.863	44.77
521.211	44.6
521.559	44.57
521.907	44.96
522.255	45.02
522.602	45.33
522.95	45.36
523.298	45.18
523.645	45.74
523.993	45.44
524.341	45.89
524.688	45.79
525.036	45.64
525.383	45.89
525.73	45.84
526.078	45.86
526.425	45.76
526.772	45.63
527.119	45.5
527.466	45.4
527.814	45.64
528.161	45.8
528.508	45.76
528.854	45.74
529.201	45.8
529.548	45.58
529.895	45.2
530.242	45.03
530.588	45.41
530.935	45.71
531.282	45.66
531.628	45.64
531.975	45.95
532.321	46.06
532.667	46.31
533.014	46.4
533.36	46.59
533.706	46.6
534.052	46.61
534.399	46.66
534.745	46.31
535.091	45.99
535.437	46.43
535.783	46.47
536.129	46.69
536.474	46.86
536.82	47.43
537.166	47.15
537.512	47.22
537.857	47.29
538.203	47.18
538.549	47.16
538.894	47.39
539.239	47.33
539.585	47.49
539.93	47.73
540.276	47.82
540.621	48.07
540.966	48.21
541.311	48.11
541.656	48.12
542.001	48.09
542.346	47.95
542.691	47.39
543.036	47.43
543.381	47.32
543.726	47.54
544.071	47.7
544.415	47.87
544.76	48.04
545.105	48.07
545.449	48.27
545.794	48.62
546.138	48.55
546.483	48.75
546.827	49.32
547.171	48.96
547.516	48.99
547.86	49.11
548.204	49.1
548.548	48.84
548.892	49.14
549.236	49.02
549.58	49.19
549.924	49.46
550.268	49.78
550.612	49.79
550.956	49.94
551.3	49.81
551.643	49.9
551.987	50.27
552.33	50.35
552.674	50.5
553.017	50.59
553.361	50.57
553.704	50.55
554.048	50.56
554.391	50.56
554.734	50.23
555.077	50.25
555.42	50.46
555.764	50.61
556.107	50.94
556.45	50.88
556.793	50.82
557.135	51.12
557.478	51.13
557.821	51.26
558.164	51.44
558.507	51.15
558.849	51.56
559.192	51.36
559.534	51.36
559.877	51.27
560.219	51.9
560.562	51.78
560.904	51.79
561.246	51.88
561.589	51.71
561.931	51.8
562.273	51.9
562.615	51.82
562.957	52.1
563.299	52.06
563.641	51.98
563.983	52.08
564.325	52.01
564.667	52.34
565.008	52.15
565.35	52.34
565.692	52.55
566.033	52.55
566.375	52.54
566.716	52.48
567.058	52.47
567.399	52.54
567.741	52.57
568.082	52.58
568.423	52.39
568.764	52.47
569.105	52.63
569.447	53
569.788	52.88
570.129	53.01
570.47	53.37
570.811	53.23
571.151	52.78
571.492	53.3
571.833	53.36
572.174	53.75
572.514	53.39
572.855	53.34
573.195	53.15
573.536	53.38
573.876	53.38
574.217	53.48
574.557	53.42
574.898	53.68
575.238	53.83
575.578	53.58
575.918	53.76
576.258	53.8
576.598	53.89
576.938	53.87
577.278	53.7
577.618	54
577.958	53.97
578.298	54.39
578.638	54.37
578.977	54.53
579.317	54.31
579.657	54.67
579.996	54.62
580.336	54.77
580.675	54.73
581.014	54.72
581.354	54.9
581.693	55.03
582.032	55.13
582.372	55.64
582.711	55.15
583.05	55.29
583.389	55.17
583.728	55.37
584.067	55.55
584.406	55.63
584.745	55.66
585.083	55.51
585.422	55.9
585.761	55.9
586.1	55.49
586.438	55.92
586.777	56.09
587.115	55.5
587.454	56.2
587.792	56.02
588.13	56.51
588.469	55.88
588.807	56.38
589.145	55.86
589.483	56.03
589.821	56.26
590.159	56.18
590.497	56.49
590.835	56.27
591.173	56.3
591.511	56.39
591.849	56.19
592.187	56.58
592.524	56.87
592.862	56.89
593.2	56.73
593.537	56.8
593.875	57.02
594.212	56.84
594.55	57.32
594.887	56.97
595.224	56.95
595.561	57.4
595.899	56.89
596.236	56.98
596.573	57.02
596.91	57.5
597.247	57.16
597.584	57.16
597.921	57.47
598.258	57.03
598.594	57.15
598.931	57.18
599.268	56.92
599.604	57.44
599.941	57.37
600.277	57.44
600.614	57.93
600.95	58.33
601.287	57.81
601.623	57.73
601.959	58.12
602.296	58.31
602.632	58.3
602.968	58.29
603.304	57.9
603.64	57.9
603.976	58.11
604.312	58
604.648	58.42
604.984	58.14
605.319	58.07
605.655	58.06
605.991	58.1
606.326	58.16
606.662	58.13
606.998	58.32
607.333	58.15
607.668	58.4
608.004	58.42
608.339	58.8
608.674	58.94
609.01	58.84
609.345	58.87
609.68	59.18
610.015	58.99
610.35	58.84
610.685	59.04
611.02	58.89
611.355	58.86
611.689	58.51
612.024	59
612.359	59.39
612.694	59.3
613.028	59.67
613.363	59.46
613.697	59.86
614.032	59.71
614.366	59.85
614.7	59.78
615.035	59.49
615.369	59.55
615.703	59.66
616.037	59.67
616.371	59.88
616.705	60.25
617.039	60.17
617.373	60.09
617.707	60.05
618.041	60.8
618.375	60.08
618.709	60.14
619.042	60.12
619.376	60.4
619.71	60.87
620.043	60.45
620.377	60.65
620.71	60.57
621.043	61.12
621.377	61.03
621.71	61.26
622.043	60.86
622.376	61.22
622.709	61.18
623.043	61.32
623.376	61.26
623.709	60.62
624.041	60.75
624.374	61.64
624.707	61.78
625.04	61.42
625.373	61.83
625.705	61.78
626.038	61.55
626.37	61.81
626.703	61.9
627.035	61.46
627.368	61.51
627.7	61.72
628.032	61.44
628.365	61.57
628.697	62.03
629.029	61.76
629.361	61.59
629.693	61.67
630.025	61.65
630.357	61.97
630.689	61.61
631.021	61.46
631.353	62.13
631.684	62.24
632.016	62.49
632.348	61.84
632.679	61.98
633.011	62.67
633.342	62.9
633.674	62.36
634.005	62.68
634.336	62.71
634.668	62.77
634.999	62.59
635.33	62.41
635.661	62.62
635.992	62.45
636.323	62.95
636.654	62.7
636.985	62.32
637.316	62.97
637.647	63.2
637.977	62.74
638.308	62.43
638.639	62.72
638.969	63.44
639.3	63.45
639.63	63.12
639.961	63.06
640.291	63.03
640.622	63
640.952	63.04
641.282	63.31
641.612	63.43
641.943	63.52
642.273	63.67
642.603	64.04
642.933	63.37
643.263	64.38
643.592	63.63
643.922	64.69
644.252	63.66
644.582	64.07
644.911	63.56
645.241	63.89
645.571	63.42
645.9	64.11
646.23	64.12
646.559	64.52
646.888	64.76
647.218	64.05
647.547	64.46
647.876	64.27
648.205	64.08
648.534	64.77
648.863	64.7
649.192	64.68
649.521	64.72
649.85	64.68
650.179	64.82
650.508	64.67
650.837	64.35
651.165	64.78
651.494	63.92
651.822	64.64
652.151	65.28
652.479	65.07
652.808	65.11
653.136	64.63
653.465	64.96
653.793	64.95
654.121	65.1
654.449	65.25
654.777	65.22
655.105	64.99
655.433	65.53
655.761	64.87
656.089	65.95
656.417	65.54
656.745	65.93
657.073	65.48
657.4	65.18
657.728	65.2
658.056	65.72
658.383	65.23
658.711	65.6
659.038	66.17
659.365	65.49
659.693	65.58
660.02	65.96
660.347	65.68
660.674	65.85
661.001	65.85
661.329	66.3
661.656	65.71
661.982	65.74
662.309	65.86
662.636	66.14
662.963	65.93
663.29	66.29
663.616	66.9
663.943	66.35
664.27	66.54
664.596	66.83
664.923	67.17
665.249	66.53
665.576	66.54
665.902	66.91
666.228	66.11
666.554	66.18
666.881	66.49
667.207	67.18
667.533	66.94
667.859	66.02
668.185	66.87
668.511	67.42
668.837	66.94
