Data from 445_forehead_Reflection__0__40.txt Node

Date: Tue Dec 12 18:34:06 CST 2023
User: ToomeyLab
Spectrometer: FLMS14357
Trigger mode: 0
Integration Time (sec): 1.000000E-2
Scans to average: 100
Electric dark correction enabled: true
Nonlinearity correction enabled: false
Boxcar width: 0
XAxis mode: Wavelengths
Number of Pixels in Spectrum: 2048
>>>>>Begin Spectral Data<<<<<
189.047	-61.27
189.435	-61.27
189.823	-61.27
190.211	654.41
190.599	-48.86
190.987	86.88
191.375	-87.76
191.763	-119.94
192.151	120.49
192.538	-78.65
192.926	36.85
193.314	-621
193.702	117.02
194.089	54.37
194.477	17325
194.864	95.31
195.252	51.47
195.639	-117.63
196.027	436.97
196.414	64.24
196.801	99.53
197.189	178.9
197.576	-37.22
197.963	107.89
198.351	53.58
198.738	25.23
199.125	42.64
199.512	55.84
199.899	61.04
200.286	53.9
200.673	11.62
201.06	7.68
201.447	-48.14
201.833	26.78
202.22	60.5
202.607	5.84
202.994	50.98
203.38	59.04
203.767	57.08
204.154	21.01
204.54	56.43
204.927	69.49
205.313	30.77
205.699	50.56
206.086	34.96
206.472	51.47
206.858	37.54
207.245	59.98
207.631	36.87
208.017	22.41
208.403	-7.31
208.789	28.41
209.175	23.45
209.561	39.49
209.947	3.98
210.333	25.91
210.719	15.92
211.105	29.44
211.491	48.24
211.876	49.75
212.262	50.35
212.648	18.37
213.034	-13.51
213.419	32.73
213.805	34.99
214.19	36.42
214.576	44.07
214.961	7.57
215.346	30.62
215.732	51.35
216.117	13.65
216.502	12.62
216.888	15.12
217.273	26.97
217.658	10.3
218.043	51.57
218.428	37.82
218.813	55.53
219.198	-4.07
219.583	24.45
219.968	29.96
220.353	45.4
220.738	9.59
221.122	31.47
221.507	-1.65
221.892	18.83
222.276	18.06
222.661	18.71
223.046	1.82
223.43	13.16
223.815	13.32
224.199	16.08
224.583	15.09
224.968	11.25
225.352	4.09
225.736	12.13
226.121	4.94
226.505	5.79
226.889	7.61
227.273	7.36
227.657	8.98
228.041	12.22
228.425	8.04
228.809	5.05
229.193	4.98
229.577	7.81
229.961	5.89
230.344	5.8
230.728	6.12
231.112	5.51
231.495	5.47
231.879	5.99
232.263	4.9
232.646	5.55
233.03	6.75
233.413	5.54
233.797	4.65
234.18	3.94
234.563	3.39
234.946	6.48
235.33	6.63
235.713	6.64
236.096	6.97
236.479	5.97
236.862	5.71
237.245	6.65
237.628	6.43
238.011	6.31
238.394	6.2
238.777	7.6
239.16	7.09
239.543	7.45
239.925	8.06
240.308	5.98
240.691	7.58
241.073	6.4
241.456	6.81
241.838	5.41
242.221	6.33
242.603	6.31
242.986	5.34
243.368	6.61
243.75	5.17
244.133	5.58
244.515	5.71
244.897	5.74
245.279	6
245.661	5.93
246.043	5.15
246.425	5.88
246.807	5.18
247.189	6.04
247.571	6.35
247.953	5.05
248.335	5.29
248.717	5.42
249.098	5.46
249.48	5.02
249.862	5.03
250.243	5.72
250.625	6.1
251.006	5.52
251.388	6.02
251.769	6.05
252.151	5.59
252.532	6.21
252.913	7.41
253.295	6.63
253.676	5.36
254.057	5.47
254.438	5.92
254.819	5.85
255.2	5.9
255.581	5.48
255.962	6.79
256.343	6.85
256.724	6.85
257.105	6.57
257.486	5.62
257.867	6.21
258.247	6.49
258.628	6.79
259.009	5.82
259.389	5.95
259.77	6.14
260.15	6.05
260.531	6.1
260.911	6.18
261.292	5.24
261.672	5.09
262.052	5.33
262.432	5.27
262.813	5.68
263.193	5.44
263.573	5.2
263.953	5.99
264.333	6.99
264.713	5.99
265.093	6.11
265.473	6.8
265.853	5.21
266.233	5.37
266.612	5.74
266.992	5.68
267.372	6.55
267.752	6.13
268.131	4.9
268.511	5.41
268.89	5.52
269.27	4.9
269.649	5.7
270.029	5.18
270.408	6.22
270.787	5.89
271.167	6.03
271.546	5.53
271.925	6.3
272.304	6.23
272.683	5.06
273.062	5.63
273.441	5.58
273.82	5.32
274.199	5.61
274.578	5.35
274.957	5.1
275.336	5.56
275.715	5.55
276.093	5.19
276.472	5.91
276.851	5.68
277.229	5.06
277.608	5.28
277.986	4.98
278.365	5.52
278.743	5.35
279.122	5.8
279.5	5.17
279.878	5.28
280.257	5.53
280.635	5.18
281.013	5.31
281.391	4.95
281.769	5.4
282.147	5.52
282.525	4.97
282.903	4.93
283.281	5.28
283.659	5.57
284.037	5.72
284.415	5.19
284.792	5.6
285.17	5.28
285.548	5.84
285.925	6.01
286.303	5.48
286.68	5.47
287.058	5.99
287.435	5.66
287.813	5.19
288.19	5.5
288.567	5.31
288.945	5.84
289.322	5.29
289.699	6.09
290.076	6
290.453	5.82
290.83	5.66
291.207	6.24
291.584	6.08
291.961	6.01
292.338	6.12
292.715	5.88
293.092	6.3
293.469	6.24
293.845	6.04
294.222	6.4
294.599	6.17
294.975	6.26
295.352	6.24
295.728	6.28
296.105	6.28
296.481	6.83
296.858	6.41
297.234	6.96
297.61	6.92
297.986	6.95
298.363	6.99
298.739	6.75
299.115	6.34
299.491	6.79
299.867	6.61
300.243	7.06
300.619	7.15
300.995	7.23
301.371	7.42
301.746	7.23
302.122	7.2
302.498	7.71
302.874	7.49
303.249	7.71
303.625	7.65
304	7.45
304.376	7.62
304.751	7.97
305.127	7.32
305.502	8.21
305.878	7.86
306.253	7.91
306.628	8.12
307.003	7.67
307.378	8.21
307.754	8.45
308.129	8.09
308.504	9.08
308.879	8.25
309.254	8.23
309.629	8.55
310.003	8.82
310.378	8.5
310.753	9.03
311.128	8.92
311.502	8.67
311.877	8.78
312.252	8.2
312.626	8.97
313.001	8.75
313.375	8.59
313.75	9.23
314.124	8.9
314.498	8.96
314.873	9.69
315.247	9.58
315.621	8.7
315.995	9.51
316.369	9.49
316.743	9.44
317.117	9.39
317.491	8.84
317.865	10.11
318.239	9.68
318.613	10.24
318.987	10.21
319.361	9.79
319.734	10.25
320.108	10.07
320.482	10.36
320.855	9.81
321.229	10.47
321.602	10.36
321.976	11.04
322.349	10.92
322.723	10.46
323.096	10.54
323.469	10.71
323.843	11.34
324.216	11.13
324.589	10.64
324.962	10.71
325.335	11.23
325.708	10.93
326.081	11
326.454	10.54
326.827	11.55
327.2	11.28
327.573	11.09
327.945	11.77
328.318	11.81
328.691	11.08
329.063	11.77
329.436	11.73
329.809	11.31
330.181	11.02
330.553	11.47
330.926	11.97
331.298	11.38
331.671	11.68
332.043	11.66
332.415	11.81
332.787	12.18
333.159	11.88
333.532	12.07
333.904	12.05
334.276	12.72
334.648	11.72
335.02	11.52
335.391	11.79
335.763	12.13
336.135	12.31
336.507	12.71
336.879	12.55
337.25	12.61
337.622	12.51
337.993	12.21
338.365	12.25
338.736	12.23
339.108	12.32
339.479	12.96
339.851	12.38
340.222	12.23
340.593	12.63
340.964	13.24
341.336	13.1
341.707	12.46
342.078	12.33
342.449	12.95
342.82	13.08
343.191	12.93
343.562	12.93
343.933	13.4
344.303	13.67
344.674	13.46
345.045	13.62
345.416	13.62
345.786	13.27
346.157	13.12
346.527	13.76
346.898	13.43
347.268	13.06
347.639	14.11
348.009	13.33
348.38	13.22
348.75	13.9
349.12	14.18
349.49	13.6
349.861	13.99
350.231	13.9
350.601	13.93
350.971	13.66
351.341	13.81
351.711	14.26
352.081	13.67
352.45	14.1
352.82	14.04
353.19	13.82
353.56	13.73
353.929	13.89
354.299	13.98
354.669	13.95
355.038	13.92
355.408	14.12
355.777	14.89
356.147	14.07
356.516	14.58
356.885	13.97
357.254	14.69
357.624	14.41
357.993	14.47
358.362	14.98
358.731	14.66
359.1	14.21
359.469	14.31
359.838	14.6
360.207	14.96
360.576	15.01
360.945	14.81
361.314	15.02
361.682	14.87
362.051	14.9
362.42	14.9
362.788	14.84
363.157	15.26
363.525	15.21
363.894	14.92
364.262	15.01
364.631	14.75
364.999	14.91
365.367	15.39
365.735	15.08
366.104	15.45
366.472	15.52
366.84	15.37
367.208	15.37
367.576	15.64
367.944	15.78
368.312	15.62
368.68	15.48
369.048	15.54
369.416	15.72
369.783	15.79
370.151	15.96
370.519	15.78
370.886	15.73
371.254	15.76
371.621	15.79
371.989	15.9
372.356	15.91
372.724	15.8
373.091	16.36
373.458	16.35
373.826	16.42
374.193	16.25
374.56	16.25
374.927	16.28
375.294	16.4
375.661	16.58
376.028	16.67
376.395	16.59
376.762	16.75
377.129	16.63
377.496	16.55
377.863	16.58
378.229	16.69
378.596	16.51
378.963	16.67
379.329	16.46
379.696	16.83
380.062	17.22
380.429	16.74
380.795	17.1
381.161	17.07
381.528	17.09
381.894	17.74
382.26	16.85
382.626	16.93
382.993	17.62
383.359	17.17
383.725	17.2
384.091	17.37
384.457	17.5
384.823	17.26
385.188	17.75
385.554	17.38
385.92	17.7
386.286	17.72
386.651	17.34
387.017	17.65
387.383	17.67
387.748	17.59
388.114	17.82
388.479	18.15
388.845	17.92
389.21	17.62
389.575	17.87
389.94	17.92
390.306	18.06
390.671	17.7
391.036	18.13
391.401	17.81
391.766	18.32
392.131	18.35
392.496	18.29
392.861	17.89
393.226	18.19
393.591	18.19
393.956	18.43
394.32	18.26
394.685	18.62
395.05	18.5
395.414	18.55
395.779	18.74
396.143	18.5
396.508	18.39
396.872	18.26
397.236	18.66
397.601	18.53
397.965	18.59
398.329	18.79
398.694	18.65
399.058	19.06
399.422	18.63
399.786	19.07
400.15	18.82
400.514	18.84
400.878	19.05
401.242	19.25
401.605	19.18
401.969	18.99
402.333	19.23
402.697	19.21
403.06	19.27
403.424	19.39
403.787	18.91
404.151	19.51
404.514	19.25
404.878	19.38
405.241	19.32
405.604	19.47
405.968	19.36
406.331	19.38
406.694	19.72
407.057	19.49
407.42	19.91
407.783	19.53
408.146	19.47
408.509	19.57
408.872	19.78
409.235	20.01
409.598	20.03
409.961	20.04
410.323	20.17
410.686	20.11
411.049	20.34
411.411	20.36
411.774	20.37
412.136	20
412.499	20.21
412.861	20.48
413.223	20.37
413.586	20.16
413.948	20.53
414.31	20.52
414.672	20.52
415.035	20.37
415.397	20.85
415.759	20.33
416.121	20.59
416.483	20.56
416.845	20.54
417.206	20.88
417.568	20.85
417.93	21.17
418.292	20.68
418.653	21.01
419.015	20.54
419.377	20.66
419.738	20.65
420.1	20.69
420.461	20.73
420.822	20.77
421.184	20.69
421.545	20.83
421.906	20.94
422.267	20.8
422.629	20.75
422.99	20.67
423.351	21.02
423.712	20.82
424.073	20.95
424.434	21
424.795	21.2
425.155	20.96
425.516	20.92
425.877	21.04
426.238	20.99
426.598	21.05
426.959	21.17
427.32	21.32
427.68	21.38
428.041	21.54
428.401	21.73
428.761	21.59
429.122	21.84
429.482	21.93
429.842	21.98
430.202	21.8
430.563	22.08
430.923	21.97
431.283	22.21
431.643	22.33
432.003	22.16
432.363	22.32
432.722	22.22
433.082	22.34
433.442	22.32
433.802	22.32
434.161	22.4
434.521	22.31
434.881	22.22
435.24	22.32
435.6	22.38
435.959	22.69
436.319	22.59
436.678	22.79
437.037	22.74
437.396	22.53
437.756	22.71
438.115	22.94
438.474	22.72
438.833	23.05
439.192	23.09
439.551	22.84
439.91	22.8
440.269	22.94
440.628	22.92
440.987	22.92
441.345	22.94
441.704	22.88
442.063	23.04
442.421	23.03
442.78	22.96
443.138	22.96
443.497	22.96
443.855	23.2
444.214	23.18
444.572	23.47
444.93	23.35
445.288	23.32
445.647	23.58
446.005	23.54
446.363	23.31
446.721	23.41
447.079	23.54
447.437	23.21
447.795	23.32
448.153	23.51
448.51	23.32
448.868	23.44
449.226	23.6
449.584	23.65
449.941	23.67
450.299	23.9
450.656	23.96
451.014	23.89
451.371	23.98
451.729	24.3
452.086	24.12
452.443	24.17
452.801	24.35
453.158	24.62
453.515	24.34
453.872	24.4
454.229	24.46
454.586	24.31
454.943	24.62
455.3	24.57
455.657	24.94
456.014	24.68
456.371	24.64
456.727	25.06
457.084	24.77
457.441	25
457.797	24.83
458.154	25.07
458.51	25.2
458.867	25.08
459.223	25.15
459.58	25.13
459.936	25.25
460.292	24.8
460.648	25.15
461.005	25.04
461.361	24.7
461.717	24.85
462.073	24.85
462.429	24.97
462.785	25.08
463.141	25.22
463.496	25.22
463.852	25.69
464.208	25.47
464.564	25.73
464.919	25.89
465.275	26.02
465.631	26.07
465.986	26.22
466.342	25.86
466.697	25.99
467.052	26.07
467.408	25.84
467.763	26.2
468.118	26.15
468.473	26.27
468.829	26.04
469.184	26.32
469.539	26.33
469.894	26.59
470.249	26.46
470.603	26.35
470.958	26.53
471.313	26.74
471.668	26.65
472.023	26.75
472.377	26.56
472.732	26.66
473.086	26.89
473.441	26.9
473.795	26.85
474.15	26.94
474.504	26.83
474.859	26.99
475.213	26.82
475.567	26.88
475.921	27.08
476.275	27.09
476.63	27.06
476.984	27.27
477.338	27.1
477.692	27.35
478.045	27.36
478.399	27.11
478.753	27.37
479.107	27.27
479.461	27.26
479.814	27.31
480.168	27.52
480.521	27.47
480.875	27.49
481.228	27.5
481.582	27.58
481.935	27.63
482.289	27.97
482.642	27.75
482.995	27.55
483.348	27.56
483.701	27.53
484.055	27.46
484.408	27.4
484.761	27.24
485.114	26.83
485.466	26.58
485.819	26.74
486.172	26.78
486.525	27.08
486.878	27.13
487.23	27.3
487.583	27.44
487.936	27.68
488.288	27.61
488.641	27.36
488.993	27.39
489.345	27.38
489.698	27.41
490.05	27.58
490.402	27.73
490.754	27.84
491.107	27.89
491.459	28.11
491.811	28.33
492.163	28.41
492.515	28.41
492.866	28.07
493.218	27.91
493.57	27.9
493.922	28.02
494.274	28.32
494.625	28.49
494.977	28.71
495.328	29.04
495.68	29.04
496.031	29.14
496.383	29.12
496.734	29.32
497.086	29.26
497.437	29.45
497.788	29.45
498.139	29.22
498.49	29.33
498.842	29.32
499.193	29.46
499.544	29.79
499.894	29.62
500.245	29.65
500.596	29.64
500.947	29.82
501.298	29.9
501.648	30.08
501.999	29.9
502.35	30.16
502.7	30.07
503.051	30.14
503.401	30.2
503.752	30.57
504.102	30.32
504.452	30.31
504.803	30.34
505.153	30.59
505.503	30.62
505.853	30.57
506.203	30.58
506.553	30.66
506.903	30.89
507.253	30.85
507.603	30.91
507.953	31.04
508.303	31.03
508.652	30.9
509.002	31.08
509.352	30.99
509.701	31
510.051	30.89
510.4	30.82
510.75	31.01
511.099	31.05
511.449	31.08
511.798	31.23
512.147	31.16
512.496	31.19
512.846	31.49
513.195	31.45
513.544	31.31
513.893	31.41
514.242	31.47
514.591	31.47
514.939	31.52
515.288	31.46
515.637	31.53
515.986	31.93
516.334	31.94
516.683	31.75
517.032	31.99
517.38	32.1
517.729	32.25
518.077	32.16
518.426	32.34
518.774	32.15
519.122	32.02
519.47	32.09
519.819	32.05
520.167	31.86
520.515	32.02
520.863	32.01
521.211	32.16
521.559	32.14
521.907	32.31
522.255	32.38
522.602	32.61
522.95	32.8
523.298	32.66
523.645	33
523.993	32.91
524.341	32.94
524.688	32.88
525.036	32.91
525.383	33
525.73	32.91
526.078	33.2
526.425	33.19
526.772	32.91
527.119	32.93
527.466	32.76
527.814	32.55
528.161	33.02
528.508	32.92
528.854	33.01
529.201	33.13
529.548	32.94
529.895	32.57
530.242	32.43
530.588	32.42
530.935	32.77
531.282	32.81
531.628	32.99
531.975	33.24
532.321	33.31
532.667	33.43
533.014	33.61
533.36	33.69
533.706	33.73
534.052	33.64
534.399	33.81
534.745	33.49
535.091	33.3
535.437	33.55
535.783	33.62
536.129	33.93
536.474	34.03
536.82	34.22
537.166	34.31
537.512	34.28
537.857	34.27
538.203	34.27
538.549	34.22
538.894	34.34
539.239	34.37
539.585	34.51
539.93	34.91
540.276	34.82
540.621	35.03
540.966	35.04
541.311	35.27
541.656	35.14
542.001	35.26
542.346	34.86
542.691	34.65
543.036	34.46
543.381	34.47
543.726	34.56
544.071	34.73
544.415	34.92
544.76	35.07
545.105	35.03
545.449	35.3
545.794	35.45
546.138	35.42
546.483	35.75
546.827	36
547.171	35.95
547.516	36.05
547.86	35.99
548.204	36.1
548.548	35.79
548.892	35.88
549.236	35.87
549.58	36.02
549.924	36.37
550.268	36.59
550.612	36.62
550.956	36.65
551.3	36.72
551.643	36.94
551.987	37.11
552.33	37.06
552.674	37.23
553.017	37.27
553.361	37.22
553.704	36.99
554.048	37.21
554.391	37.2
554.734	37.32
555.077	37.17
555.42	37.14
555.764	37.52
556.107	37.59
556.45	37.5
556.793	37.63
557.135	37.74
557.478	37.87
557.821	37.99
558.164	37.84
558.507	37.79
558.849	38.03
559.192	38.17
559.534	38.18
559.877	37.87
560.219	38.21
560.562	38.38
560.904	38.54
561.246	38.37
561.589	38.24
561.931	38.45
562.273	38.57
562.615	38.33
562.957	38.53
563.299	38.76
563.641	38.55
563.983	38.44
564.325	38.91
564.667	39.14
565.008	38.65
565.35	38.87
565.692	38.95
566.033	38.71
566.375	39.25
566.716	39.26
567.058	39.14
567.399	39.13
567.741	39.13
568.082	39.03
568.423	38.97
568.764	39.16
569.105	39.34
569.447	39.46
569.788	39.57
570.129	39.68
570.47	39.59
570.811	39.63
571.151	39.4
571.492	39.7
571.833	39.63
572.174	39.96
572.514	39.97
572.855	40.05
573.195	39.93
573.536	39.82
573.876	40.06
574.217	40.02
574.557	39.96
574.898	40.23
575.238	40.31
575.578	40.2
575.918	40.34
576.258	40.5
576.598	40.35
576.938	40.44
577.278	40.45
577.618	40.56
577.958	40.41
578.298	40.8
578.638	40.57
578.977	40.92
579.317	40.77
579.657	41.2
579.996	41.07
580.336	41.02
580.675	41.34
581.014	41.42
581.354	41.43
581.693	41.35
582.032	41.7
582.372	41.79
582.711	41.63
583.05	41.64
583.389	41.7
583.728	41.6
584.067	41.84
584.406	42.05
584.745	42.13
585.083	41.99
585.422	42.18
585.761	42.4
586.1	41.92
586.438	42.09
586.777	42.3
587.115	42.25
587.454	42.23
587.792	42.35
588.13	42.57
588.469	42.04
588.807	42.3
589.145	42.52
589.483	42.61
589.821	42.79
590.159	42.51
590.497	42.64
590.835	42.86
591.173	42.84
591.511	42.46
591.849	42.73
592.187	43.13
592.524	42.95
592.862	42.95
593.2	42.89
593.537	42.94
593.875	43.19
594.212	43.51
594.55	43.28
594.887	43.16
595.224	43.54
595.561	43.64
595.899	43.34
596.236	43.46
596.573	43.42
596.91	43.6
597.247	43.55
597.584	43.7
597.921	43.79
598.258	43.71
598.594	43.59
598.931	43.38
599.268	43.26
599.604	43.57
599.941	43.74
600.277	43.91
600.614	44.16
600.95	44.49
601.287	44.02
601.623	44.2
601.959	44.51
602.296	44.6
602.632	44.34
602.968	44.56
603.304	44.36
603.64	44.74
603.976	44.36
604.312	44.79
604.648	44.76
604.984	44.3
605.319	44.61
605.655	44.36
605.991	44.69
606.326	44.44
606.662	44.66
606.998	44.58
607.333	44.43
607.668	44.69
608.004	44.79
608.339	45.13
608.674	44.98
609.01	45.3
609.345	45.48
609.68	45.32
610.015	45.54
610.35	45.48
610.685	45.48
611.02	45.24
611.355	45.3
611.689	45.35
612.024	45.24
612.359	45.61
612.694	45.81
613.028	45.81
613.363	45.98
613.697	46.27
614.032	46.35
614.366	46.29
614.7	46.24
615.035	46.37
615.369	46.31
615.703	46.32
616.037	46.08
616.371	45.87
616.705	46.83
617.039	46.62
617.373	46.21
617.707	46.15
618.041	46.4
618.375	46.61
618.709	46.59
619.042	46.67
619.376	46.25
619.71	47.06
620.043	47.06
620.377	46.96
620.71	46.72
621.043	47.26
621.377	46.88
621.71	46.87
622.043	46.9
622.376	47.23
622.709	46.97
623.043	47.41
623.376	47.33
623.709	47.33
624.041	47.23
624.374	47.53
624.707	47.3
625.04	47.59
625.373	47.38
625.705	47.93
626.038	47.5
626.37	47.82
626.703	47.91
627.035	47.88
627.368	47.97
627.7	48.02
628.032	47.53
628.365	47.79
628.697	47.99
629.029	47.96
629.361	47.68
629.693	48.11
630.025	48.04
630.357	48.28
630.689	47.63
631.021	48.03
631.353	48.33
631.684	48.16
632.016	48.74
632.348	48.06
632.679	47.75
633.011	48.75
633.342	48.42
633.674	48.34
634.005	49.02
634.336	48.8
634.668	48.97
634.999	48.56
635.33	49.16
635.661	49.18
635.992	49.12
636.323	48.82
636.654	48.85
636.985	48.82
637.316	48.8
637.647	49.3
637.977	49.03
638.308	49.18
638.639	49.09
638.969	49.41
639.3	49.49
639.63	49.32
639.961	49.68
640.291	49.39
640.622	49.69
640.952	49.91
641.282	49.84
641.612	50.03
641.943	49.96
642.273	49.79
642.603	50.35
642.933	50.1
643.263	50.05
643.592	50.22
643.922	50.27
644.252	49.97
644.582	49.75
644.911	49.88
645.241	50.15
645.571	50.06
645.9	50.33
646.23	49.88
646.559	50.73
646.888	50.41
647.218	51.21
647.547	50.86
647.876	50.36
648.205	50.04
648.534	50.81
648.863	51.36
649.192	51.09
649.521	50.7
649.85	50.69
650.179	50.8
650.508	51.41
650.837	51.06
651.165	50.69
651.494	50.78
651.822	51.6
652.151	51.08
652.479	50.87
652.808	51.09
653.136	50.85
653.465	51.14
653.793	51.62
654.121	51.26
654.449	51.67
654.777	51.66
655.105	51.6
655.433	51.73
655.761	51.33
656.089	51.66
656.417	51.55
656.745	51.52
657.073	51.24
657.4	51.12
657.728	51.39
658.056	51.72
658.383	51.97
658.711	51.83
659.038	52.16
659.365	52.56
659.693	51.87
660.02	52.14
660.347	51.71
660.674	51.58
661.001	52.25
661.329	52.16
661.656	52.12
661.982	51.41
662.309	51.91
662.636	51.84
662.963	52.6
663.29	52.81
663.616	52.29
663.943	52.86
664.27	52.98
664.596	53.24
664.923	53.5
665.249	52.89
665.576	52.06
665.902	52.5
666.228	52.93
666.554	52.06
666.881	52.31
667.207	52.5
667.533	52.09
667.859	52.36
668.185	52.76
668.511	52.86
668.837	52.89
669.162	52.83
