Data from 445_crown_Reflection__3__38.txt Node

Date: Tue Dec 12 18:33:19 CST 2023
User: ToomeyLab
Spectrometer: FLMS14357
Trigger mode: 0
Integration Time (sec): 1.000000E-2
Scans to average: 100
Electric dark correction enabled: true
Nonlinearity correction enabled: false
Boxcar width: 0
XAxis mode: Wavelengths
Number of Pixels in Spectrum: 2048
>>>>>Begin Spectral Data<<<<<
189.047	31.13
189.435	31.13
189.823	31.13
190.211	106.62
190.599	46.54
190.987	44.78
191.375	-145.6
191.763	17.88
192.151	73.69
192.538	-201.82
192.926	76.17
193.314	527.5
193.702	47.54
194.089	-68.62
194.477	3712.5
194.864	10.97
195.252	-105.44
195.639	-6.25
196.027	95.95
196.414	160.59
196.801	54.48
197.189	275.16
197.576	-193.06
197.963	24.39
198.351	32.75
198.738	52.35
199.125	0.02
199.512	-0.62
199.899	65.02
200.286	36.28
200.673	25.22
201.06	-0.76
201.447	-126.73
201.833	-48.52
202.22	21.84
202.607	-38.28
202.994	10.8
203.38	0.69
203.767	-4.16
204.154	1.86
204.54	53.22
204.927	-9.49
205.313	23.48
205.699	10.18
206.086	-29.88
206.472	40.26
206.858	-0.97
207.245	14.59
207.631	0.5
208.017	-8
208.403	-9.15
208.789	16.81
209.175	-9.86
209.561	8.58
209.947	6.44
210.333	30.86
210.719	10.82
211.105	-4.08
211.491	45.47
211.876	25.21
212.262	19.01
212.648	-1.77
213.034	18.45
213.419	14.31
213.805	15.26
214.19	35.17
214.576	-4.77
214.961	17.84
215.346	14.57
215.732	13.4
216.117	18.9
216.502	11.45
216.888	-0.92
217.273	-39.99
217.658	-26.01
218.043	12.52
218.428	5.51
218.813	11.5
219.198	-17.79
219.583	10.4
219.968	17.41
220.353	10.73
220.738	8.06
221.122	8.54
221.507	-8.14
221.892	-0.89
222.276	18.43
222.661	-0.14
223.046	-3.2
223.43	5.22
223.815	-3.8
224.199	6.58
224.583	0.58
224.968	15.54
225.352	-3.31
225.736	4.1
226.121	-1.41
226.505	5.99
226.889	2.52
227.273	-3.05
227.657	7.49
228.041	6.15
228.425	2.11
228.809	1.2
229.193	3.14
229.577	5.61
229.961	1.9
230.344	4.07
230.728	3.99
231.112	3.88
231.495	3.92
231.879	4
232.263	2.38
232.646	3.11
233.03	3.42
233.413	4.35
233.797	3.83
234.18	2.03
234.563	2.42
234.946	4.43
235.33	3.48
235.713	3.36
236.096	3.38
236.479	3.1
236.862	3.11
237.245	4.97
237.628	4.31
238.011	4.73
238.394	4.42
238.777	5.83
239.16	2.71
239.543	4.73
239.925	4.2
240.308	3.29
240.691	3.6
241.073	3.68
241.456	3.37
241.838	4.18
242.221	4.18
242.603	4.6
242.986	4.07
243.368	3.48
243.75	3.44
244.133	3.29
244.515	4.15
244.897	3.89
245.279	4.52
245.661	3.38
246.043	3.69
246.425	5.45
246.807	3.25
247.189	3.33
247.571	4.39
247.953	3.36
248.335	4.04
248.717	3.87
249.098	3.99
249.48	4.16
249.862	3.79
250.243	3.63
250.625	4.26
251.006	4.15
251.388	4.15
251.769	4.2
252.151	3.09
252.532	4.72
252.913	4.4
253.295	4.63
253.676	3.73
254.057	3.64
254.438	4.57
254.819	3.59
255.2	3.94
255.581	4.38
255.962	3.24
256.343	3.81
256.724	2.53
257.105	3.61
257.486	3.61
257.867	3.13
258.247	3.68
258.628	3.88
259.009	4.06
259.389	3.78
259.77	3.47
260.15	3.93
260.531	4.09
260.911	4.19
261.292	3.59
261.672	3.58
262.052	3.79
262.432	3.87
262.813	3.93
263.193	4.21
263.573	3.77
263.953	4.81
264.333	4.54
264.713	3.68
265.093	4.16
265.473	4.02
265.853	3.43
266.233	3.84
266.612	3.45
266.992	3.92
267.372	3.7
267.752	4.37
268.131	3.28
268.511	3.39
268.89	2.83
269.27	3.2
269.649	3.57
270.029	3.7
270.408	3.97
270.787	2.92
271.167	3.19
271.546	4.39
271.925	3.93
272.304	3.55
272.683	3.23
273.062	3.68
273.441	3.72
273.82	3.36
274.199	3.33
274.578	3.07
274.957	3.4
275.336	3.46
275.715	3.5
276.093	2.81
276.472	3.5
276.851	3.23
277.229	3.42
277.608	3.34
277.986	3.51
278.365	3.79
278.743	3.64
279.122	3.8
279.5	3.4
279.878	3.13
280.257	3.21
280.635	3.48
281.013	3.53
281.391	3.64
281.769	3.2
282.147	3.08
282.525	3.19
282.903	3.18
283.281	3.54
283.659	3.59
284.037	4
284.415	4.11
284.792	3.39
285.17	3.25
285.548	3.71
285.925	3.86
286.303	3.45
286.68	3.68
287.058	3.94
287.435	3.51
287.813	3.19
288.19	3.56
288.567	3.5
288.945	3.54
289.322	3.48
289.699	3.51
290.076	3.51
290.453	3.79
290.83	3.66
291.207	4.1
291.584	4.06
291.961	4.02
292.338	4.04
292.715	3.78
293.092	4.17
293.469	3.67
293.845	3.84
294.222	4.11
294.599	4.05
294.975	4.3
295.352	4.59
295.728	4.4
296.105	4.41
296.481	4.28
296.858	4.5
297.234	4.52
297.61	4.65
297.986	4.7
298.363	4.29
298.739	4.54
299.115	4.24
299.491	4.63
299.867	4.66
300.243	4.23
300.619	4.64
300.995	4.96
301.371	5.05
301.746	4.56
302.122	4.99
302.498	4.69
302.874	4.98
303.249	4.99
303.625	4.16
304	4.9
304.376	5.1
304.751	4.57
305.127	4.67
305.502	4.97
305.878	4.52
306.253	4.63
306.628	4.54
307.003	5.12
307.378	4.68
307.754	4.67
308.129	4.6
308.504	5.42
308.879	4.63
309.254	5.51
309.629	5.01
310.003	4.96
310.378	4.68
310.753	5.08
311.128	4.96
311.502	4.58
311.877	4.37
312.252	4.14
312.626	4.97
313.001	4.46
313.375	4.41
313.75	4.69
314.124	4.95
314.498	4.64
314.873	4.79
315.247	5.04
315.621	4.69
315.995	5.52
316.369	5.29
316.743	4.73
317.117	4.43
317.491	4.56
317.865	5.18
318.239	5.12
318.613	5.26
318.987	5.37
319.361	4.64
319.734	5.07
320.108	4.76
320.482	4.23
320.855	4.34
321.229	4.73
321.602	4.89
321.976	5.47
322.349	5.04
322.723	4.87
323.096	5.27
323.469	5.3
323.843	5.53
324.216	5.14
324.589	4.96
324.962	5.59
325.335	5.9
325.708	4.96
326.081	5.19
326.454	5
326.827	5.67
327.2	5.53
327.573	5.14
327.945	5.18
328.318	5.38
328.691	4.86
329.063	5.51
329.436	5.11
329.809	4.99
330.181	4.89
330.553	5.21
330.926	5.51
331.298	5.04
331.671	5.57
332.043	5.41
332.415	5.3
332.787	5.21
333.159	5.62
333.532	5.17
333.904	5.33
334.276	5.64
334.648	5.16
335.02	4.82
335.391	5.57
335.763	5.25
336.135	5.27
336.507	5.88
336.879	5.95
337.25	5.64
337.622	4.87
337.993	5.33
338.365	4.42
338.736	5.64
339.108	5.41
339.479	5.7
339.851	4.92
340.222	4.57
340.593	4.88
340.964	5.76
341.336	5.37
341.707	5
342.078	4.8
342.449	5.19
342.82	5.47
343.191	5.44
343.562	5.16
343.933	5.73
344.303	5.15
344.674	5.72
345.045	5.29
345.416	5.03
345.786	5.11
346.157	5.21
346.527	5.76
346.898	5.11
347.268	4.9
347.639	5.15
348.009	4.8
348.38	5.01
348.75	5.6
349.12	5.08
349.49	4.61
349.861	5.63
350.231	5.16
350.601	6.2
350.971	5.21
351.341	5.22
351.711	5.4
352.081	5.17
352.45	5.13
352.82	5.54
353.19	5.2
353.56	4.98
353.929	4.84
354.299	5.1
354.669	5.23
355.038	4.72
355.408	5.3
355.777	5.72
356.147	5.03
356.516	5.26
356.885	5.36
357.254	5.37
357.624	5.21
357.993	5.36
358.362	5.07
358.731	5.24
359.1	4.89
359.469	5.1
359.838	4.96
360.207	4.82
360.576	5.18
360.945	4.65
361.314	5.35
361.682	5.23
362.051	5.49
362.42	4.98
362.788	4.83
363.157	5.44
363.525	5
363.894	4.87
364.262	4.8
364.631	4.66
364.999	5.26
365.367	5.36
365.735	5.25
366.104	5.23
366.472	5.13
366.84	5.14
367.208	5.15
367.576	5.11
367.944	5.25
368.312	5.31
368.68	4.95
369.048	5.01
369.416	5.34
369.783	4.97
370.151	5.17
370.519	4.94
370.886	5.26
371.254	5.3
371.621	5.57
371.989	5.02
372.356	5.3
372.724	4.99
373.091	5
373.458	5.21
373.826	5.1
374.193	5.12
374.56	5.35
374.927	5.21
375.294	5.23
375.661	5.19
376.028	5.54
376.395	5.51
376.762	5.52
377.129	5.42
377.496	5.24
377.863	5.16
378.229	5.05
378.596	5.09
378.963	5.23
379.329	4.98
379.696	5.2
380.062	5.41
380.429	5.18
380.795	5.2
381.161	5.29
381.528	5.47
381.894	5.45
382.26	5.19
382.626	5.23
382.993	5.24
383.359	5.19
383.725	5.13
384.091	5.16
384.457	5.04
384.823	5.17
385.188	5.52
385.554	5.34
385.92	5.47
386.286	5.23
386.651	5.25
387.017	5.46
387.383	5.41
387.748	5.38
388.114	5.34
388.479	5.2
388.845	5.44
389.21	5.49
389.575	5.12
389.94	5.32
390.306	5.19
390.671	5.23
391.036	5.32
391.401	5.21
391.766	5.45
392.131	5.29
392.496	5.16
392.861	5.15
393.226	5.57
393.591	5.31
393.956	5.07
394.32	5.34
394.685	5.25
395.05	5.08
395.414	5.47
395.779	5.09
396.143	5.43
396.508	5.14
396.872	5.13
397.236	5.11
397.601	5.18
397.965	5.52
398.329	5.29
398.694	5.13
399.058	5.34
399.422	5.32
399.786	5.43
400.15	5.25
400.514	5.71
400.878	5.35
401.242	5.16
401.605	5.3
401.969	5.37
402.333	5.49
402.697	5.52
403.06	5.26
403.424	5.6
403.787	5.49
404.151	5.65
404.514	5.16
404.878	5.34
405.241	5.4
405.604	5.19
405.968	5.41
406.331	5.43
406.694	5.45
407.057	5.22
407.42	5.42
407.783	5.2
408.146	5.28
408.509	5.18
408.872	5.41
409.235	5.39
409.598	5.32
409.961	5.26
410.323	5.42
410.686	5.42
411.049	5.52
411.411	5.77
411.774	5.5
412.136	5.31
412.499	5.45
412.861	5.38
413.223	5.61
413.586	5.36
413.948	5.53
414.31	5.35
414.672	5.67
415.035	5.24
415.397	5.46
415.759	5.39
416.121	5.52
416.483	5.41
416.845	5.37
417.206	5.83
417.568	5.33
417.93	5.51
418.292	5.37
418.653	5.48
419.015	5.37
419.377	5.37
419.738	5.4
420.1	5.39
420.461	5.35
420.822	5.56
421.184	5.44
421.545	5.63
421.906	5.36
422.267	5.45
422.629	5.36
422.99	5.43
423.351	5.36
423.712	5.37
424.073	5.33
424.434	5.46
424.795	5.38
425.155	5.42
425.516	5.38
425.877	5.39
426.238	5.39
426.598	5.36
426.959	5.47
427.32	5.49
427.68	5.38
428.041	5.65
428.401	5.65
428.761	5.44
429.122	5.76
429.482	5.71
429.842	5.9
430.202	5.54
430.563	5.31
430.923	5.59
431.283	5.53
431.643	5.87
432.003	5.54
432.363	5.46
432.722	5.47
433.082	5.53
433.442	5.62
433.802	5.66
434.161	5.58
434.521	5.75
434.881	5.61
435.24	5.5
435.6	5.61
435.959	5.64
436.319	5.66
436.678	5.74
437.037	5.61
437.396	5.42
437.756	5.64
438.115	5.53
438.474	5.77
438.833	5.79
439.192	5.92
439.551	5.63
439.91	5.59
440.269	5.53
440.628	5.57
440.987	5.51
441.345	5.75
441.704	5.55
442.063	5.71
442.421	5.58
442.78	5.63
443.138	5.65
443.497	5.66
443.855	5.6
444.214	5.63
444.572	5.76
444.93	5.7
445.288	5.63
445.647	5.67
446.005	5.81
446.363	5.59
446.721	5.69
447.079	5.7
447.437	5.56
447.795	5.64
448.153	5.55
448.51	5.73
448.868	5.63
449.226	5.73
449.584	5.68
449.941	5.67
450.299	5.78
450.656	5.74
451.014	5.78
451.371	5.84
451.729	5.89
452.086	5.81
452.443	5.93
452.801	5.85
453.158	5.86
453.515	5.86
453.872	5.87
454.229	5.9
454.586	5.58
454.943	5.82
455.3	5.88
455.657	5.95
456.014	5.97
456.371	5.92
456.727	5.95
457.084	5.87
457.441	5.76
457.797	5.87
458.154	5.85
458.51	5.89
458.867	5.94
459.223	6.15
459.58	5.96
459.936	5.84
460.292	5.95
460.648	5.89
461.005	5.9
461.361	5.84
461.717	5.97
462.073	5.73
462.429	5.83
462.785	5.84
463.141	5.89
463.496	5.85
463.852	6.09
464.208	6.14
464.564	5.95
464.919	6.06
465.275	6.01
465.631	6.32
465.986	6.09
466.342	5.97
466.697	6.15
467.052	6.32
467.408	6.13
467.763	6.13
468.118	6.15
468.473	6.15
468.829	6.15
469.184	5.98
469.539	6.06
469.894	6.15
470.249	6.14
470.603	6.04
470.958	6.05
471.313	6.36
471.668	6.16
472.023	6.08
472.377	6.19
472.732	6.31
473.086	6.2
473.441	6.3
473.795	6.25
474.15	6.12
474.504	5.97
474.859	6.15
475.213	6.08
475.567	6.18
475.921	6.13
476.275	6.15
476.63	6.06
476.984	6.17
477.338	6.21
477.692	6
478.045	6.2
478.399	6.11
478.753	6.1
479.107	6.16
479.461	6.24
479.814	6.26
480.168	6.07
480.521	6.06
480.875	6.23
481.228	6.3
481.582	6.17
481.935	6.28
482.289	6.31
482.642	6.38
482.995	6.25
483.348	6.07
483.701	6.32
484.055	6.16
484.408	6.14
484.761	6.05
485.114	5.9
485.466	5.86
485.819	5.83
486.172	5.83
486.525	5.93
486.878	5.92
487.23	5.99
487.583	6.06
487.936	6.17
488.288	6.02
488.641	6.02
488.993	6.03
489.345	6.01
489.698	5.98
490.05	6.06
490.402	6
490.754	6.08
491.107	6.09
491.459	6.16
491.811	6.23
492.163	6.17
492.515	6.22
492.866	6.15
493.218	6.01
493.57	6.04
493.922	6.06
494.274	6.17
494.625	6.31
494.977	6.38
495.328	6.4
495.68	6.27
496.031	6.53
496.383	6.41
496.734	6.42
497.086	6.38
497.437	6.43
497.788	6.48
498.139	6.42
498.49	6.41
498.842	6.36
499.193	6.39
499.544	6.4
499.894	6.4
500.245	6.49
500.596	6.62
500.947	6.49
501.298	6.48
501.648	6.55
501.999	6.57
502.35	6.58
502.7	6.65
503.051	6.63
503.401	6.51
503.752	6.59
504.102	6.62
504.452	6.66
504.803	6.59
505.153	6.61
505.503	6.7
505.853	6.64
506.203	6.6
506.553	6.67
506.903	6.88
507.253	6.66
507.603	6.72
507.953	6.66
508.303	6.76
508.652	6.64
509.002	6.73
509.352	6.69
509.701	6.66
510.051	6.78
510.4	6.61
510.75	6.64
511.099	6.6
511.449	6.65
511.798	6.7
512.147	6.62
512.496	6.78
512.846	6.77
513.195	6.64
513.544	6.67
513.893	6.72
514.242	6.62
514.591	6.68
514.939	6.73
515.288	6.73
515.637	6.66
515.986	6.7
516.334	6.93
516.683	6.78
517.032	6.86
517.38	6.72
517.729	6.83
518.077	6.78
518.426	6.92
518.774	6.88
519.122	6.91
519.47	6.68
519.819	6.7
520.167	6.73
520.515	6.61
520.863	6.71
521.211	6.62
521.559	6.85
521.907	6.83
522.255	6.87
522.602	6.87
522.95	6.92
523.298	6.87
523.645	6.98
523.993	6.91
524.341	6.87
524.688	6.91
525.036	6.95
525.383	6.87
525.73	6.9
526.078	6.93
526.425	6.87
526.772	6.77
527.119	6.88
527.466	6.91
527.814	6.81
528.161	6.91
528.508	6.88
528.854	6.92
529.201	6.81
529.548	6.79
529.895	6.74
530.242	6.62
530.588	6.64
530.935	6.71
531.282	6.74
531.628	6.78
531.975	6.8
532.321	6.77
532.667	6.87
533.014	6.97
533.36	6.94
533.706	6.92
534.052	6.98
534.399	7.06
534.745	6.9
535.091	6.8
535.437	6.9
535.783	6.81
536.129	6.96
536.474	7.04
536.82	6.97
537.166	7.13
537.512	7.15
537.857	7.08
538.203	7.05
538.549	6.99
538.894	7.07
539.239	7.06
539.585	6.98
539.93	7.18
540.276	7.09
540.621	7.25
540.966	7.16
541.311	7.23
541.656	7.22
542.001	7.19
542.346	7.13
542.691	7.08
543.036	7.01
543.381	6.94
543.726	7.03
544.071	7.01
544.415	7.02
544.76	7.11
545.105	7.15
545.449	7.25
545.794	7.32
546.138	7.1
546.483	7.31
546.827	7.32
547.171	7.43
547.516	7.37
547.86	7.42
548.204	7.44
548.548	7.28
548.892	7.4
549.236	7.34
549.58	7.43
549.924	7.33
550.268	7.42
550.612	7.47
550.956	7.47
551.3	7.79
551.643	7.59
551.987	7.59
552.33	7.53
552.674	7.74
553.017	7.64
553.361	7.73
553.704	7.53
554.048	7.6
554.391	7.66
554.734	7.63
555.077	7.72
555.42	7.53
555.764	7.73
556.107	7.58
556.45	7.59
556.793	7.54
557.135	7.67
557.478	7.57
557.821	7.8
558.164	7.82
558.507	7.81
558.849	7.8
559.192	7.74
559.534	7.75
559.877	7.72
560.219	7.68
560.562	7.75
560.904	7.8
561.246	7.79
561.589	7.85
561.931	7.79
562.273	7.64
562.615	7.83
562.957	8.07
563.299	7.85
563.641	7.76
563.983	7.99
564.325	7.93
564.667	7.91
565.008	7.57
565.35	7.63
565.692	7.95
566.033	7.98
566.375	7.88
566.716	7.78
567.058	7.88
567.399	7.97
567.741	7.98
568.082	7.96
568.423	7.89
568.764	7.99
569.105	7.84
569.447	7.96
569.788	7.99
570.129	7.74
570.47	7.96
570.811	7.84
571.151	8.07
571.492	8.1
571.833	8.09
572.174	8.25
572.514	8.08
572.855	8.22
573.195	7.83
573.536	7.84
573.876	7.98
574.217	8.14
574.557	7.84
574.898	8.12
575.238	8.1
575.578	8.07
575.918	7.95
576.258	8.19
576.598	8.08
576.938	8.07
577.278	8.11
577.618	8.14
577.958	7.99
578.298	8.19
578.638	8.1
578.977	8.08
579.317	8.34
579.657	8.3
579.996	8.2
580.336	8.37
580.675	8.3
581.014	8.3
581.354	8.34
581.693	8.23
582.032	8.22
582.372	8.51
582.711	8.41
583.05	8.36
583.389	8.43
583.728	8.32
584.067	8.6
584.406	8.54
584.745	8.37
585.083	8.28
585.422	8.59
585.761	8.53
586.1	8.18
586.438	8.45
586.777	8.55
587.115	8.42
587.454	8.69
587.792	8.48
588.13	8.55
588.469	8.65
588.807	8.41
589.145	8.46
589.483	8.45
589.821	8.82
590.159	8.69
590.497	8.5
590.835	8.74
591.173	8.63
591.511	8.55
591.849	8.62
592.187	8.8
592.524	8.41
592.862	8.56
593.2	8.43
593.537	8.56
593.875	8.72
594.212	8.75
594.55	8.79
594.887	9.17
595.224	8.43
595.561	8.79
595.899	8.69
596.236	8.68
596.573	8.67
596.91	8.79
597.247	8.78
597.584	8.66
597.921	8.8
598.258	8.9
598.594	8.68
598.931	8.58
599.268	8.63
599.604	8.6
599.941	8.7
600.277	8.66
600.614	8.98
600.95	8.87
601.287	8.71
601.623	8.95
601.959	9.09
602.296	9.28
602.632	8.93
602.968	8.95
603.304	8.78
603.64	9.25
603.976	8.74
604.312	8.78
604.648	8.9
604.984	8.99
605.319	9.05
605.655	9.01
605.991	8.97
606.326	8.74
606.662	8.89
606.998	8.71
607.333	8.83
607.668	9.07
608.004	9.02
608.339	9.2
608.674	9.06
609.01	8.96
609.345	9.32
609.68	9.01
610.015	8.81
610.35	9.15
610.685	9.08
611.02	9.16
611.355	8.98
611.689	8.97
612.024	9.03
612.359	9.25
612.694	8.98
613.028	9.11
613.363	9.02
613.697	9.2
614.032	9.17
614.366	9.41
614.7	9.3
615.035	9.33
615.369	9.38
615.703	9.26
616.037	8.86
616.371	9.22
616.705	9.22
617.039	9.73
617.373	9.18
617.707	9.32
618.041	9.25
618.375	9.13
618.709	9.39
619.042	9.39
619.376	9.31
619.71	9.27
620.043	9.19
620.377	9.22
620.71	9.29
621.043	9.38
621.377	9.27
621.71	9.74
622.043	9.37
622.376	9.43
622.709	9.37
623.043	9.26
623.376	9.72
623.709	9.65
624.041	9.47
624.374	9.48
624.707	9.56
625.04	9.58
625.373	9.9
625.705	9.49
626.038	9.39
626.37	9.91
626.703	9.78
627.035	9.55
627.368	10.1
627.7	9.57
628.032	9.46
628.365	9.73
628.697	9.62
629.029	9.98
629.361	9.56
629.693	9.23
630.025	9.28
630.357	9.72
630.689	9.84
631.021	9.97
631.353	10.19
631.684	9.43
632.016	9.48
632.348	9.85
632.679	9.29
633.011	10.23
633.342	9.8
633.674	10.25
634.005	9.75
634.336	9.81
634.668	9.9
634.999	9.8
635.33	10.06
635.661	10.14
635.992	10.1
636.323	9.56
636.654	9.91
636.985	10.19
637.316	9.84
637.647	9.99
637.977	10.06
638.308	9.9
638.639	10
638.969	10.16
639.3	9.86
639.63	10.38
639.961	10.01
640.291	9.36
640.622	10.37
640.952	10.28
641.282	9.86
641.612	10.06
641.943	10.22
642.273	9.94
642.603	10.48
642.933	10.24
643.263	9.83
643.592	10.05
643.922	10.7
644.252	10.19
644.582	10.25
644.911	10.3
645.241	10.35
645.571	10.32
645.9	10.09
646.23	10.02
646.559	10.61
646.888	10.92
647.218	10.52
647.547	9.95
647.876	10.6
648.205	10.14
648.534	10.44
648.863	10.43
649.192	10.88
649.521	10.82
649.85	10.07
650.179	10.32
650.508	10.59
650.837	10.69
651.165	10.18
651.494	9.87
651.822	10.43
652.151	10.87
652.479	10.49
652.808	10.44
653.136	10.46
653.465	10.36
653.793	10.8
654.121	10.41
654.449	10.48
654.777	10.23
655.105	10.71
655.433	10.53
655.761	10.9
656.089	10.46
656.417	10.43
656.745	10.38
657.073	10.21
657.4	10.55
657.728	10.07
658.056	10.53
658.383	10.73
658.711	10.54
659.038	10.44
659.365	10.2
659.693	10.46
660.02	10.49
660.347	10.94
660.674	10.97
661.001	10.67
661.329	10.74
661.656	11.01
661.982	10.75
662.309	10.79
662.636	10.67
662.963	10.61
663.29	11.1
663.616	10.82
663.943	10.86
664.27	11.21
664.596	10.66
664.923	11.59
665.249	10.8
665.576	11.29
665.902	10.61
666.228	11.39
666.554	11.06
666.881	10.21
667.207	11.06
667.533	11.28
667.859	10.68
668.185	11.01
668.511	11.27
668.837	11.3
669.162	11.76
669.488	11.07
669.814	11.18
670.139	10.35
670.465	10.46
670.791	11.35
671.116	10.79
671.442	10.88
671.767	10.98
672.092	11.81
672.418	11.34
672.743	11.28
673.068	10.61
673.393	11.56
673.718	11.12
674.043	11.1
674.368	10.72
674.693	11.24
675.018	11.27
675.343	11.17
675.667	11.83
675.992	10.87
676.317	11.32
676.641	11.36
676.966	11.89
677.29	10.77
677.615	11.46
677.939	11.56
678.264	11.51
678.588	11.46
678.912	11.54
679.236	11.62
679.56	11.63
679.885	11.55
680.209	11.72
680.532	11.42
680.856	11.95
681.18	11.25
681.504	11.6
681.828	11.71
682.152	11.39
682.475	11.68
682.799	11.81
683.122	11.81
683.446	11.38
683.769	12.09
684.093	11.05
684.416	11.73
684.739	12.09
685.062	11.46
685.386	12.16
685.709	12.14
686.032	11.71
686.355	11.71
686.678	11.72
687.001	11.72
687.324	11.53
687.646	11.64
687.969	11.63
688.292	11.82
688.614	11.79
688.937	12.18
689.26	12.2
