Data from 445_forehead_Reflection__4__44.txt Node

Date: Tue Dec 12 18:34:47 CST 2023
User: ToomeyLab
Spectrometer: FLMS14357
Trigger mode: 0
Integration Time (sec): 1.000000E-2
Scans to average: 100
Electric dark correction enabled: true
Nonlinearity correction enabled: false
Boxcar width: 0
XAxis mode: Wavelengths
Number of Pixels in Spectrum: 2048
>>>>>Begin Spectral Data<<<<<
189.047	-116.18
189.435	-116.18
189.823	-116.18
190.211	-1057.35
190.599	7.53
190.987	12.93
191.375	-46.38
191.763	156.01
192.151	123.34
192.538	-589.06
192.926	104.6
193.314	-97
193.702	68.02
194.089	122.9
194.477	5925
194.864	71.72
195.252	5.2
195.639	-38.14
196.027	427.11
196.414	73.65
196.801	175
197.189	-66.56
197.576	262.78
197.963	40.52
198.351	14.57
198.738	17.71
199.125	34.97
199.512	11.01
199.899	4.04
200.286	9.5
200.673	22.42
201.06	45.44
201.447	-4.19
201.833	47.05
202.22	11.64
202.607	-55.6
202.994	56.1
203.38	104.33
203.767	24.31
204.154	39.54
204.54	58.16
204.927	6.66
205.313	70.55
205.699	58.23
206.086	9.2
206.472	23.51
206.858	30.13
207.245	37.51
207.631	25.59
208.017	29.32
208.403	36.79
208.789	27.23
209.175	5.17
209.561	38.67
209.947	13.76
210.333	45.52
210.719	4.92
211.105	38.24
211.491	68.67
211.876	42.13
212.262	19.21
212.648	30.29
213.034	12.19
213.419	35.32
213.805	21.52
214.19	47.37
214.576	38.83
214.961	32.57
215.346	19.65
215.732	47.46
216.117	14.1
216.502	0.84
216.888	6.7
217.273	21.09
217.658	-1.25
218.043	23.27
218.428	38.66
218.813	42.4
219.198	1.62
219.583	25.5
219.968	34.68
220.353	19.83
220.738	21.04
221.122	13.32
221.507	10.49
221.892	9.93
222.276	27.28
222.661	19.67
223.046	-7.14
223.43	18.38
223.815	14.06
224.199	12.67
224.583	10.23
224.968	8.97
225.352	11.69
225.736	10.29
226.121	2.23
226.505	10
226.889	8.65
227.273	9.46
227.657	9.47
228.041	8.8
228.425	6.25
228.809	5.6
229.193	7.12
229.577	5.33
229.961	4
230.344	3.7
230.728	5.34
231.112	4.9
231.495	4.3
231.879	5.13
232.263	4.61
232.646	4.25
233.03	5.53
233.413	4.03
233.797	4.98
234.18	3.04
234.563	5.94
234.946	5.18
235.33	6.47
235.713	5.63
236.096	3.88
236.479	6.72
236.862	5.5
237.245	5.46
237.628	5.08
238.011	4.38
238.394	3.64
238.777	5.01
239.16	4.87
239.543	4.25
239.925	7.11
240.308	4.48
240.691	5.21
241.073	6.61
241.456	4.71
241.838	3.9
242.221	6.19
242.603	4.54
242.986	4.35
243.368	5.33
243.75	3.56
244.133	4.08
244.515	4.58
244.897	4.17
245.279	5.09
245.661	4.6
246.043	4.59
246.425	5.13
246.807	4.66
247.189	4.5
247.571	4.63
247.953	4.52
248.335	4.24
248.717	4.09
249.098	4.15
249.48	3.92
249.862	3.93
250.243	4.13
250.625	4.93
251.006	5.15
251.388	4.97
251.769	5.57
252.151	3.74
252.532	5.43
252.913	5.67
253.295	5.64
253.676	4.12
254.057	4.25
254.438	5.12
254.819	4.38
255.2	4.97
255.581	4.8
255.962	4.28
256.343	3.97
256.724	5.77
257.105	6.08
257.486	5.07
257.867	5.06
258.247	4.83
258.628	5.54
259.009	4.27
259.389	5.08
259.77	4.96
260.15	4.85
260.531	5.14
260.911	5.01
261.292	4.19
261.672	4.14
262.052	4.08
262.432	4.1
262.813	4.69
263.193	4.82
263.573	5.61
263.953	5.28
264.333	5.21
264.713	5.11
265.093	4.6
265.473	4.73
265.853	3.59
266.233	4.95
266.612	4.64
266.992	4.26
267.372	5.07
267.752	5.58
268.131	4.34
268.511	4.93
268.89	3.82
269.27	3.96
269.649	4.57
270.029	4.31
270.408	5.4
270.787	4.1
271.167	4.66
271.546	4.74
271.925	4.96
272.304	5.24
272.683	4.01
273.062	4.66
273.441	4.55
273.82	3.54
274.199	4.23
274.578	4.41
274.957	3.9
275.336	4.63
275.715	4.67
276.093	4.23
276.472	4.66
276.851	4.85
277.229	4.55
277.608	4.41
277.986	4.45
278.365	4.78
278.743	4.47
279.122	5.12
279.5	4.67
279.878	3.88
280.257	3.64
280.635	4.37
281.013	4.69
281.391	4.79
281.769	4.63
282.147	4.74
282.525	4.46
282.903	4.08
283.281	4.65
283.659	4.72
284.037	4.5
284.415	4.71
284.792	4.6
285.17	4.15
285.548	5.04
285.925	4.75
286.303	4.32
286.68	4.67
287.058	4.77
287.435	4.37
287.813	4.36
288.19	4.59
288.567	5.05
288.945	4.37
289.322	4.17
289.699	4.92
290.076	5.14
290.453	5.62
290.83	4.79
291.207	5.52
291.584	5.05
291.961	4.86
292.338	5.18
292.715	4.8
293.092	4.62
293.469	5.19
293.845	5.09
294.222	5.32
294.599	5.26
294.975	5.12
295.352	5.1
295.728	5.59
296.105	5.6
296.481	5.78
296.858	5.78
297.234	5.73
297.61	5.97
297.986	5.7
298.363	5.68
298.739	5.54
299.115	5.26
299.491	5.65
299.867	5.66
300.243	5.65
300.619	6.19
300.995	5.99
301.371	6.15
301.746	6.37
302.122	6.72
302.498	6.23
302.874	6.58
303.249	6.88
303.625	5.99
304	6.45
304.376	6.77
304.751	6.44
305.127	6.95
305.502	7.16
305.878	6.73
306.253	6.94
306.628	6.8
307.003	7.18
307.378	7.01
307.754	7.35
308.129	6.9
308.504	8.13
308.879	7.11
309.254	7.72
309.629	7.41
310.003	7.41
310.378	7.62
310.753	7.91
311.128	7.65
311.502	6.85
311.877	7.29
312.252	7.32
312.626	7.53
313.001	7.68
313.375	7.46
313.75	8.17
314.124	8.23
314.498	7.9
314.873	8.12
315.247	8.37
315.621	8.05
315.995	8.34
316.369	8.12
316.743	8.12
317.117	7.78
317.491	8.5
317.865	9.09
318.239	8.6
318.613	8.63
318.987	9.15
319.361	8.76
319.734	8.82
320.108	8.96
320.482	8.78
320.855	8.82
321.229	9.87
321.602	9
321.976	9.49
322.349	9.59
322.723	9.02
323.096	9.71
323.469	9.48
323.843	9.97
324.216	9.63
324.589	9.53
324.962	9.79
325.335	10.09
325.708	9.88
326.081	9.91
326.454	10.04
326.827	10.7
327.2	10.1
327.573	9.54
327.945	10.2
328.318	10.15
328.691	9.52
329.063	10.73
329.436	10.27
329.809	10.12
330.181	10.01
330.553	10.58
330.926	10.41
331.298	10.34
331.671	10.86
332.043	10.55
332.415	10.57
332.787	11.18
333.159	10.43
333.532	11.21
333.904	10.98
334.276	11.88
334.648	11.2
335.02	10.44
335.391	11.2
335.763	11.05
336.135	11.31
336.507	11.82
336.879	11.54
337.25	11.25
337.622	11.6
337.993	11.17
338.365	11.63
338.736	11.66
339.108	11.66
339.479	11.54
339.851	11.38
340.222	11.28
340.593	11.27
340.964	12.02
341.336	11.64
341.707	11.5
342.078	11.87
342.449	11.82
342.82	12.19
343.191	12.34
343.562	12.08
343.933	12.94
344.303	12.83
344.674	12.6
345.045	12.44
345.416	12.4
345.786	12.36
346.157	12.4
346.527	12.75
346.898	12.47
347.268	12.69
347.639	12.87
348.009	12.12
348.38	12.34
348.75	13.02
349.12	13.14
349.49	12.75
349.861	13.43
350.231	12.74
350.601	13.35
350.971	13.08
351.341	13.11
351.711	13.08
352.081	13.19
352.45	13.62
352.82	13.55
353.19	13.12
353.56	12.62
353.929	13.27
354.299	13.27
354.669	13.75
355.038	12.45
355.408	13.22
355.777	14.09
356.147	13.49
356.516	13.6
356.885	13.65
357.254	13.34
357.624	13.79
357.993	13.6
358.362	13.54
358.731	13.94
359.1	13.5
359.469	13.71
359.838	14.05
360.207	14.2
360.576	13.99
360.945	14.08
361.314	14.44
361.682	14.25
362.051	14.19
362.42	14.39
362.788	14
363.157	14.58
363.525	14.24
363.894	13.89
364.262	14.22
364.631	14.14
364.999	14.49
365.367	14.43
365.735	14.23
366.104	14.57
366.472	14.53
366.84	14.56
367.208	14.6
367.576	15.02
367.944	14.92
368.312	14.96
368.68	15.08
369.048	14.91
369.416	14.75
369.783	15.16
370.151	14.68
370.519	14.59
370.886	15.16
371.254	15.16
371.621	15.4
371.989	14.74
372.356	15.26
372.724	15.21
373.091	15.3
373.458	15.53
373.826	15.7
374.193	15.18
374.56	15.67
374.927	15.32
375.294	15.76
375.661	15.94
376.028	15.96
376.395	16
376.762	16.05
377.129	15.66
377.496	15.88
377.863	15.62
378.229	15.92
378.596	15.66
378.963	15.92
379.329	15.56
379.696	15.96
380.062	16.48
380.429	15.92
380.795	16.39
381.161	16.64
381.528	16.27
381.894	16.44
382.26	16.29
382.626	16.47
382.993	16.75
383.359	16.73
383.725	16.58
384.091	16.59
384.457	16.31
384.823	16.78
385.188	16.75
385.554	16.54
385.92	16.58
386.286	17.24
386.651	17.24
387.017	16.81
387.383	16.91
387.748	17.02
388.114	16.88
388.479	17.22
388.845	17.06
389.21	17.19
389.575	17.09
389.94	17.04
390.306	17.34
390.671	17.17
391.036	17.49
391.401	17.22
391.766	17.54
392.131	17.49
392.496	17.33
392.861	17.42
393.226	17.51
393.591	17.48
393.956	17.45
394.32	17.49
394.685	17.85
395.05	17.7
395.414	17.62
395.779	17.66
396.143	17.67
396.508	17.76
396.872	17.97
397.236	18.11
397.601	18.01
397.965	18.19
398.329	18.14
398.694	18.12
399.058	18.32
399.422	18.19
399.786	18.09
400.15	18.05
400.514	18.76
400.878	18.34
401.242	18.47
401.605	18.65
401.969	18.34
402.333	18.79
402.697	18.22
403.06	18.51
403.424	18.79
403.787	18.45
404.151	18.89
404.514	18.34
404.878	18.66
405.241	18.71
405.604	18.7
405.968	18.78
406.331	18.92
406.694	18.94
407.057	18.94
407.42	18.96
407.783	19.08
408.146	19.21
408.509	18.98
408.872	19.23
409.235	19.28
409.598	19.26
409.961	19.13
410.323	19.34
410.686	19.42
411.049	19.44
411.411	19.59
411.774	19.48
412.136	19.77
412.499	19.72
412.861	19.65
413.223	20.01
413.586	19.27
413.948	19.67
414.31	19.75
414.672	19.86
415.035	19.95
415.397	19.65
415.759	19.97
416.121	19.99
416.483	19.98
416.845	19.94
417.206	20.41
417.568	20.06
417.93	20.18
418.292	19.92
418.653	20.22
419.015	20.17
419.377	20.03
419.738	20.35
420.1	20.12
420.461	20.19
420.822	20.07
421.184	20.14
421.545	20.34
421.906	20.09
422.267	20.2
422.629	20.32
422.99	20.11
423.351	20.25
423.712	20.27
424.073	20.39
424.434	20.4
424.795	20.54
425.155	20.51
425.516	20.42
425.877	20.54
426.238	20.55
426.598	20.59
426.959	20.56
427.32	20.65
427.68	20.77
428.041	21.04
428.401	21.01
428.761	20.9
429.122	21.31
429.482	21.24
429.842	21.47
430.202	21.4
430.563	21.45
430.923	21.51
431.283	21.4
431.643	21.71
432.003	21.6
432.363	21.71
432.722	21.7
433.082	21.8
433.442	21.8
433.802	21.81
434.161	21.88
434.521	21.94
434.881	21.92
435.24	21.76
435.6	21.84
435.959	21.99
436.319	22.03
436.678	22.1
437.037	22.15
437.396	21.99
437.756	22.01
438.115	22.33
438.474	22.14
438.833	22.39
439.192	22.31
439.551	22.17
439.91	22.42
440.269	22.41
440.628	22.31
440.987	22.36
441.345	22.35
441.704	22.44
442.063	22.38
442.421	22.43
442.78	22.54
443.138	22.24
443.497	22.57
443.855	22.83
444.214	22.78
444.572	22.88
444.93	23.07
445.288	23.07
445.647	23.19
446.005	23.06
446.363	22.94
446.721	22.89
447.079	22.88
447.437	22.87
447.795	22.88
448.153	22.74
448.51	22.81
448.868	22.89
449.226	23.03
449.584	23.14
449.941	23.26
450.299	23.36
450.656	23.47
451.014	23.39
451.371	23.69
451.729	23.4
452.086	23.72
452.443	23.87
452.801	23.78
453.158	24.03
453.515	24.06
453.872	23.95
454.229	23.96
454.586	23.91
454.943	23.86
455.3	24.1
455.657	24.16
456.014	24.41
456.371	24.22
456.727	24.32
457.084	24.21
457.441	24.64
457.797	24.42
458.154	24.63
458.51	24.49
458.867	24.63
459.223	24.69
459.58	24.61
459.936	24.71
460.292	24.62
460.648	24.52
461.005	24.49
461.361	24.4
461.717	24.34
462.073	24.43
462.429	24.54
462.785	24.64
463.141	24.88
463.496	24.73
463.852	25.15
464.208	25.09
464.564	25.15
464.919	25.44
465.275	25.39
465.631	25.53
465.986	25.38
466.342	25.29
466.697	25.37
467.052	25.62
467.408	25.46
467.763	25.74
468.118	25.62
468.473	25.9
468.829	25.8
469.184	25.69
469.539	25.83
469.894	25.79
470.249	25.84
470.603	26.01
470.958	25.9
471.313	26.23
471.668	26.23
472.023	26.16
472.377	26.16
472.732	25.99
473.086	26.2
473.441	26.27
473.795	26.22
474.15	26.42
474.504	26.29
474.859	26.36
475.213	26.37
475.567	26.42
475.921	26.39
476.275	26.56
476.63	26.67
476.984	26.79
477.338	26.6
477.692	26.8
478.045	26.9
478.399	26.6
478.753	26.86
479.107	26.94
479.461	26.82
479.814	27.04
480.168	26.79
480.521	26.76
480.875	26.98
481.228	27.12
481.582	27.12
481.935	27.1
482.289	27.2
482.642	27.2
482.995	27.04
483.348	27
483.701	27.23
484.055	26.99
484.408	26.93
484.761	26.76
485.114	26.45
485.466	26.27
485.819	26.36
486.172	26.32
486.525	26.55
486.878	26.58
487.23	26.87
487.583	26.93
487.936	27.23
488.288	27.05
488.641	27.17
488.993	27.04
489.345	26.97
489.698	26.96
490.05	27.02
490.402	27.2
490.754	27.31
491.107	27.56
491.459	27.79
491.811	27.84
492.163	27.99
492.515	28.05
492.866	27.62
493.218	27.39
493.57	27.43
493.922	27.54
494.274	27.72
494.625	28.03
494.977	28.3
495.328	28.42
495.68	28.48
496.031	28.8
496.383	28.83
496.734	28.79
497.086	28.88
497.437	29.05
497.788	28.89
498.139	28.94
498.49	29
498.842	28.87
499.193	28.96
499.544	29.11
499.894	29.21
500.245	29.25
500.596	29.35
500.947	29.39
501.298	29.54
501.648	29.51
501.999	29.51
502.35	29.55
502.7	29.55
503.051	29.45
503.401	29.66
503.752	29.92
504.102	29.84
504.452	29.85
504.803	30.06
505.153	29.99
505.503	30.1
505.853	30.22
506.203	29.83
506.553	30.02
506.903	30.16
507.253	30.11
507.603	30.24
507.953	30.53
508.303	30.31
508.652	30.44
509.002	30.52
509.352	30.36
509.701	30.35
510.051	30.53
510.4	30.39
510.75	30.34
511.099	30.5
511.449	30.39
511.798	30.62
512.147	30.68
512.496	30.7
512.846	30.82
513.195	30.82
513.544	30.87
513.893	30.84
514.242	30.93
514.591	31.02
514.939	30.85
515.288	31.17
515.637	31.08
515.986	31.49
516.334	31.49
516.683	31.32
517.032	31.42
517.38	31.47
517.729	31.65
518.077	31.53
518.426	31.77
518.774	31.59
519.122	31.66
519.47	31.54
519.819	31.46
520.167	31.44
520.515	31.41
520.863	31.43
521.211	31.43
521.559	31.53
521.907	31.73
522.255	31.79
522.602	32.09
522.95	32
523.298	32.08
523.645	32.42
523.993	32.51
524.341	32.47
524.688	32.41
525.036	32.35
525.383	32.48
525.73	32.55
526.078	32.6
526.425	32.4
526.772	32.44
527.119	32.28
527.466	32.23
527.814	32.12
528.161	32.31
528.508	32.41
528.854	32.41
529.201	32.38
529.548	32.35
529.895	32.02
530.242	31.89
530.588	31.94
530.935	32.21
531.282	32.2
531.628	32.39
531.975	32.6
532.321	32.76
532.667	32.83
533.014	33.03
533.36	33.18
533.706	33.11
534.052	33.31
534.399	33.16
534.745	33.01
535.091	32.83
535.437	33.08
535.783	33.01
536.129	33.22
536.474	33.25
536.82	33.68
537.166	33.65
537.512	33.7
537.857	33.8
538.203	33.72
538.549	33.69
538.894	33.84
539.239	33.83
539.585	34
539.93	34.05
540.276	34.13
540.621	34.25
540.966	34.58
541.311	34.47
541.656	34.62
542.001	34.64
542.346	34.35
542.691	34.07
543.036	33.81
543.381	33.83
543.726	34.11
544.071	34.06
544.415	34.27
544.76	34.39
545.105	34.61
545.449	34.7
545.794	34.82
546.138	34.74
546.483	35.24
546.827	35.23
547.171	35.29
547.516	35.22
547.86	35.29
548.204	35.42
548.548	35.36
548.892	35.21
549.236	35.33
549.58	35.53
549.924	35.48
550.268	35.8
550.612	36.02
550.956	35.89
551.3	36.15
551.643	36.33
551.987	36.09
552.33	36.31
552.674	36.43
553.017	36.48
553.361	36.52
553.704	36.41
554.048	36.47
554.391	36.56
554.734	36.49
555.077	36.58
555.42	36.3
555.764	36.73
556.107	36.86
556.45	36.72
556.793	36.75
557.135	37
557.478	37.2
557.821	37.34
558.164	37.54
558.507	37.28
558.849	37.26
559.192	37.28
559.534	37.34
559.877	37.58
560.219	37.7
560.562	37.62
560.904	37.51
561.246	37.66
561.589	37.51
561.931	37.68
562.273	37.44
562.615	37.68
562.957	37.81
563.299	37.82
563.641	37.72
563.983	38.11
564.325	38.07
564.667	38.1
565.008	37.92
565.35	38.08
565.692	38.64
566.033	38.55
566.375	38.24
566.716	38.22
567.058	38.55
567.399	38.39
567.741	38.64
568.082	38.19
568.423	38.25
568.764	38.3
569.105	38.26
569.447	38.44
569.788	38.74
570.129	38.6
570.47	38.78
570.811	38.76
571.151	38.87
571.492	39.01
571.833	39.06
572.174	39.09
572.514	39.14
572.855	39.08
573.195	38.97
573.536	38.84
573.876	39.2
574.217	39.22
574.557	39.09
574.898	39.28
575.238	39.3
575.578	39.39
575.918	39.49
576.258	39.56
576.598	39.61
576.938	39.59
577.278	39.57
577.618	39.65
577.958	39.59
578.298	40.09
578.638	39.75
578.977	40.04
579.317	40.11
579.657	40.14
579.996	40.15
580.336	40.19
580.675	40.36
581.014	40.04
581.354	40.24
581.693	40.51
582.032	40.94
582.372	40.66
582.711	40.63
583.05	40.38
583.389	40.93
583.728	40.58
584.067	41.17
584.406	40.93
584.745	41.19
585.083	41.13
585.422	41.54
585.761	41.62
586.1	41.08
586.438	40.96
586.777	41.24
587.115	41.1
587.454	41.43
587.792	41.62
588.13	41.7
588.469	41.48
588.807	41.69
589.145	41.39
589.483	41.5
589.821	41.48
590.159	41.52
590.497	41.78
590.835	41.84
591.173	41.8
591.511	41.99
591.849	41.88
592.187	42.31
592.524	42.34
592.862	42.1
593.2	42.06
593.537	42.22
593.875	42.33
594.212	42.2
594.55	42.33
594.887	42.45
595.224	42.3
595.561	42.88
595.899	42.22
596.236	42.34
596.573	42.53
596.91	42.59
597.247	42.9
597.584	42.77
597.921	43.12
598.258	42.44
598.594	42.71
598.931	42.52
599.268	42.51
599.604	42.8
599.941	42.81
600.277	42.86
600.614	43.43
600.95	43.39
601.287	43.34
601.623	43.35
601.959	43.11
602.296	43.92
602.632	43.5
602.968	43.54
603.304	43.42
603.64	43.69
603.976	43.75
604.312	43.55
604.648	43.73
604.984	43.66
605.319	43.72
605.655	43.51
605.991	43.69
606.326	43.27
606.662	43.55
606.998	43.63
607.333	43.64
607.668	43.62
608.004	43.96
608.339	44.33
608.674	44.12
609.01	43.83
609.345	44.47
609.68	44.31
610.015	44.5
610.35	44.35
610.685	44.35
611.02	44.33
611.355	44.13
611.689	44.1
612.024	44.28
612.359	44.65
612.694	44.53
613.028	44.61
613.363	44.56
613.697	44.89
614.032	45.19
614.366	44.98
614.7	44.98
615.035	44.9
615.369	45.19
615.703	45.2
616.037	45.19
616.371	44.79
616.705	45.04
617.039	45.47
617.373	45.44
617.707	45.48
618.041	45.87
618.375	45.64
618.709	45.34
619.042	45.64
619.376	45.66
619.71	45.7
620.043	45.61
620.377	45.84
620.71	45.97
621.043	45.78
621.377	45.69
621.71	45.72
622.043	45.62
622.376	46.65
622.709	45.9
623.043	46.6
623.376	46.2
623.709	46.1
624.041	46.52
624.374	46.13
624.707	46.15
625.04	45.93
625.373	46.79
625.705	46.81
626.038	46.28
626.37	46.77
626.703	47.21
627.035	46.58
627.368	46.98
627.7	47.01
628.032	47.14
628.365	46.7
628.697	46.59
629.029	46.93
629.361	46.72
629.693	46.87
630.025	47.13
630.357	47.2
630.689	47.17
631.021	46.99
631.353	47.47
631.684	47.2
632.016	47.89
632.348	47.12
632.679	47.33
633.011	47.6
633.342	47.29
633.674	47.58
634.005	47.42
634.336	47.64
634.668	47.68
634.999	47.98
635.33	47.6
635.661	48.07
635.992	47.76
636.323	47.33
636.654	47.27
636.985	48.1
637.316	47.85
637.647	48.43
637.977	48.53
638.308	48.14
638.639	47.6
638.969	48.33
639.3	48.29
639.63	47.86
639.961	48.47
640.291	48.09
640.622	48.39
640.952	48.26
641.282	48.26
641.612	48.63
641.943	48.5
642.273	48.8
642.603	48.83
642.933	48.68
643.263	48.67
643.592	48.72
643.922	49.11
644.252	48.69
644.582	48.43
644.911	49.48
645.241	49.17
645.571	49.06
645.9	48.99
646.23	48.99
646.559	49.5
646.888	49.09
647.218	49.4
647.547	49.62
647.876	49.24
648.205	49.94
648.534	49.21
648.863	49.45
649.192	49.88
649.521	49.6
649.85	49.45
650.179	49.5
650.508	49.76
650.837	49.31
651.165	49.38
651.494	49.63
651.822	49.75
652.151	49.87
652.479	49.41
652.808	50.81
653.136	49.84
653.465	49.85
653.793	50.37
654.121	50.15
654.449	50.34
654.777	50.1
655.105	49.86
655.433	50.51
655.761	50.07
656.089	49.98
656.417	50.62
656.745	50.04
657.073	50.11
657.4	50.26
657.728	50.29
658.056	50.43
658.383	49.9
658.711	50.69
659.038	50.94
659.365	50.34
659.693	50.97
660.02	51.01
660.347	51.36
660.674	50.84
661.001	50.87
661.329	51.11
661.656	51
661.982	51.03
662.309	50.82
662.636	50.97
662.963	50.97
663.29	51.12
663.616	50.93
663.943	51.49
664.27	51.43
664.596	50.94
664.923	51.97
665.249	51.26
665.576	50.99
665.902	51.65
666.228	51.72
666.554	50.97
666.881	50.5
667.207	51.54
667.533	51.64
667.859	51.73
668.185	51.34
668.511	51.91
668.837	51.68
669.162	51.45
669.488	51.58
669.814	52.12
670.139	51.47
670.465	51.57
