Data from 445_chest_Reflection__1__31.txt Node

Date: Tue Dec 12 18:31:00 CST 2023
User: ToomeyLab
Spectrometer: FLMS14357
Trigger mode: 0
Integration Time (sec): 1.000000E-2
Scans to average: 100
Electric dark correction enabled: true
Nonlinearity correction enabled: false
Boxcar width: 0
XAxis mode: Wavelengths
Number of Pixels in Spectrum: 2048
>>>>>Begin Spectral Data<<<<<
189.047	-676.72
189.435	-676.72
189.823	-676.72
190.211	324.26
190.599	19.79
190.987	138.65
191.375	-29.05
191.763	248.26
192.151	53.76
192.538	129.43
192.926	107.14
193.314	131.5
193.702	111.65
194.089	81.03
194.477	-18087.5
194.864	86.52
195.252	111.81
195.639	-63.94
196.027	408.63
196.414	56.56
196.801	431.84
197.189	301.14
197.576	346.94
197.963	84.14
198.351	28.57
198.738	7.02
199.125	-35.33
199.512	4.79
199.899	18.69
200.286	11.08
200.673	-50.22
201.06	14.53
201.447	-108.89
201.833	-13.34
202.22	16.41
202.607	-63.34
202.994	7.43
203.38	-7.11
203.767	-10.95
204.154	9.83
204.54	70.58
204.927	15
205.313	34.65
205.699	49.29
206.086	-11.92
206.472	17.85
206.858	22.32
207.245	3.13
207.631	22.58
208.017	6.14
208.403	-12.82
208.789	15.93
209.175	-12.17
209.561	8.76
209.947	-44.51
210.333	45.59
210.719	2.14
211.105	9.57
211.491	26.16
211.876	3.93
212.262	38.02
212.648	58.44
213.034	-8.5
213.419	29.31
213.805	20.92
214.19	13.88
214.576	29.61
214.961	-3.88
215.346	-6.81
215.732	37.01
216.117	19.63
216.502	-4.72
216.888	10.42
217.273	10.01
217.658	18.8
218.043	10.39
218.428	20.33
218.813	23.47
219.198	-43.45
219.583	14.55
219.968	14.91
220.353	-20.46
220.738	19.58
221.122	-1.07
221.507	9.54
221.892	-9.35
222.276	21.69
222.661	8.93
223.046	-5.84
223.43	2.59
223.815	-5.69
224.199	3.05
224.583	2.13
224.968	-1.38
225.352	-6.82
225.736	7.98
226.121	0.61
226.505	5.76
226.889	3.7
227.273	4.15
227.657	9.04
228.041	1.97
228.425	0.3
228.809	0.25
229.193	0.68
229.577	3.33
229.961	1.41
230.344	3.25
230.728	2.9
231.112	2.69
231.495	3.28
231.879	3.87
232.263	1.76
232.646	3.61
233.03	2.66
233.413	1.96
233.797	3.2
234.18	0.38
234.563	1.94
234.946	4.85
235.33	5.44
235.713	3.67
236.096	1.32
236.479	1.98
236.862	2.02
237.245	3.07
237.628	4.1
238.011	3.03
238.394	2.5
238.777	3.22
239.16	2.57
239.543	4.82
239.925	3.7
240.308	3.11
240.691	2.83
241.073	3.67
241.456	3.97
241.838	2.16
242.221	2.64
242.603	4.05
242.986	2.61
243.368	3.1
243.75	2.28
244.133	2.66
244.515	2.79
244.897	2.47
245.279	3.33
245.661	2.42
246.043	2.48
246.425	4.27
246.807	1.51
247.189	2.8
247.571	3.17
247.953	2.81
248.335	2.47
248.717	2.4
249.098	2.6
249.48	2.55
249.862	2.17
250.243	2.59
250.625	3.07
251.006	2.85
251.388	3.25
251.769	3.24
252.151	2.15
252.532	2.69
252.913	3.14
253.295	3.22
253.676	1.77
254.057	2.32
254.438	2.45
254.819	2.22
255.2	3.13
255.581	1.91
255.962	2.88
256.343	3.28
256.724	2.14
257.105	3.31
257.486	1.85
257.867	2.6
258.247	2.26
258.628	2.35
259.009	1.76
259.389	2.54
259.77	1.92
260.15	2.02
260.531	2.87
260.911	2.57
261.292	2.45
261.672	2.34
262.052	2.33
262.432	2.79
262.813	2.41
263.193	2.15
263.573	2.22
263.953	3.27
264.333	3.38
264.713	2.27
265.093	2.45
265.473	2.97
265.853	1.89
266.233	2.24
266.612	2.85
266.992	2.35
267.372	2.51
267.752	2.95
268.131	1.64
268.511	1.92
268.89	1.97
269.27	2.38
269.649	2.58
270.029	2.51
270.408	2.53
270.787	2.63
271.167	2.41
271.546	2.76
271.925	3.17
272.304	2.73
272.683	2
273.062	2.34
273.441	2.52
273.82	1.9
274.199	2.71
274.578	2.74
274.957	2.5
275.336	2.22
275.715	2.69
276.093	1.76
276.472	2.52
276.851	2.75
277.229	1.92
277.608	2.21
277.986	1.89
278.365	2.62
278.743	2.21
279.122	3.02
279.5	2.41
279.878	1.5
280.257	2.75
280.635	2.13
281.013	2.02
281.391	2.08
281.769	2.32
282.147	2.46
282.525	1.84
282.903	2.44
283.281	2.45
283.659	2.22
284.037	2.88
284.415	2.3
284.792	2.39
285.17	1.86
285.548	2.15
285.925	2.11
286.303	2.65
286.68	2.39
287.058	2.43
287.435	2.38
287.813	2.25
288.19	2.44
288.567	2.27
288.945	2.32
289.322	1.91
289.699	2.44
290.076	2.2
290.453	2.41
290.83	2.2
291.207	2.99
291.584	2.54
291.961	2.39
292.338	2.49
292.715	2.27
293.092	2.1
293.469	2.57
293.845	2.33
294.222	2.36
294.599	2.61
294.975	2.59
295.352	2.42
295.728	2.24
296.105	2.42
296.481	2.83
296.858	2.06
297.234	2.91
297.61	2.38
297.986	2.76
298.363	2.57
298.739	2.63
299.115	1.81
299.491	2.37
299.867	2.41
300.243	2.56
300.619	2.69
300.995	2.48
301.371	2.75
301.746	2.9
302.122	3.02
302.498	2.4
302.874	2.99
303.249	3.16
303.625	1.9
304	2.47
304.376	2.4
304.751	2.56
305.127	2.23
305.502	2.48
305.878	2.54
306.253	2.67
306.628	2.89
307.003	2.7
307.378	2.36
307.754	2.48
308.129	2.26
308.504	3.19
308.879	2.42
309.254	2.78
309.629	2.25
310.003	2.95
310.378	2.92
310.753	2.79
311.128	2.71
311.502	2.67
311.877	2.09
312.252	2.05
312.626	2.62
313.001	2.31
313.375	2.07
313.75	2.77
314.124	2.83
314.498	2.49
314.873	2.47
315.247	2.77
315.621	2.16
315.995	2.52
316.369	2.89
316.743	2.47
317.117	2.15
317.491	2.35
317.865	2.66
318.239	2.07
318.613	2.57
318.987	3.05
319.361	2.24
319.734	2.72
320.108	2.66
320.482	2.35
320.855	2.37
321.229	2.54
321.602	3.09
321.976	2.65
322.349	2.86
322.723	2.66
323.096	2.6
323.469	2.52
323.843	3.43
324.216	3.23
324.589	2.58
324.962	2.9
325.335	2.81
325.708	2.66
326.081	2.55
326.454	2.33
326.827	3.44
327.2	2.95
327.573	2.61
327.945	2.52
328.318	3.78
328.691	2.24
329.063	2.48
329.436	2.74
329.809	2.72
330.181	2.59
330.553	2.66
330.926	2.91
331.298	2.26
331.671	3.09
332.043	2.15
332.415	2.7
332.787	3.01
333.159	2.72
333.532	2.62
333.904	2.4
334.276	2.86
334.648	2.01
335.02	2.26
335.391	2.32
335.763	2.15
336.135	2.83
336.507	3.35
336.879	2.85
337.25	2.89
337.622	2.22
337.993	2.62
338.365	2.32
338.736	2.76
339.108	2.44
339.479	2.73
339.851	2.26
340.222	2.08
340.593	3.09
340.964	2.99
341.336	3.22
341.707	2.42
342.078	1.89
342.449	2.02
342.82	3.13
343.191	2.86
343.562	2.54
343.933	3.02
344.303	2.96
344.674	2.71
345.045	2.59
345.416	3.09
345.786	2.24
346.157	2.41
346.527	2.85
346.898	2.55
347.268	2.81
347.639	2.56
348.009	2.84
348.38	2.47
348.75	2.92
349.12	2.64
349.49	2.13
349.861	2.82
350.231	2.56
350.601	2.99
350.971	2.75
351.341	2.74
351.711	2.62
352.081	3.25
352.45	2.83
352.82	2.88
353.19	2.72
353.56	2.7
353.929	2.56
354.299	2.06
354.669	2.41
355.038	2.27
355.408	2.5
355.777	3.12
356.147	2.5
356.516	2.9
356.885	2.37
357.254	2.6
357.624	2.37
357.993	2.5
358.362	2.37
358.731	2.51
359.1	2.21
359.469	2.34
359.838	2.58
360.207	2.52
360.576	2.8
360.945	2.28
361.314	2.75
361.682	2.43
362.051	2.89
362.42	2.73
362.788	2.53
363.157	3.01
363.525	2.79
363.894	2.59
364.262	2.7
364.631	2.24
364.999	2.85
365.367	2.8
365.735	2.44
366.104	2.67
366.472	2.49
366.84	3.02
367.208	2.84
367.576	2.66
367.944	2.55
368.312	2.87
368.68	2.55
369.048	2.82
369.416	2.79
369.783	2.82
370.151	2.51
370.519	2.65
370.886	2.93
371.254	2.47
371.621	3.14
371.989	2.83
372.356	2.7
372.724	2.66
373.091	2.85
373.458	2.78
373.826	2.56
374.193	2.14
374.56	2.89
374.927	2.6
375.294	2.43
375.661	2.86
376.028	2.76
376.395	3.13
376.762	3.1
377.129	2.64
377.496	2.86
377.863	2.32
378.229	2.66
378.596	2.46
378.963	2.84
379.329	2.51
379.696	2.81
380.062	2.87
380.429	2.83
380.795	3.12
381.161	2.97
381.528	2.69
381.894	2.73
382.26	2.63
382.626	2.79
382.993	2.9
383.359	2.83
383.725	2.58
384.091	2.58
384.457	2.95
384.823	2.77
385.188	2.89
385.554	3.23
385.92	2.68
386.286	2.99
386.651	2.92
387.017	2.85
387.383	2.74
387.748	2.82
388.114	2.76
388.479	2.66
388.845	2.82
389.21	2.6
389.575	2.52
389.94	2.9
390.306	2.56
390.671	2.66
391.036	3.02
391.401	2.66
391.766	2.91
392.131	2.82
392.496	2.85
392.861	2.68
393.226	2.72
393.591	2.79
393.956	2.87
394.32	2.79
394.685	2.89
395.05	2.72
395.414	3.02
395.779	2.62
396.143	2.81
396.508	2.88
396.872	2.9
397.236	2.8
397.601	2.7
397.965	2.97
398.329	2.67
398.694	2.51
399.058	3.13
399.422	2.77
399.786	2.89
400.15	2.57
400.514	3.03
400.878	2.63
401.242	2.78
401.605	2.94
401.969	2.84
402.333	2.93
402.697	2.77
403.06	2.48
403.424	3.12
403.787	2.79
404.151	2.97
404.514	2.57
404.878	2.75
405.241	2.95
405.604	2.66
405.968	2.6
406.331	3.13
406.694	3.15
407.057	2.75
407.42	2.61
407.783	2.76
408.146	2.85
408.509	2.71
408.872	2.77
409.235	2.86
409.598	2.86
409.961	2.82
410.323	3.02
410.686	2.98
411.049	3.08
411.411	3
411.774	2.85
412.136	2.99
412.499	3.07
412.861	2.81
413.223	3.12
413.586	2.94
413.948	2.65
414.31	2.74
414.672	3.11
415.035	2.84
415.397	3.03
415.759	2.91
416.121	3
416.483	2.93
416.845	2.84
417.206	3.04
417.568	2.88
417.93	2.98
418.292	2.75
418.653	3
419.015	2.85
419.377	2.81
419.738	2.86
420.1	2.86
420.461	2.91
420.822	2.84
421.184	2.79
421.545	3.05
421.906	2.84
422.267	2.84
422.629	2.92
422.99	2.87
423.351	2.9
423.712	2.85
424.073	2.92
424.434	2.92
424.795	2.95
425.155	2.79
425.516	2.8
425.877	2.89
426.238	2.82
426.598	2.86
426.959	2.79
427.32	2.83
427.68	2.83
428.041	2.96
428.401	2.81
428.761	2.88
429.122	3
429.482	3.03
429.842	2.98
430.202	2.98
430.563	2.96
430.923	2.84
431.283	2.77
431.643	2.91
432.003	2.88
432.363	3.01
432.722	2.78
433.082	2.89
433.442	2.94
433.802	2.91
434.161	3.05
434.521	3.02
434.881	2.99
435.24	3.03
435.6	3.03
435.959	3.1
436.319	2.91
436.678	3.02
437.037	2.83
437.396	2.78
437.756	2.88
438.115	2.99
438.474	2.86
438.833	3.16
439.192	3.28
439.551	3.04
439.91	2.7
440.269	2.91
440.628	2.89
440.987	2.89
441.345	2.92
441.704	2.93
442.063	2.95
442.421	3.02
442.78	2.98
443.138	2.96
443.497	2.98
443.855	2.98
444.214	2.96
444.572	2.99
444.93	2.99
445.288	2.74
445.647	3.07
446.005	3.09
446.363	2.81
446.721	2.94
447.079	3.01
447.437	2.84
447.795	2.96
448.153	2.94
448.51	3.05
448.868	2.88
449.226	3.04
449.584	2.99
449.941	2.96
450.299	3.08
450.656	2.92
451.014	2.96
451.371	3.18
451.729	2.97
452.086	3
452.443	3.16
452.801	2.95
453.158	3
453.515	3.03
453.872	3.01
454.229	3.03
454.586	2.92
454.943	3.05
455.3	2.95
455.657	3
456.014	3.12
456.371	3.1
456.727	3.13
457.084	3.06
457.441	3.11
457.797	3.06
458.154	3.02
458.51	2.98
458.867	3.16
459.223	3.23
459.58	2.88
459.936	3.02
460.292	3.02
460.648	3.02
461.005	3
461.361	3.01
461.717	3.09
462.073	2.96
462.429	2.94
462.785	2.97
463.141	3.08
463.496	3.1
463.852	3.23
464.208	3.13
464.564	3.13
464.919	3.07
465.275	3.22
465.631	3.3
465.986	3.1
466.342	2.88
466.697	3.05
467.052	3.31
467.408	3.11
467.763	3.15
468.118	2.94
468.473	3.14
468.829	3.21
469.184	3.12
469.539	3.26
469.894	3.16
470.249	3.32
470.603	3.23
470.958	3.27
471.313	3.49
471.668	3.29
472.023	3.05
472.377	3.06
472.732	3.21
473.086	3.16
473.441	3.11
473.795	3.1
474.15	3.22
474.504	2.86
474.859	3.14
475.213	2.9
475.567	3.11
475.921	3.22
476.275	2.93
476.63	3.3
476.984	3.3
477.338	3.1
477.692	3.24
478.045	3.33
478.399	3.15
478.753	3.19
479.107	3.09
479.461	3.19
479.814	3.3
480.168	2.97
480.521	3.2
480.875	3.18
481.228	3.36
481.582	3.07
481.935	3.22
482.289	3.1
482.642	3.3
482.995	3.15
483.348	3.09
483.701	3.37
484.055	3.19
484.408	3.15
484.761	3.15
485.114	3.1
485.466	3.04
485.819	3.02
486.172	3.01
486.525	3.05
486.878	3.02
487.23	3.1
487.583	3.12
487.936	3.22
488.288	3.08
488.641	3.13
488.993	3.12
489.345	3.14
489.698	3.05
490.05	3.09
490.402	3.12
490.754	3.07
491.107	3.14
491.459	3.2
491.811	3.25
492.163	3.23
492.515	3.2
492.866	3.21
493.218	3.16
493.57	3.1
493.922	3.1
494.274	3.12
494.625	3.28
494.977	3.33
495.328	3.41
495.68	3.27
496.031	3.4
496.383	3.36
496.734	3.39
497.086	3.25
497.437	3.18
497.788	3.42
498.139	3.32
498.49	3.41
498.842	3.19
499.193	3.32
499.544	3.36
499.894	3.25
500.245	3.44
500.596	3.5
500.947	3.21
501.298	3.46
501.648	3.42
501.999	3.39
502.35	3.4
502.7	3.35
503.051	3.3
503.401	3.39
503.752	3.65
504.102	3.43
504.452	3.45
504.803	3.56
505.153	3.46
505.503	3.53
505.853	3.45
506.203	3.52
506.553	3.55
506.903	3.52
507.253	3.46
507.603	3.49
507.953	3.44
508.303	3.41
508.652	3.54
509.002	3.43
509.352	3.45
509.701	3.61
510.051	3.49
510.4	3.39
510.75	3.5
511.099	3.38
511.449	3.54
511.798	3.53
512.147	3.51
512.496	3.6
512.846	3.63
513.195	3.43
513.544	3.58
513.893	3.57
514.242	3.48
514.591	3.48
514.939	3.55
515.288	3.53
515.637	3.56
515.986	3.57
516.334	3.66
516.683	3.57
517.032	3.66
517.38	3.52
517.729	3.7
518.077	3.54
518.426	3.77
518.774	3.75
519.122	3.66
519.47	3.57
519.819	3.6
520.167	3.55
520.515	3.53
520.863	3.64
521.211	3.55
521.559	3.71
521.907	3.62
522.255	3.68
522.602	3.74
522.95	3.68
523.298	3.71
523.645	3.84
523.993	3.77
524.341	3.81
524.688	3.76
525.036	3.8
525.383	3.64
525.73	3.74
526.078	3.71
526.425	3.69
526.772	3.65
527.119	3.75
527.466	3.76
527.814	3.71
528.161	3.76
528.508	3.75
528.854	3.69
529.201	3.68
529.548	3.76
529.895	3.67
530.242	3.65
530.588	3.55
530.935	3.66
531.282	3.7
531.628	3.74
531.975	3.72
532.321	3.74
532.667	3.73
533.014	3.8
533.36	3.81
533.706	3.77
534.052	3.91
534.399	3.98
534.745	3.81
535.091	3.76
535.437	3.84
535.783	3.81
536.129	3.95
536.474	3.9
536.82	3.87
537.166	3.99
537.512	3.97
537.857	4.06
538.203	3.97
538.549	3.98
538.894	3.99
539.239	3.97
539.585	3.99
539.93	4.01
540.276	4.11
540.621	4.1
540.966	4.07
541.311	4.14
541.656	4.1
542.001	4.13
542.346	4.09
542.691	4.02
543.036	4.06
543.381	3.94
543.726	4.02
544.071	4.05
544.415	4.05
544.76	4.07
545.105	4.14
545.449	4.09
545.794	4.2
546.138	4.16
546.483	4.3
546.827	4.23
547.171	4.26
547.516	4.3
547.86	4.32
548.204	4.36
548.548	4.3
548.892	4.25
549.236	4.35
549.58	4.42
549.924	4.46
550.268	4.45
550.612	4.33
550.956	4.47
551.3	4.59
551.643	4.59
551.987	4.58
552.33	4.7
552.674	4.65
553.017	4.6
553.361	4.76
553.704	4.49
554.048	4.55
554.391	4.58
554.734	4.51
555.077	4.74
555.42	4.62
555.764	4.68
556.107	4.79
556.45	4.47
556.793	4.53
557.135	4.79
557.478	4.7
557.821	4.62
558.164	4.71
558.507	4.95
558.849	4.86
559.192	5
559.534	4.91
559.877	4.82
560.219	4.78
560.562	4.92
560.904	5.02
561.246	4.91
561.589	4.8
561.931	4.98
562.273	4.76
562.615	4.82
562.957	5.07
563.299	5.09
563.641	5.07
563.983	5
564.325	5.01
564.667	5.12
565.008	4.96
565.35	4.94
565.692	5.18
566.033	5.27
566.375	5.09
566.716	5.07
567.058	5.16
567.399	5.14
567.741	5.2
568.082	5.06
568.423	5.29
568.764	5.18
569.105	5.04
569.447	5.39
569.788	5.28
570.129	5.09
570.47	5.56
570.811	5.31
571.151	5.29
571.492	5.56
571.833	5.42
572.174	5.39
572.514	5.46
572.855	5.39
573.195	5.44
573.536	5.41
573.876	5.43
574.217	5.55
574.557	5.39
574.898	5.59
575.238	5.69
575.578	5.53
575.918	5.67
576.258	5.44
576.598	5.27
576.938	5.7
577.278	5.68
577.618	5.84
577.958	5.76
578.298	5.89
578.638	5.64
578.977	5.84
579.317	5.96
579.657	6.06
579.996	5.87
580.336	5.82
580.675	5.88
581.014	6.1
581.354	6.01
581.693	5.94
582.032	5.76
582.372	6.12
582.711	5.99
583.05	6.24
583.389	6.12
583.728	5.96
584.067	6.29
584.406	6.2
584.745	6.38
585.083	6.11
585.422	6.3
585.761	6.65
586.1	6.25
586.438	6.44
586.777	6.37
587.115	6.46
587.454	6.28
587.792	6.19
588.13	6.53
588.469	6.4
588.807	6.27
589.145	6.22
589.483	6.38
589.821	6.54
590.159	6.47
590.497	6.59
590.835	6.52
591.173	6.57
591.511	6.63
591.849	6.52
592.187	6.7
592.524	6.44
592.862	6.78
593.2	6.47
593.537	6.84
593.875	6.93
594.212	6.66
594.55	6.84
594.887	7.07
595.224	6.85
595.561	6.92
595.899	6.79
596.236	6.83
596.573	7.11
596.91	6.96
597.247	7.09
597.584	6.95
597.921	7
598.258	7.09
598.594	7.17
598.931	7.02
599.268	6.86
599.604	6.94
599.941	7.19
600.277	6.98
600.614	7.23
600.95	7.39
601.287	7.16
601.623	7.26
601.959	7.36
602.296	7.51
602.632	7.36
602.968	7.39
603.304	7.33
603.64	7.24
603.976	7.27
604.312	7.35
604.648	7.5
604.984	7.35
605.319	7.56
605.655	7.44
605.991	7.55
606.326	7.35
606.662	7.58
606.998	7.55
607.333	7.67
607.668	7.56
608.004	7.74
608.339	7.83
608.674	7.59
609.01	7.63
609.345	7.9
609.68	7.55
610.015	7.63
610.35	7.82
610.685	8.13
611.02	7.99
611.355	7.82
611.689	7.67
612.024	7.98
612.359	8.03
612.694	8.13
613.028	8.03
613.363	8.21
613.697	8.25
614.032	8.5
614.366	8.4
614.7	8.01
615.035	8.01
615.369	8.45
615.703	8.3
616.037	7.95
616.371	8.16
616.705	8.42
617.039	8.32
617.373	8.03
617.707	8.48
618.041	8.68
618.375	8.33
618.709	8.7
619.042	8.63
619.376	8.6
619.71	8.33
620.043	8.56
620.377	8.63
620.71	8.68
621.043	8.59
621.377	8.33
621.71	8.88
622.043	8.85
622.376	9.18
622.709	8.78
623.043	8.72
623.376	9.33
623.709	8.74
624.041	8.85
624.374	9.03
624.707	9.03
625.04	8.84
625.373	9.1
625.705	9.12
626.038	9.06
626.37	9.34
626.703	9.49
627.035	9.27
627.368	9.12
627.7	9.06
628.032	8.96
628.365	9.21
628.697	9.06
629.029	9.29
629.361	9.27
629.693	9.35
630.025	9.37
630.357	9.38
630.689	9.23
631.021	9.13
631.353	9.55
631.684	9.56
632.016	9.71
632.348	9.78
632.679	9.53
633.011	9.92
633.342	9.51
633.674	9.76
634.005	9.66
634.336	9.8
634.668	9.83
634.999	10.19
635.33	9.96
635.661	9.75
635.992	9.71
636.323	9.63
636.654	10.14
636.985	10.14
637.316	10.22
637.647	9.71
637.977	9.79
638.308	10.14
638.639	10.26
638.969	9.91
639.3	10.15
639.63	10.61
639.961	10.24
640.291	9.91
640.622	10.51
640.952	10.47
641.282	9.91
641.612	10.48
641.943	10.34
642.273	10.57
642.603	11.11
642.933	10.59
643.263	10.67
643.592	11
643.922	11.13
644.252	10.69
644.582	10.23
644.911	10.97
645.241	10.25
645.571	11.09
645.9	11.03
646.23	10.37
646.559	11.22
646.888	10.51
647.218	11.04
647.547	10.88
647.876	11.05
648.205	11.56
648.534	10.77
648.863	10.82
649.192	11.57
649.521	11.55
649.85	10.66
650.179	11.5
650.508	11.3
650.837	10.98
651.165	11.04
651.494	10.88
651.822	11.35
652.151	11.22
652.479	11.46
652.808	11.59
653.136	11.41
653.465	11.16
653.793	11.86
654.121	11.45
654.449	11.16
654.777	11.43
655.105	11.67
655.433	11.47
655.761	11.9
656.089	11.76
656.417	11.89
656.745	11.99
657.073	11.47
657.4	11.99
657.728	11.4
658.056	12.19
658.383	11.25
658.711	11.53
659.038	12.08
659.365	12
659.693	12
660.02	11.67
660.347	12.41
660.674	11.97
661.001	12
661.329	12.35
661.656	11.94
661.982	11.72
662.309	12.35
662.636	12.13
662.963	12.59
663.29	12.22
663.616	12.38
663.943	12.4
664.27	12.55
664.596	12.76
664.923	13.31
665.249	12.07
665.576	12.64
665.902	12.94
666.228	12.92
666.554	12.36
666.881	11.87
667.207	12.65
667.533	12.95
667.859	12.18
668.185	12.58
668.511	12.37
668.837	12.88
669.162	13.3
669.488	12.36
669.814	12.72
670.139	12.41
670.465	12.19
670.791	13.09
671.116	12.17
671.442	12.55
671.767	12.78
672.092	13.44
672.418	13.19
672.743	13.4
673.068	12.42
673.393	13.23
673.718	13.63
674.043	13.32
674.368	12.51
674.693	13.05
675.018	12.8
675.343	12.96
675.667	13.18
675.992	13.29
676.317	13.61
676.641	13.16
676.966	13.57
677.29	12.95
677.615	13.62
677.939	13.88
678.264	13.6
678.588	13.67
678.912	13.65
679.236	12.89
679.56	14.14
679.885	14.14
680.209	13.37
680.532	13.56
680.856	13.27
681.18	13.47
681.504	14.21
681.828	13.68
682.152	13.45
682.475	13.94
682.799	14
683.122	13.85
683.446	14.19
683.769	14.81
684.093	13.32
684.416	13.79
684.739	14.32
685.062	14.38
685.386	14.41
685.709	14.12
686.032	14.14
686.355	13.76
686.678	14.43
687.001	14.58
687.324	14.12
687.646	14.64
687.969	14.17
688.292	14.6
688.614	14.2
688.937	14.08
689.26	14.65
