Data from 445_chest_Reflection__2__32.txt Node

Date: Tue Dec 12 18:31:12 CST 2023
User: ToomeyLab
Spectrometer: FLMS14357
Trigger mode: 0
Integration Time (sec): 1.000000E-2
Scans to average: 100
Electric dark correction enabled: true
Nonlinearity correction enabled: false
Boxcar width: 0
XAxis mode: Wavelengths
Number of Pixels in Spectrum: 2048
>>>>>Begin Spectral Data<<<<<
189.047	171.81
189.435	171.81
189.823	171.81
190.211	-15.44
190.599	23.46
190.987	116.71
191.375	-5.78
191.763	67.56
192.151	98.62
192.538	-359.64
192.926	95.93
193.314	-949.5
193.702	55.45
194.089	-3.06
194.477	-12862.5
194.864	-10.32
195.252	19.75
195.639	-18.75
196.027	496.3
196.414	26.63
196.801	-164.86
197.189	-22.56
197.576	71.94
197.963	105.8
198.351	40
198.738	33.78
199.125	29.09
199.512	-8.05
199.899	31.06
200.286	34.58
200.673	1.31
201.06	-2.75
201.447	32.99
201.833	-0.81
202.22	8.18
202.607	-96.3
202.994	-0.89
203.38	20.75
203.767	-12.61
204.154	17.1
204.54	33.17
204.927	19.07
205.313	61.65
205.699	-26.14
206.086	55.83
206.472	44.1
206.858	18.2
207.245	33.75
207.631	46.13
208.017	9.3
208.403	1.77
208.789	21.84
209.175	5.29
209.561	34.95
209.947	55.97
210.333	12.97
210.719	24.06
211.105	-6.65
211.491	58.26
211.876	37.22
212.262	28.63
212.648	27.33
213.034	-4.14
213.419	25.64
213.805	4.72
214.19	53.21
214.576	21.78
214.961	18.02
215.346	-6.51
215.732	46.68
216.117	3.3
216.502	7.55
216.888	0.39
217.273	1.81
217.658	-22.94
218.043	3.49
218.428	24.01
218.813	28.8
219.198	-12
219.583	7.21
219.968	33.47
220.353	26.27
220.738	-0.74
221.122	10.49
221.507	11.15
221.892	4.58
222.276	22.3
222.661	1.18
223.046	-1.75
223.43	13.89
223.815	7.56
224.199	23.95
224.583	3.54
224.968	16.05
225.352	3.56
225.736	12.49
226.121	5.57
226.505	8.3
226.889	5.55
227.273	2.62
227.657	11.77
228.041	13.34
228.425	5.04
228.809	2.78
229.193	5.94
229.577	5.45
229.961	4.78
230.344	5.47
230.728	5.68
231.112	4.91
231.495	5.08
231.879	5
232.263	4.52
232.646	3.45
233.03	5.92
233.413	4.17
233.797	4.74
234.18	3.39
234.563	4.34
234.946	5.72
235.33	6.65
235.713	6.05
236.096	4.73
236.479	5.2
236.862	5.61
237.245	4.73
237.628	5.44
238.011	4.34
238.394	3.56
238.777	5.05
239.16	5.37
239.543	6.1
239.925	7.15
240.308	3.85
240.691	5
241.073	5.95
241.456	5.88
241.838	4.38
242.221	6.35
242.603	4.67
242.986	4.4
243.368	5.23
243.75	4.81
244.133	4.63
244.515	4.9
244.897	5.35
245.279	6.06
245.661	4.64
246.043	4.38
246.425	5.58
246.807	4.97
247.189	5.36
247.571	5.45
247.953	4.61
248.335	4.52
248.717	4.83
249.098	4.81
249.48	4.47
249.862	4.47
250.243	4.42
250.625	5.16
251.006	5.24
251.388	4.5
251.769	5.01
252.151	3.73
252.532	5.5
252.913	4.91
253.295	5.13
253.676	3.85
254.057	4.02
254.438	4.74
254.819	3.88
255.2	4.52
255.581	5.44
255.962	5.1
256.343	5.83
256.724	5.24
257.105	6.4
257.486	4.33
257.867	3.83
258.247	3.97
258.628	4.56
259.009	4.22
259.389	4.51
259.77	4.6
260.15	4.05
260.531	5.02
260.911	4.77
261.292	4.34
261.672	4.22
262.052	4.3
262.432	4.54
262.813	4.47
263.193	4.69
263.573	4.9
263.953	4.9
264.333	5.17
264.713	4.7
265.093	3.98
265.473	4.61
265.853	4.26
266.233	4.5
266.612	4.49
266.992	4.24
267.372	5.12
267.752	5.26
268.131	4.43
268.511	4.15
268.89	3.58
269.27	3.53
269.649	4.13
270.029	4.1
270.408	4.19
270.787	4.41
271.167	4.67
271.546	4.16
271.925	4.76
272.304	4.92
272.683	3.65
273.062	4.2
273.441	4.62
273.82	3.84
274.199	4.52
274.578	4.09
274.957	4.01
275.336	4.31
275.715	4.55
276.093	3.61
276.472	4.8
276.851	4.55
277.229	4.04
277.608	4.07
277.986	3.78
278.365	4.53
278.743	4.3
279.122	4.39
279.5	4.16
279.878	3.41
280.257	3.97
280.635	4.04
281.013	3.76
281.391	4.34
281.769	4.38
282.147	4.12
282.525	3.98
282.903	3.81
283.281	4.39
283.659	3.94
284.037	4.37
284.415	4.08
284.792	4
285.17	4.21
285.548	4.16
285.925	4.22
286.303	4.12
286.68	4.21
287.058	4.29
287.435	3.95
287.813	3.7
288.19	4.15
288.567	4.27
288.945	4.18
289.322	3.36
289.699	4.13
290.076	4.37
290.453	4.03
290.83	3.69
291.207	4.22
291.584	4.61
291.961	4.37
292.338	4.16
292.715	4.14
293.092	4.18
293.469	4.04
293.845	3.72
294.222	3.93
294.599	4.63
294.975	3.94
295.352	4.52
295.728	3.9
296.105	4.12
296.481	4.56
296.858	4.56
297.234	4.18
297.61	4.26
297.986	4.56
298.363	4.06
298.739	4.28
299.115	4.03
299.491	3.99
299.867	3.91
300.243	4.45
300.619	4.36
300.995	4.24
301.371	4.49
301.746	4.57
302.122	4.9
302.498	4.33
302.874	4.23
303.249	4.59
303.625	4.02
304	4.35
304.376	4.49
304.751	4.4
305.127	4.59
305.502	4.47
305.878	4
306.253	4.52
306.628	4.14
307.003	4.02
307.378	4.35
307.754	4.75
308.129	4.21
308.504	5.16
308.879	4.21
309.254	3.89
309.629	4.62
310.003	4.64
310.378	4.73
310.753	4.69
311.128	4.99
311.502	4.09
311.877	4.11
312.252	4.27
312.626	4.29
313.001	4.17
313.375	4.49
313.75	4.58
314.124	4.22
314.498	4.23
314.873	4
315.247	4.46
315.621	3.81
315.995	5.01
316.369	4.88
316.743	4.41
317.117	4.33
317.491	4.53
317.865	4.61
318.239	4.64
318.613	4.8
318.987	4.65
319.361	3.95
319.734	3.86
320.108	4.44
320.482	4.82
320.855	4.35
321.229	4.54
321.602	4.86
321.976	4.47
322.349	4.57
322.723	4.27
323.096	4.03
323.469	4.72
323.843	4.72
324.216	4.28
324.589	4.3
324.962	4.6
325.335	4.79
325.708	4.8
326.081	4.41
326.454	4.11
326.827	4.93
327.2	4.5
327.573	4.31
327.945	4.38
328.318	4.87
328.691	3.75
329.063	4.74
329.436	4.46
329.809	4.14
330.181	3.77
330.553	4.1
330.926	4.6
331.298	4.18
331.671	4.65
332.043	4.92
332.415	4.11
332.787	4.55
333.159	4.73
333.532	4.6
333.904	3.91
334.276	4.89
334.648	4.24
335.02	4.23
335.391	4.58
335.763	3.93
336.135	4.28
336.507	4.37
336.879	4.12
337.25	4.33
337.622	4.4
337.993	4.27
338.365	4.55
338.736	4.41
339.108	4.29
339.479	4.31
339.851	4.02
340.222	3.92
340.593	4.33
340.964	4.44
341.336	4.46
341.707	3.83
342.078	4.07
342.449	4.57
342.82	4.31
343.191	4.41
343.562	4.38
343.933	4.71
344.303	4.33
344.674	4.77
345.045	4.6
345.416	4.77
345.786	4.34
346.157	4.48
346.527	4.62
346.898	4.68
347.268	4.54
347.639	4.54
348.009	4.16
348.38	4.56
348.75	4.48
349.12	4.46
349.49	4.44
349.861	4.55
350.231	4.29
350.601	4.93
350.971	4.71
351.341	4.34
351.711	4.53
352.081	4.33
352.45	4.37
352.82	4.38
353.19	4.29
353.56	4.31
353.929	4.31
354.299	4.51
354.669	4.17
355.038	4.09
355.408	4.31
355.777	4.09
356.147	4.32
356.516	4.88
356.885	4.35
357.254	4.28
357.624	4.51
357.993	4.32
358.362	4.38
358.731	4.57
359.1	4
359.469	4.25
359.838	4.15
360.207	4.26
360.576	4.31
360.945	4.33
361.314	4.76
361.682	4.13
362.051	4.78
362.42	4.47
362.788	4.2
363.157	4.63
363.525	4.33
363.894	4.5
364.262	4.38
364.631	4.03
364.999	4.49
365.367	4.52
365.735	4.15
366.104	4.38
366.472	4.25
366.84	4.31
367.208	4.47
367.576	4.33
367.944	4.53
368.312	4.75
368.68	4.55
369.048	4.55
369.416	4.57
369.783	4.56
370.151	4.72
370.519	4.15
370.886	4.54
371.254	4.45
371.621	4.77
371.989	4.16
372.356	4.29
372.724	4.29
373.091	4.33
373.458	4.37
373.826	4.4
374.193	4.27
374.56	4.63
374.927	4.64
375.294	4.45
375.661	4.69
376.028	4.77
376.395	4.61
376.762	4.66
377.129	4.64
377.496	4.39
377.863	4.3
378.229	4.61
378.596	4.36
378.963	4.82
379.329	4.02
379.696	4.17
380.062	4.82
380.429	4.6
380.795	4.67
381.161	4.62
381.528	4.77
381.894	5.03
382.26	4.37
382.626	4.7
382.993	4.56
383.359	4.46
383.725	4.56
384.091	4.43
384.457	4.39
384.823	4.58
385.188	4.49
385.554	4.48
385.92	4.63
386.286	4.78
386.651	4.72
387.017	4.85
387.383	4.67
387.748	4.41
388.114	4.74
388.479	4.82
388.845	4.69
389.21	4.62
389.575	4.27
389.94	4.53
390.306	4.71
390.671	4.45
391.036	4.71
391.401	4.28
391.766	4.63
392.131	4.68
392.496	4.75
392.861	4.55
393.226	4.6
393.591	4.49
393.956	4.6
394.32	4.44
394.685	4.52
395.05	4.35
395.414	4.63
395.779	4.54
396.143	4.56
396.508	4.45
396.872	4.51
397.236	4.71
397.601	4.57
397.965	4.7
398.329	4.76
398.694	4.48
399.058	4.86
399.422	4.53
399.786	4.65
400.15	4.47
400.514	4.93
400.878	4.67
401.242	4.65
401.605	4.71
401.969	4.62
402.333	4.5
402.697	4.74
403.06	4.36
403.424	4.59
403.787	4.57
404.151	5
404.514	4.41
404.878	4.58
405.241	4.67
405.604	4.58
405.968	4.57
406.331	4.76
406.694	4.86
407.057	4.6
407.42	4.73
407.783	4.57
408.146	4.6
408.509	4.8
408.872	4.71
409.235	4.71
409.598	4.5
409.961	4.59
410.323	4.7
410.686	4.55
411.049	4.96
411.411	4.92
411.774	4.82
412.136	4.9
412.499	4.84
412.861	4.7
413.223	4.91
413.586	4.68
413.948	4.61
414.31	4.68
414.672	4.92
415.035	4.74
415.397	4.77
415.759	4.84
416.121	4.66
416.483	4.8
416.845	4.65
417.206	4.81
417.568	4.63
417.93	4.85
418.292	4.61
418.653	4.9
419.015	4.79
419.377	4.81
419.738	4.63
420.1	4.74
420.461	4.64
420.822	4.73
421.184	4.73
421.545	4.99
421.906	4.64
422.267	4.57
422.629	4.65
422.99	4.62
423.351	4.67
423.712	4.64
424.073	4.74
424.434	4.67
424.795	4.73
425.155	4.58
425.516	4.54
425.877	4.56
426.238	4.57
426.598	4.54
426.959	4.66
427.32	4.74
427.68	4.65
428.041	4.78
428.401	4.73
428.761	4.74
429.122	4.83
429.482	4.94
429.842	4.93
430.202	4.8
430.563	4.8
430.923	4.88
431.283	4.86
431.643	4.85
432.003	4.7
432.363	4.91
432.722	4.82
433.082	4.91
433.442	4.83
433.802	4.96
434.161	4.87
434.521	4.89
434.881	4.84
435.24	4.85
435.6	4.79
435.959	4.77
436.319	4.92
436.678	4.85
437.037	4.82
437.396	4.87
437.756	4.94
438.115	4.88
438.474	4.76
438.833	5.02
439.192	4.9
439.551	4.91
439.91	4.8
440.269	4.81
440.628	4.59
440.987	4.77
441.345	4.94
441.704	4.7
442.063	4.91
442.421	4.84
442.78	4.9
443.138	4.81
443.497	4.81
443.855	4.72
444.214	4.84
444.572	4.95
444.93	4.95
445.288	4.85
445.647	5.08
446.005	4.94
446.363	4.83
446.721	4.81
447.079	4.92
447.437	4.77
447.795	4.84
448.153	4.72
448.51	4.81
448.868	4.8
449.226	5.01
449.584	4.75
449.941	4.89
450.299	4.9
450.656	4.88
451.014	4.83
451.371	5.01
451.729	4.97
452.086	4.99
452.443	5.16
452.801	4.98
453.158	4.85
453.515	5.05
453.872	5.03
454.229	5.07
454.586	4.7
454.943	4.96
455.3	4.97
455.657	4.92
456.014	5.07
456.371	5.17
456.727	4.98
457.084	5.05
457.441	5.01
457.797	5.12
458.154	5.04
458.51	4.88
458.867	5.23
459.223	5.09
459.58	4.99
459.936	4.97
460.292	4.97
460.648	5.07
461.005	4.92
461.361	4.86
461.717	4.98
462.073	4.94
462.429	4.96
462.785	4.87
463.141	5.09
463.496	4.87
463.852	5.13
464.208	5.17
464.564	5.03
464.919	5.2
465.275	5.15
465.631	5.23
465.986	5.13
466.342	5.05
466.697	5.25
467.052	5.26
467.408	5.12
467.763	5.22
468.118	5.04
468.473	5.29
468.829	5.24
469.184	5.08
469.539	5.24
469.894	5.08
470.249	5.17
470.603	5.13
470.958	5.03
471.313	5.35
471.668	5.24
472.023	5.22
472.377	4.95
472.732	5.08
473.086	5.16
473.441	5.22
473.795	5.33
474.15	5.23
474.504	5.09
474.859	5.21
475.213	4.9
475.567	5.06
475.921	5.26
476.275	5.14
476.63	5.32
476.984	5.25
477.338	5.2
477.692	5.15
478.045	5.42
478.399	5.03
478.753	5.17
479.107	5.15
479.461	5.24
479.814	5.28
480.168	5.18
480.521	5.21
480.875	5.2
481.228	5.22
481.582	5.35
481.935	5.31
482.289	5.33
482.642	5.3
482.995	5.24
483.348	5.18
483.701	5.28
484.055	5.25
484.408	5.2
484.761	5.07
485.114	5.01
485.466	4.95
485.819	4.88
486.172	4.9
486.525	4.97
486.878	5.03
487.23	5.01
487.583	5.09
487.936	5.19
488.288	5.09
488.641	5.12
488.993	5.01
489.345	5.06
489.698	5.03
490.05	5.04
490.402	5.06
490.754	5.1
491.107	5.14
491.459	5.24
491.811	5.27
492.163	5.26
492.515	5.38
492.866	5.22
493.218	5.16
493.57	5.1
493.922	5.06
494.274	5.15
494.625	5.3
494.977	5.36
495.328	5.38
495.68	5.27
496.031	5.51
496.383	5.33
496.734	5.42
497.086	5.37
497.437	5.38
497.788	5.45
498.139	5.42
498.49	5.43
498.842	5.32
499.193	5.36
499.544	5.27
499.894	5.44
500.245	5.49
500.596	5.45
500.947	5.45
501.298	5.51
501.648	5.51
501.999	5.47
502.35	5.53
502.7	5.55
503.051	5.46
503.401	5.54
503.752	5.82
504.102	5.7
504.452	5.63
504.803	5.55
505.153	5.6
505.503	5.66
505.853	5.59
506.203	5.65
506.553	5.58
506.903	5.67
507.253	5.71
507.603	5.65
507.953	5.53
508.303	5.61
508.652	5.69
509.002	5.67
509.352	5.68
509.701	5.62
510.051	5.66
510.4	5.56
510.75	5.57
511.099	5.61
511.449	5.7
511.798	5.68
512.147	5.58
512.496	5.88
512.846	5.83
513.195	5.75
513.544	5.71
513.893	5.71
514.242	5.63
514.591	5.76
514.939	5.83
515.288	5.85
515.637	5.69
515.986	5.82
516.334	5.8
516.683	5.74
517.032	5.88
517.38	5.73
517.729	5.96
518.077	5.74
518.426	5.97
518.774	5.78
519.122	5.81
519.47	5.81
519.819	5.82
520.167	5.73
520.515	5.65
520.863	5.89
521.211	5.76
521.559	5.85
521.907	5.82
522.255	5.91
522.602	6.03
522.95	5.98
523.298	5.94
523.645	6.11
523.993	6.01
524.341	6.05
524.688	5.99
525.036	5.95
525.383	5.99
525.73	5.97
526.078	5.92
526.425	5.97
526.772	5.96
527.119	5.97
527.466	5.99
527.814	5.9
528.161	5.96
528.508	6.02
528.854	6.03
529.201	6.05
529.548	6.01
529.895	5.91
530.242	5.82
530.588	5.81
530.935	5.92
531.282	5.92
531.628	5.97
531.975	6.01
532.321	5.99
532.667	6.07
533.014	6.13
533.36	6.16
533.706	6.13
534.052	6.16
534.399	6.2
534.745	6.14
535.091	6.1
535.437	6.16
535.783	6.1
536.129	6.27
536.474	6.15
536.82	6.29
537.166	6.38
537.512	6.3
537.857	6.4
538.203	6.44
538.549	6.38
538.894	6.28
539.239	6.39
539.585	6.43
539.93	6.48
540.276	6.43
540.621	6.47
540.966	6.5
541.311	6.61
541.656	6.57
542.001	6.58
542.346	6.52
542.691	6.46
543.036	6.37
543.381	6.33
543.726	6.4
544.071	6.48
544.415	6.46
544.76	6.58
545.105	6.59
545.449	6.63
545.794	6.71
546.138	6.58
546.483	6.79
546.827	6.8
547.171	6.74
547.516	6.71
547.86	6.79
548.204	6.77
548.548	6.73
548.892	6.95
549.236	6.92
549.58	6.96
549.924	6.84
550.268	7.03
550.612	6.96
550.956	6.99
551.3	7.05
551.643	7.16
551.987	7.24
552.33	7.23
552.674	7.13
553.017	7.42
553.361	7.41
553.704	7.26
554.048	7.27
554.391	7.22
554.734	7.21
555.077	7.23
555.42	7.21
555.764	7.41
556.107	7.48
556.45	7.13
556.793	7.34
557.135	7.53
557.478	7.41
557.821	7.35
558.164	7.59
558.507	7.51
558.849	7.51
559.192	7.56
559.534	7.52
559.877	7.63
560.219	7.62
560.562	7.56
560.904	7.7
561.246	7.58
561.589	7.65
561.931	7.59
562.273	7.5
562.615	7.62
562.957	7.62
563.299	7.68
563.641	7.92
563.983	7.85
564.325	7.87
564.667	7.99
565.008	7.79
565.35	7.82
565.692	7.9
566.033	8.09
566.375	8.09
566.716	7.93
567.058	8.18
567.399	8.09
567.741	8.1
568.082	8.04
568.423	8.18
568.764	8.05
569.105	8.05
569.447	8.27
569.788	8.11
570.129	8.03
570.47	8.37
570.811	8.18
571.151	8.52
571.492	8.4
571.833	8.33
572.174	8.34
572.514	8.42
572.855	8.41
573.195	8.45
573.536	8.32
573.876	8.38
574.217	8.51
574.557	8.56
574.898	8.53
575.238	8.58
575.578	8.47
575.918	8.71
576.258	8.72
576.598	8.68
576.938	8.72
577.278	8.69
577.618	8.67
577.958	8.69
578.298	8.97
578.638	8.89
578.977	8.86
579.317	8.93
579.657	8.85
579.996	9.2
580.336	8.96
580.675	9.15
581.014	9.2
581.354	9.04
581.693	9.07
582.032	9.06
582.372	9.02
582.711	9.31
583.05	9.25
583.389	9.21
583.728	9.36
584.067	9.56
584.406	9.6
584.745	9.35
585.083	9.32
585.422	9.66
585.761	9.7
586.1	9.44
586.438	9.68
586.777	9.72
587.115	9.61
587.454	9.78
587.792	9.57
588.13	10.01
588.469	9.57
588.807	9.53
589.145	9.84
589.483	9.77
589.821	9.91
590.159	10.02
590.497	10.07
590.835	9.94
591.173	10.02
591.511	9.86
591.849	9.85
592.187	10.22
592.524	9.92
592.862	10.2
593.2	10.15
593.537	9.94
593.875	10.33
594.212	10.34
594.55	10.36
594.887	10.71
595.224	10.38
595.561	10.42
595.899	10.12
596.236	10.54
596.573	10.13
596.91	10.56
597.247	10.51
597.584	10.52
597.921	10.5
598.258	10.67
598.594	10.58
598.931	10.37
599.268	10.5
599.604	10.45
599.941	10.53
600.277	10.56
600.614	10.97
600.95	10.77
601.287	10.92
601.623	10.96
601.959	10.81
602.296	11.22
602.632	10.62
602.968	10.94
603.304	11.11
603.64	11.35
603.976	10.89
604.312	11.18
604.648	11.15
604.984	11.18
605.319	11.24
605.655	11.24
605.991	11.2
606.326	11.08
606.662	11.31
606.998	11.09
607.333	11.42
607.668	11.17
608.004	11.45
608.339	11.47
608.674	11.41
609.01	11.5
609.345	11.82
609.68	11.81
610.015	11.59
610.35	11.68
610.685	11.86
611.02	11.85
611.355	11.68
611.689	11.5
612.024	11.53
612.359	11.95
612.694	12
613.028	12
613.363	11.83
613.697	12.26
614.032	12.3
614.366	12.36
614.7	12.24
615.035	12.27
615.369	12.16
615.703	12.11
616.037	12.2
616.371	12.23
616.705	12.56
617.039	12.34
617.373	12.19
617.707	11.94
618.041	12.44
618.375	12.28
618.709	12.43
619.042	12.49
619.376	12.53
619.71	13.04
620.043	13.06
620.377	13.08
620.71	12.55
621.043	12.84
621.377	12.36
621.71	12.93
622.043	12.87
622.376	13.16
622.709	12.97
623.043	13.14
623.376	13.31
623.709	13.26
624.041	13.28
624.374	13.11
624.707	13.51
625.04	13.3
625.373	13.41
625.705	13.39
626.038	13.45
626.37	13.28
626.703	13.59
627.035	13.41
627.368	13.82
627.7	13.7
628.032	13.65
628.365	13.74
628.697	13.57
629.029	13.44
629.361	13.66
629.693	13.74
630.025	13.6
630.357	14.03
630.689	13.57
631.021	13.92
631.353	13.85
631.684	14.1
632.016	13.91
632.348	14.15
632.679	13.93
633.011	14.66
633.342	14.34
633.674	14.14
634.005	14.35
634.336	14.52
634.668	14.45
634.999	14.55
635.33	14.55
635.661	14.52
635.992	14.15
636.323	14.28
636.654	14.52
636.985	14.4
637.316	14.66
637.647	14.7
637.977	14.82
638.308	14.91
638.639	14.46
638.969	14.48
639.3	14.68
639.63	14.91
639.961	14.92
640.291	14.76
640.622	14.86
640.952	14.95
641.282	15.07
641.612	15.12
641.943	15.21
642.273	15.37
642.603	15.45
642.933	15.19
643.263	15.14
643.592	15.31
643.922	15.14
644.252	15.68
644.582	15.31
644.911	15.09
645.241	15.25
645.571	15.71
645.9	15.42
646.23	15.39
646.559	16.24
646.888	15.85
647.218	15.86
647.547	15.42
647.876	16.11
648.205	15.97
648.534	16.45
648.863	16.34
649.192	16.8
649.521	16.06
649.85	15.63
650.179	15.71
650.508	16.77
650.837	16.2
651.165	16.35
651.494	15.72
651.822	16.51
652.151	16.53
652.479	16.15
652.808	16.9
653.136	16.12
653.465	16.71
653.793	16.17
654.121	16.93
654.449	16.87
654.777	16.53
655.105	16.45
655.433	16.88
655.761	16.73
656.089	16.48
656.417	16.85
656.745	17.16
657.073	16.9
657.4	16.96
657.728	16.2
658.056	17
658.383	16.51
658.711	16.98
659.038	16.98
659.365	17.08
659.693	16.9
660.02	16.98
660.347	17.33
660.674	17.06
661.001	17.28
661.329	17.35
661.656	17.49
661.982	17.17
662.309	17.49
662.636	17.43
662.963	17.4
663.29	17.75
663.616	17.77
663.943	18.19
664.27	17.83
664.596	18.46
664.923	18.3
665.249	17.49
665.576	17.88
665.902	17.89
666.228	17.95
666.554	17.64
666.881	17.84
667.207	18.11
667.533	17.98
667.859	18.09
668.185	18.78
668.511	18.2
668.837	18.05
669.162	18.8
669.488	17.52
669.814	18.47
670.139	17.96
670.465	17.34
670.791	18.57
671.116	18.26
671.442	18.55
671.767	19.04
672.092	19.03
672.418	18.31
672.743	18.86
673.068	18.09
673.393	18.92
673.718	18.35
674.043	19.1
674.368	17.84
674.693	18.7
675.018	18.97
675.343	18.97
675.667	19.32
675.992	18.94
676.317	18.68
676.641	18.5
676.966	18.94
677.29	18.9
677.615	19.26
677.939	19.39
678.264	19.34
678.588	19.77
678.912	19.65
679.236	18.77
679.56	19.85
679.885	19.26
680.209	20.15
680.532	19.84
680.856	19.72
681.18	19.73
681.504	19.14
681.828	19.33
682.152	19.25
682.475	19.74
682.799	19.9
683.122	19.77
683.446	19.79
683.769	20.49
684.093	20.01
684.416	19.74
684.739	19.85
685.062	20.11
685.386	20.45
685.709	19.11
686.032	20.55
686.355	19.85
