Data from 445_forehead_Reflection__1__41.txt Node

Date: Tue Dec 12 18:34:17 CST 2023
User: ToomeyLab
Spectrometer: FLMS14357
Trigger mode: 0
Integration Time (sec): 1.000000E-2
Scans to average: 100
Electric dark correction enabled: true
Nonlinearity correction enabled: false
Boxcar width: 0
XAxis mode: Wavelengths
Number of Pixels in Spectrum: 2048
>>>>>Begin Spectral Data<<<<<
189.047	-81.5
189.435	-81.5
189.823	-81.5
190.211	332.72
190.599	18.45
190.987	145.76
191.375	-1.08
191.763	76.66
192.151	75.77
192.538	140.76
192.926	101.79
193.314	-346.25
193.702	117.22
194.089	49.26
194.477	1056.25
194.864	61.82
195.252	111.99
195.639	41.75
196.027	354.31
196.414	33.44
196.801	427.24
197.189	225.24
197.576	-363.19
197.963	26.6
198.351	31.86
198.738	48.74
199.125	20.21
199.512	41.11
199.899	66.26
200.286	4.61
200.673	41.25
201.06	16.31
201.447	-6.89
201.833	16.61
202.22	20.58
202.607	22.3
202.994	56.68
203.38	57.47
203.767	21.74
204.154	27.8
204.54	64.6
204.927	42.88
205.313	20.77
205.699	43.46
206.086	9.12
206.472	30.09
206.858	16.44
207.245	29.32
207.631	42.25
208.017	21.73
208.403	0.26
208.789	14.1
209.175	24.74
209.561	33.87
209.947	10.45
210.333	33.3
210.719	49.31
211.105	64.96
211.491	79.12
211.876	30.52
212.262	45.4
212.648	29.89
213.034	6.36
213.419	23.16
213.805	33.3
214.19	61.27
214.576	47.61
214.961	24.73
215.346	34.25
215.732	52.52
216.117	4.59
216.502	34.48
216.888	0.88
217.273	-4.76
217.658	23.29
218.043	28
218.428	16.03
218.813	41.37
219.198	1.17
219.583	9.54
219.968	36.79
220.353	34.85
220.738	14.54
221.122	15.39
221.507	-3.96
221.892	9.89
222.276	7.56
222.661	18.17
223.046	2.9
223.43	13.45
223.815	2.61
224.199	6.65
224.583	13.44
224.968	12.64
225.352	3.97
225.736	12.84
226.121	6.79
226.505	5.95
226.889	5.86
227.273	4.12
227.657	12.31
228.041	10.3
228.425	9.24
228.809	9.11
229.193	4.85
229.577	6.51
229.961	5.42
230.344	6.8
230.728	6.82
231.112	6.65
231.495	6.31
231.879	6.49
232.263	6.5
232.646	5.95
233.03	7.23
233.413	5.18
233.797	6
234.18	6.03
234.563	8.76
234.946	8.81
235.33	7.99
235.713	8.39
236.096	5.52
236.479	7.58
236.862	6.03
237.245	7.88
237.628	6.39
238.011	7.71
238.394	8.5
238.777	9.31
239.16	9.43
239.543	7.52
239.925	8.19
240.308	7.34
240.691	6.18
241.073	7.83
241.456	8.62
241.838	5.89
242.221	7.1
242.603	7.04
242.986	7
243.368	6.86
243.75	6.47
244.133	6.23
244.515	6.59
244.897	6.27
245.279	6.59
245.661	6.28
246.043	6.99
246.425	7.09
246.807	5.47
247.189	7.31
247.571	6.56
247.953	6.35
248.335	6.02
248.717	6.22
249.098	6.19
249.48	6.15
249.862	6.21
250.243	6.44
250.625	6.62
251.006	6.53
251.388	6.38
251.769	6.65
252.151	6.74
252.532	7.39
252.913	7.36
253.295	7.66
253.676	6.69
254.057	6.61
254.438	7.02
254.819	6.51
255.2	6.48
255.581	7.38
255.962	6.4
256.343	7.3
256.724	7.83
257.105	7.09
257.486	6.08
257.867	6.72
258.247	6.93
258.628	6.91
259.009	6.63
259.389	7.01
259.77	6.12
260.15	6.69
260.531	7.48
260.911	6.68
261.292	6.16
261.672	6.21
262.052	6.13
262.432	6.36
262.813	6.93
263.193	6.54
263.573	6.63
263.953	7.36
264.333	6.92
264.713	6.53
265.093	7.01
265.473	6.77
265.853	6.71
266.233	5.66
266.612	6.01
266.992	6.7
267.372	7.58
267.752	7.24
268.131	5.94
268.511	6.14
268.89	6.13
269.27	6.06
269.649	6.34
270.029	6.39
270.408	6.35
270.787	6.6
271.167	6.4
271.546	6.94
271.925	7.87
272.304	6.68
272.683	6.03
273.062	6.43
273.441	6.76
273.82	6.08
274.199	6.46
274.578	6.37
274.957	6.15
275.336	6.4
275.715	6.45
276.093	5.55
276.472	6.77
276.851	7.26
277.229	5.97
277.608	6.38
277.986	5.99
278.365	6.9
278.743	6.22
279.122	6.48
279.5	6.61
279.878	5.53
280.257	6.94
280.635	6.65
281.013	7.07
281.391	6.85
281.769	6.12
282.147	6.87
282.525	6.32
282.903	6.62
283.281	5.97
283.659	6.33
284.037	6.4
284.415	6.36
284.792	6.78
285.17	6.74
285.548	6.99
285.925	6.55
286.303	6.51
286.68	6.71
287.058	6.67
287.435	6.66
287.813	6.23
288.19	6.63
288.567	6.64
288.945	7.06
289.322	6.34
289.699	6.5
290.076	6.8
290.453	6.8
290.83	6.57
291.207	7.55
291.584	6.89
291.961	7.68
292.338	7.3
292.715	6.77
293.092	7.2
293.469	7.06
293.845	7.96
294.222	7.63
294.599	7.39
294.975	7.62
295.352	7.92
295.728	7.59
296.105	7.89
296.481	8.17
296.858	7.83
297.234	7.83
297.61	8.37
297.986	8.02
298.363	8.23
298.739	8.38
299.115	8.15
299.491	8.08
299.867	8.55
300.243	8.28
300.619	8.6
300.995	8.89
301.371	8.8
301.746	8.88
302.122	9.24
302.498	9.43
302.874	9.11
303.249	9.41
303.625	9.18
304	9.51
304.376	9.21
304.751	9.43
305.127	9.3
305.502	9.9
305.878	9.52
306.253	9.44
306.628	10.12
307.003	10.35
307.378	9.87
307.754	10.14
308.129	9.88
308.504	10.39
308.879	10.64
309.254	11.02
309.629	10.51
310.003	11.35
310.378	11.12
310.753	11.6
311.128	11.69
311.502	10.9
311.877	11.06
312.252	10.69
312.626	11.68
313.001	11.28
313.375	11.23
313.75	11.93
314.124	11.79
314.498	12.07
314.873	11.58
315.247	12.42
315.621	11.98
315.995	12.41
316.369	12.37
316.743	12.07
317.117	12.3
317.491	12.16
317.865	12.82
318.239	13.07
318.613	13.12
318.987	13.71
319.361	13.02
319.734	12.79
320.108	13.39
320.482	14.01
320.855	13.75
321.229	13.55
321.602	13.65
321.976	14.23
322.349	13.76
322.723	13.55
323.096	13.94
323.469	14.47
323.843	14.44
324.216	13.93
324.589	13.76
324.962	14.58
325.335	14.85
325.708	14.9
326.081	14.79
326.454	14.79
326.827	15.17
327.2	15.24
327.573	15.17
327.945	15.25
328.318	15.44
328.691	14.8
329.063	15.61
329.436	15.85
329.809	15.08
330.181	16.16
330.553	15.56
330.926	16.3
331.298	16.09
331.671	16.07
332.043	15.79
332.415	15.87
332.787	16.24
333.159	16.19
333.532	16.78
333.904	16.64
334.276	16.91
334.648	16.7
335.02	16.35
335.391	16.67
335.763	17.15
336.135	16.87
336.507	17.45
336.879	17.07
337.25	17.27
337.622	17.26
337.993	17.21
338.365	16.47
338.736	17.56
339.108	17.28
339.479	17.89
339.851	17.13
340.222	17.51
340.593	18.08
340.964	17.74
341.336	18.22
341.707	17.78
342.078	18.09
342.449	18.17
342.82	18.46
343.191	17.91
343.562	17.88
343.933	18.83
344.303	18.73
344.674	18.81
345.045	18.79
345.416	19.2
345.786	18.23
346.157	19.02
346.527	18.79
346.898	18.93
347.268	18.62
347.639	19.2
348.009	18.83
348.38	18.87
348.75	19.61
349.12	19.61
349.49	19.04
349.861	19.63
350.231	19.72
350.601	19.87
350.971	19.62
351.341	19.71
351.711	20.09
352.081	19.73
352.45	19.93
352.82	19.55
353.19	20
353.56	20.17
353.929	20.26
354.299	20.08
354.669	20.29
355.038	20.26
355.408	20.64
355.777	20.56
356.147	20.61
356.516	20.6
356.885	20.77
357.254	20.73
357.624	20.75
357.993	21.2
358.362	21.14
358.731	20.93
359.1	21.03
359.469	20.53
359.838	21.02
360.207	21.48
360.576	21.45
360.945	20.92
361.314	21.6
361.682	21.49
362.051	21.62
362.42	21.44
362.788	21.39
363.157	21.79
363.525	21.53
363.894	21.84
364.262	21.56
364.631	21.61
364.999	22.07
365.367	22.24
365.735	22.29
366.104	22.4
366.472	22.14
366.84	22.59
367.208	22.37
367.576	22.64
367.944	22.66
368.312	22.72
368.68	22.78
369.048	22.81
369.416	23.06
369.783	22.64
370.151	22.97
370.519	23.13
370.886	23.07
371.254	23.06
371.621	23.43
371.989	23.47
372.356	23.25
372.724	23.58
373.091	23.41
373.458	23.49
373.826	23.73
374.193	23.45
374.56	24
374.927	23.77
375.294	23.94
375.661	24.1
376.028	24.02
376.395	24.49
376.762	24.52
377.129	24.34
377.496	24.02
377.863	24.56
378.229	24.44
378.596	24.35
378.963	24.7
379.329	24.46
379.696	24.52
380.062	24.86
380.429	24.67
380.795	25.05
381.161	24.78
381.528	25
381.894	25.06
382.26	24.91
382.626	25.16
382.993	25.22
383.359	25.39
383.725	25.5
384.091	25.21
384.457	25.25
384.823	25.49
385.188	25.87
385.554	25.79
385.92	25.65
386.286	25.88
386.651	25.88
387.017	26.34
387.383	25.94
387.748	26.31
388.114	26.22
388.479	26.33
388.845	26.25
389.21	26.5
389.575	26.18
389.94	26.47
390.306	26.67
390.671	26.42
391.036	27.11
391.401	26.77
391.766	26.95
392.131	26.93
392.496	27.13
392.861	26.7
393.226	27.25
393.591	27.29
393.956	26.94
394.32	27.15
394.685	27.48
395.05	27.19
395.414	27.4
395.779	27.62
396.143	27.71
396.508	27.43
396.872	27.52
397.236	27.59
397.601	27.92
397.965	27.81
398.329	28.11
398.694	27.8
399.058	28.06
399.422	28.04
399.786	28.01
400.15	28.38
400.514	28.25
400.878	28.17
401.242	28.64
401.605	28.43
401.969	28.14
402.333	28.9
402.697	28.54
403.06	28.33
403.424	28.72
403.787	28.6
404.151	28.81
404.514	28.73
404.878	28.91
405.241	29.1
405.604	29.09
405.968	29.05
406.331	29.33
406.694	29.22
407.057	29.18
407.42	29.34
407.783	29.21
408.146	29.31
408.509	29.44
408.872	29.77
409.235	29.75
409.598	29.77
409.961	29.75
410.323	29.79
410.686	29.87
411.049	29.98
411.411	30.15
411.774	29.88
412.136	30.3
412.499	30.15
412.861	30.47
413.223	30.41
413.586	30.56
413.948	30.49
414.31	30.55
414.672	30.69
415.035	30.59
415.397	31
415.759	30.81
416.121	30.57
416.483	31.12
416.845	30.87
417.206	31.23
417.568	30.94
417.93	31.07
418.292	30.82
418.653	31.25
419.015	31.11
419.377	31.05
419.738	30.93
420.1	31.29
420.461	31.06
420.822	31.24
421.184	31.09
421.545	31.33
421.906	31.2
422.267	31.25
422.629	31.27
422.99	31.23
423.351	31.4
423.712	31.41
424.073	31.53
424.434	31.64
424.795	31.74
425.155	31.71
425.516	31.77
425.877	31.63
426.238	31.78
426.598	31.92
426.959	32.09
427.32	32.01
427.68	32.34
428.041	32.37
428.401	32.54
428.761	32.19
429.122	32.66
429.482	32.93
429.842	32.96
430.202	33.12
430.563	33
430.923	33.05
431.283	32.91
431.643	33.21
432.003	33.14
432.363	33.24
432.722	33.29
433.082	33.46
433.442	33.55
433.802	33.39
434.161	33.61
434.521	33.55
434.881	33.56
435.24	33.72
435.6	33.64
435.959	33.67
436.319	33.8
436.678	33.94
437.037	34.24
437.396	33.84
437.756	34.28
438.115	34.43
438.474	34.04
438.833	34.38
439.192	34.42
439.551	34.34
439.91	34.41
440.269	34.52
440.628	34.44
440.987	34.48
441.345	34.55
441.704	34.35
442.063	34.5
442.421	34.48
442.78	34.72
443.138	34.86
443.497	34.93
443.855	35
444.214	34.94
444.572	35.03
444.93	35.31
445.288	35.09
445.647	35.47
446.005	35.27
446.363	35.34
446.721	35.21
447.079	35.46
447.437	35.25
447.795	35.25
448.153	35.29
448.51	35.25
448.868	35.29
449.226	35.59
449.584	35.69
449.941	35.95
450.299	36
450.656	35.97
451.014	35.99
451.371	36.43
451.729	36.44
452.086	36.58
452.443	36.49
452.801	36.58
453.158	36.77
453.515	36.61
453.872	36.62
454.229	36.9
454.586	36.61
454.943	37.02
455.3	37.1
455.657	36.97
456.014	36.99
456.371	36.99
456.727	37.31
457.084	37.21
457.441	37.49
457.797	37.36
458.154	37.33
458.51	37.55
458.867	37.48
459.223	37.51
459.58	37.65
459.936	37.61
460.292	37.5
460.648	37.67
461.005	37.64
461.361	37.47
461.717	37.6
462.073	37.51
462.429	37.55
462.785	37.74
463.141	38.08
463.496	37.94
463.852	38.48
464.208	38.37
464.564	38.34
464.919	38.64
465.275	38.83
465.631	38.76
465.986	38.95
466.342	38.72
466.697	38.83
467.052	39.14
467.408	38.88
467.763	39.14
468.118	39.29
468.473	39.01
468.829	39.02
469.184	39.38
469.539	39.25
469.894	39.07
470.249	39.34
470.603	39.44
470.958	39.46
471.313	39.53
471.668	39.72
472.023	39.7
472.377	39.73
472.732	39.78
473.086	39.79
473.441	39.85
473.795	40.1
474.15	40.22
474.504	40.02
474.859	40.34
475.213	40.05
475.567	40.09
475.921	40.21
476.275	40.16
476.63	40.27
476.984	40.31
477.338	40.57
477.692	40.47
478.045	40.54
478.399	40.55
478.753	40.49
479.107	40.7
479.461	40.67
479.814	40.7
480.168	40.84
480.521	40.81
480.875	40.9
481.228	40.84
481.582	41.07
481.935	41.27
482.289	41.05
482.642	41.07
482.995	41.19
483.348	41.02
483.701	41.14
484.055	40.95
484.408	40.76
484.761	40.78
485.114	40.4
485.466	40.32
485.819	40.61
486.172	40.57
486.525	40.7
486.878	40.6
487.23	40.91
487.583	41.12
487.936	41.35
488.288	41.25
488.641	41.17
488.993	41.14
489.345	41.11
489.698	41.1
490.05	41.18
490.402	41.23
490.754	41.52
491.107	41.68
491.459	42
491.811	41.99
492.163	42.16
492.515	42.21
492.866	41.93
493.218	41.78
493.57	41.92
493.922	41.88
494.274	41.93
494.625	42.27
494.977	42.78
495.328	42.83
495.68	43.16
496.031	43.29
496.383	43.22
496.734	43.47
497.086	43.38
497.437	43.53
497.788	43.49
498.139	43.44
498.49	43.55
498.842	43.48
499.193	43.48
499.544	43.68
499.894	43.56
500.245	43.79
500.596	43.91
500.947	43.97
501.298	44.05
501.648	43.99
501.999	44.17
502.35	44.38
502.7	44.39
503.051	44.41
503.401	44.45
503.752	44.69
504.102	44.7
504.452	44.54
504.803	44.86
505.153	44.8
505.503	44.87
505.853	45.01
506.203	44.89
506.553	45.02
506.903	45.1
507.253	45.11
507.603	45.24
507.953	45.38
508.303	45.05
508.652	45.18
509.002	45.35
509.352	45.31
509.701	45.52
510.051	45.54
510.4	45.32
510.75	45.25
511.099	45.59
511.449	45.62
511.798	45.79
512.147	45.62
512.496	45.97
512.846	45.92
513.195	45.9
513.544	45.89
513.893	45.79
514.242	45.9
514.591	46.25
514.939	46.1
515.288	46.12
515.637	46.17
515.986	46.36
516.334	46.35
516.683	46.28
517.032	46.6
517.38	46.83
517.729	46.95
518.077	46.9
518.426	46.98
518.774	46.68
519.122	47.07
519.47	47.01
519.819	46.54
520.167	46.88
520.515	46.78
520.863	46.79
521.211	46.76
521.559	46.99
521.907	47.09
522.255	47.12
522.602	47.36
522.95	47.39
523.298	47.44
523.645	47.63
523.993	47.72
524.341	47.77
524.688	47.86
525.036	47.74
525.383	47.81
525.73	47.73
526.078	47.83
526.425	48.07
526.772	47.85
527.119	47.9
527.466	47.76
527.814	47.68
528.161	47.86
528.508	47.98
528.854	47.99
529.201	47.77
529.548	47.84
529.895	47.4
530.242	47.49
530.588	47.71
530.935	47.87
531.282	47.72
531.628	47.72
531.975	47.77
532.321	48.11
532.667	48.3
533.014	48.56
533.36	48.72
533.706	48.8
534.052	48.96
534.399	48.9
534.745	48.7
535.091	48.42
535.437	48.59
535.783	48.64
536.129	48.82
536.474	48.91
536.82	49.35
537.166	49.34
537.512	49.5
537.857	49.33
538.203	49.32
538.549	49.39
538.894	49.36
539.239	49.55
539.585	49.39
539.93	49.78
540.276	49.77
540.621	50.22
540.966	50.08
541.311	50.36
541.656	50.19
542.001	50.32
542.346	50.01
542.691	49.9
543.036	49.67
543.381	49.65
543.726	49.77
544.071	49.8
544.415	49.83
544.76	50.23
545.105	50.31
545.449	50.58
545.794	50.57
546.138	50.82
546.483	50.91
546.827	51.23
547.171	51.04
547.516	51.26
547.86	51.24
548.204	51.18
548.548	51.08
548.892	51.22
549.236	51.15
549.58	51.3
549.924	51.39
550.268	51.82
550.612	51.89
550.956	52.04
551.3	52
551.643	52.28
551.987	52.44
552.33	52.21
552.674	52.53
553.017	52.56
553.361	52.61
553.704	52.45
554.048	52.63
554.391	52.5
554.734	52.42
555.077	52.64
555.42	52.62
555.764	52.72
556.107	53.01
556.45	52.9
556.793	52.93
557.135	53.21
557.478	53.28
557.821	53.45
558.164	53.8
558.507	53.43
558.849	53.53
559.192	53.3
559.534	53.61
559.877	53.28
560.219	53.57
560.562	53.48
560.904	53.88
561.246	53.81
561.589	53.64
561.931	53.78
562.273	53.87
562.615	53.75
562.957	53.79
563.299	54.17
563.641	54.27
563.983	53.86
564.325	54.19
564.667	54.28
565.008	54.42
565.35	54.23
565.692	54.7
566.033	54.67
566.375	54.48
566.716	54.41
567.058	54.38
567.399	54.57
567.741	54.69
568.082	54.36
568.423	54.18
568.764	54.62
569.105	54.7
569.447	54.7
569.788	54.8
570.129	54.91
570.47	55.18
570.811	55.02
571.151	54.9
571.492	55.21
571.833	55.23
572.174	55.67
572.514	55.46
572.855	55.37
573.195	55.2
573.536	55.32
573.876	55.45
574.217	55.31
574.557	55.54
574.898	55.62
575.238	55.66
575.578	55.81
575.918	55.73
576.258	55.72
576.598	55.68
576.938	55.91
577.278	56.08
577.618	56.04
577.958	56.14
578.298	56.29
578.638	56.02
578.977	56.39
579.317	56.12
579.657	56.84
579.996	56.7
580.336	56.42
580.675	56.76
581.014	56.66
581.354	56.95
581.693	57.07
582.032	57.16
582.372	57.16
582.711	57.07
583.05	56.84
583.389	57.24
583.728	57.28
584.067	57.66
584.406	57.67
584.745	57.66
585.083	57.06
585.422	57.45
585.761	57.75
586.1	57.71
586.438	57.84
586.777	57.88
587.115	57.87
587.454	57.99
587.792	57.78
588.13	58.17
588.469	57.87
588.807	57.8
589.145	57.79
589.483	58.21
589.821	58.38
590.159	57.59
590.497	58.28
590.835	58
591.173	58.44
591.511	58.25
591.849	58.01
592.187	58.68
592.524	58.73
592.862	58.65
593.2	58.66
593.537	58.71
593.875	58.65
594.212	59.02
594.55	59.23
594.887	58.67
595.224	59.02
595.561	58.98
595.899	59.03
596.236	59.21
596.573	59.01
596.91	59.31
597.247	59.05
597.584	59.05
597.921	59.54
598.258	59.33
598.594	59.07
598.931	59.07
599.268	59.1
599.604	59.18
599.941	59.53
600.277	59.66
600.614	60.13
600.95	60.13
601.287	60.06
601.623	59.7
601.959	60.19
602.296	60.04
602.632	59.97
602.968	60.56
603.304	59.87
603.64	60.24
603.976	60.26
604.312	60.35
604.648	60.53
604.984	60.27
605.319	60.3
605.655	60.19
605.991	60.29
606.326	60.2
606.662	60.25
606.998	60.2
607.333	60.52
607.668	60.48
608.004	60.2
608.339	60.66
608.674	60.78
609.01	61.07
609.345	61.19
609.68	61.22
610.015	61.05
610.35	61.41
610.685	61.16
611.02	60.98
611.355	61.06
611.689	60.98
612.024	61.09
612.359	60.98
612.694	61.17
613.028	61.07
613.363	61.39
613.697	61.93
614.032	61.77
614.366	61.54
614.7	61.73
615.035	61.38
615.369	61.63
615.703	61.33
616.037	61.71
616.371	61.74
616.705	62.7
617.039	61.38
617.373	61.91
617.707	62.19
618.041	62.3
618.375	62.38
618.709	62.3
619.042	62.54
619.376	62.19
619.71	62.32
620.043	62.51
620.377	62.54
620.71	62.31
621.043	62.67
621.377	62.51
621.71	62.76
622.043	62.17
622.376	62.75
622.709	62.72
623.043	63.18
623.376	63.12
623.709	62.61
624.041	62.56
624.374	63.12
624.707	63.01
625.04	63.2
625.373	63.57
625.705	63.28
626.038	63.31
626.37	63.69
626.703	63.79
627.035	63.33
627.368	63.6
627.7	63.53
628.032	63.94
628.365	63.31
628.697	63.75
629.029	63.44
629.361	63.35
629.693	64.03
630.025	63.88
630.357	64.04
630.689	63.81
631.021	63.67
631.353	63.48
631.684	63.72
632.016	64.49
632.348	63.85
632.679	64.34
633.011	64.94
633.342	64.02
633.674	64.7
634.005	64.06
634.336	64.18
634.668	64.47
634.999	64.97
635.33	64.17
635.661	64.69
635.992	65.09
636.323	64.71
636.654	64.43
636.985	64.58
637.316	64.45
637.647	64.83
637.977	64.69
638.308	64.79
638.639	64.84
638.969	64.73
639.3	65.33
639.63	64.91
639.961	65.19
640.291	65.14
640.622	65.34
640.952	64.98
641.282	65.4
641.612	65.2
641.943	65.13
642.273	65.34
642.603	65.59
642.933	65.58
643.263	65.17
643.592	65.84
643.922	66.33
644.252	66.31
644.582	65.88
644.911	65.24
645.241	65.66
645.571	65.7
645.9	65.92
646.23	66.17
646.559	66.21
646.888	66.21
647.218	66.38
647.547	66.5
647.876	66.43
648.205	65.84
648.534	66.36
648.863	66.49
649.192	66.22
649.521	66.5
649.85	66.94
650.179	66.69
650.508	66.35
650.837	66.5
651.165	66.97
651.494	66.35
651.822	67.14
652.151	66.55
652.479	66.8
652.808	67.52
653.136	66.73
653.465	66.59
653.793	66.69
654.121	66.24
654.449	67.26
654.777	66.85
655.105	66.64
655.433	67.65
655.761	67.3
656.089	67.2
656.417	67.78
656.745	66.87
657.073	66.87
657.4	66.85
657.728	67.16
658.056	67.56
658.383	67.28
658.711	67.3
659.038	67.96
659.365	67.55
659.693	67.32
660.02	67.84
660.347	67.82
660.674	67.58
661.001	67.63
661.329	67.91
661.656	67.67
661.982	67.29
662.309	67.52
662.636	68.07
662.963	67.54
663.29	68.94
663.616	68.4
663.943	68.47
664.27	68.12
664.596	68.65
664.923	69.14
665.249	68.33
665.576	68.57
665.902	68.7
666.228	68.26
666.554	67.6
666.881	68.43
667.207	68.82
667.533	69.03
667.859	68.14
668.185	68.27
668.511	68.74
668.837	68.93
669.162	68.65
