Data from 445_crown_Reflection__0__35.txt Node

Date: Tue Dec 12 18:32:44 CST 2023
User: ToomeyLab
Spectrometer: FLMS14357
Trigger mode: 0
Integration Time (sec): 1.000000E-2
Scans to average: 100
Electric dark correction enabled: true
Nonlinearity correction enabled: false
Boxcar width: 0
XAxis mode: Wavelengths
Number of Pixels in Spectrum: 2048
>>>>>Begin Spectral Data<<<<<
189.047	-841.05
189.435	-841.05
189.823	-841.05
190.211	46.69
190.599	7.7
190.987	91.59
191.375	-117.89
191.763	46.76
192.151	-6.94
192.538	-139.71
192.926	68.04
193.314	344.25
193.702	34.21
194.089	69.27
194.477	-20406.25
194.864	63.73
195.252	126.25
195.639	-227
196.027	139.35
196.414	88.31
196.801	400.12
197.189	44.24
197.576	244.31
197.963	86.64
198.351	-7.64
198.738	43.29
199.125	18.76
199.512	31.95
199.899	11.66
200.286	2.92
200.673	5
201.06	7.95
201.447	-95.77
201.833	-12.71
202.22	-9.78
202.607	-59.05
202.994	37.86
203.38	18.67
203.767	12
204.154	17.66
204.54	55.41
204.927	19.59
205.313	30.86
205.699	-7.94
206.086	-16.09
206.472	48.63
206.858	33.16
207.245	6.33
207.631	17.45
208.017	26.94
208.403	5.19
208.789	6.08
209.175	1.04
209.561	-12.22
209.947	-16.07
210.333	33.64
210.719	10.16
211.105	14.51
211.491	52.19
211.876	35.6
212.262	22.38
212.648	59.9
213.034	10.89
213.419	-6.51
213.805	12.87
214.19	38.6
214.576	21.93
214.961	26.71
215.346	7.46
215.732	24.04
216.117	-1.82
216.502	10.15
216.888	12.51
217.273	-0.71
217.658	-9.11
218.043	23.6
218.428	16.73
218.813	17.66
219.198	-10.83
219.583	-9.07
219.968	34.52
220.353	7.02
220.738	32.75
221.122	16.61
221.507	1.38
221.892	7.77
222.276	13.22
222.661	10.28
223.046	-4.51
223.43	12.82
223.815	2.03
224.199	10.73
224.583	16.33
224.968	2.82
225.352	-2.21
225.736	12.34
226.121	0.08
226.505	8.26
226.889	2.08
227.273	1.3
227.657	8.39
228.041	5.74
228.425	2.55
228.809	3.69
229.193	6.22
229.577	6.31
229.961	4.04
230.344	4.64
230.728	5.64
231.112	5.03
231.495	4.72
231.879	5.61
232.263	4.11
232.646	2.52
233.03	4.65
233.413	3.83
233.797	3.04
234.18	1.29
234.563	2.73
234.946	6.43
235.33	6.33
235.713	6.01
236.096	3.88
236.479	3.76
236.862	3.76
237.245	2.44
237.628	5.73
238.011	4.81
238.394	4.19
238.777	5.55
239.16	3.99
239.543	2.31
239.925	5.93
240.308	4.78
240.691	3.32
241.073	6.22
241.456	5.8
241.838	4.67
242.221	5.39
242.603	4.87
242.986	3.79
243.368	4.66
243.75	4.05
244.133	4.26
244.515	4.73
244.897	4.72
245.279	5.21
245.661	3.65
246.043	2.65
246.425	4.14
246.807	3.86
247.189	5.02
247.571	4.14
247.953	4.17
248.335	4.31
248.717	3.91
249.098	4.09
249.48	3.81
249.862	3.61
250.243	4.01
250.625	4.57
251.006	4.3
251.388	4.21
251.769	4.76
252.151	4.06
252.532	4.27
252.913	3.9
253.295	4.75
253.676	3.33
254.057	3.78
254.438	4.27
254.819	3.54
255.2	4.32
255.581	3.3
255.962	4.3
256.343	4.48
256.724	4.62
257.105	4.93
257.486	3.29
257.867	3.77
258.247	4.3
258.628	4.02
259.009	3.77
259.389	4.25
259.77	3.76
260.15	3.26
260.531	4.7
260.911	4.22
261.292	3.45
261.672	3.6
262.052	3.63
262.432	3.9
262.813	4.07
263.193	3.82
263.573	4.31
263.953	4.69
264.333	4.34
264.713	3.92
265.093	3.85
265.473	4.47
265.853	2.85
266.233	2.87
266.612	3.14
266.992	3.88
267.372	4.9
267.752	4.76
268.131	3.04
268.511	3.05
268.89	3.02
269.27	2.98
269.649	3.78
270.029	3.62
270.408	3.68
270.787	3.69
271.167	3.7
271.546	3.58
271.925	3.92
272.304	3.86
272.683	3.15
273.062	3.46
273.441	3.82
273.82	3.11
274.199	3.37
274.578	3.55
274.957	3.63
275.336	3.79
275.715	3.42
276.093	3.28
276.472	3.38
276.851	3.67
277.229	3.12
277.608	3.11
277.986	3.02
278.365	3.54
278.743	3.52
279.122	3.74
279.5	2.74
279.878	3.08
280.257	3.59
280.635	3.15
281.013	3.19
281.391	3.47
281.769	3.23
282.147	3.69
282.525	2.93
282.903	3.59
283.281	3.12
283.659	3.25
284.037	3.35
284.415	3.21
284.792	3.61
285.17	3.01
285.548	2.88
285.925	3.26
286.303	3.18
286.68	3.19
287.058	3.73
287.435	3.22
287.813	2.71
288.19	3.27
288.567	3.43
288.945	3.41
289.322	3.2
289.699	3.21
290.076	3.24
290.453	3.5
290.83	2.94
291.207	3.42
291.584	3.34
291.961	3.07
292.338	3.44
292.715	3.24
293.092	3.06
293.469	3.34
293.845	3.57
294.222	3.31
294.599	3.38
294.975	3
295.352	2.99
295.728	2.94
296.105	2.99
296.481	3.39
296.858	3.11
297.234	3
297.61	2.93
297.986	3.34
298.363	3.49
298.739	2.82
299.115	2.82
299.491	2.85
299.867	3
300.243	2.81
300.619	3.05
300.995	3.07
301.371	3.29
301.746	3.03
302.122	3.63
302.498	2.93
302.874	3.09
303.249	4.07
303.625	2.71
304	3.29
304.376	3.14
304.751	3.46
305.127	2.69
305.502	3.26
305.878	2.92
306.253	2.66
306.628	2.86
307.003	3.04
307.378	2.95
307.754	3.26
308.129	2.69
308.504	3.41
308.879	2.57
309.254	3.52
309.629	3.14
310.003	3.08
310.378	2.86
310.753	3.17
311.128	3.46
311.502	2.34
311.877	2.43
312.252	2.44
312.626	3.08
313.001	2.73
313.375	2.72
313.75	3.54
314.124	3.1
314.498	2.75
314.873	2.59
315.247	3.32
315.621	2.41
315.995	3.28
316.369	3.09
316.743	2.63
317.117	2.7
317.491	2.85
317.865	2.7
318.239	2.26
318.613	3.46
318.987	3.34
319.361	2.57
319.734	3.32
320.108	2.88
320.482	3.06
320.855	2.51
321.229	2.93
321.602	3.05
321.976	3.14
322.349	2.98
322.723	3.26
323.096	2.5
323.469	2.48
323.843	3.4
324.216	3.16
324.589	3.34
324.962	3.51
325.335	3.61
325.708	2.98
326.081	2.91
326.454	2.65
326.827	3.28
327.2	3.15
327.573	3.06
327.945	3.34
328.318	3.26
328.691	1.89
329.063	3.25
329.436	3.38
329.809	3.26
330.181	2.59
330.553	2.78
330.926	3.57
331.298	2.9
331.671	2.77
332.043	3.17
332.415	3.01
332.787	2.77
333.159	2.75
333.532	3.2
333.904	2.86
334.276	3.47
334.648	2.51
335.02	3.02
335.391	2.72
335.763	3.26
336.135	3.43
336.507	3.77
336.879	3.42
337.25	3.03
337.622	3.27
337.993	2.79
338.365	2.73
338.736	3.02
339.108	2.89
339.479	3.37
339.851	2.31
340.222	2.62
340.593	2.82
340.964	3.1
341.336	3.2
341.707	2.49
342.078	2.02
342.449	3.08
342.82	3.38
343.191	3.26
343.562	2.93
343.933	3.35
344.303	3.08
344.674	3.18
345.045	2.75
345.416	3.19
345.786	2.66
346.157	2.74
346.527	3.55
346.898	2.67
347.268	2.96
347.639	3.14
348.009	2.79
348.38	3.1
348.75	3.48
349.12	3.04
349.49	2.88
349.861	2.73
350.231	2.97
350.601	3.48
350.971	3.38
351.341	3.25
351.711	3.29
352.081	3.05
352.45	3.08
352.82	3.31
353.19	3.47
353.56	2.59
353.929	3.01
354.299	2.81
354.669	2.98
355.038	2.77
355.408	3.11
355.777	3.53
356.147	2.86
356.516	3.29
356.885	3.17
357.254	3.26
357.624	2.86
357.993	3.04
358.362	2.95
358.731	3.24
359.1	2.79
359.469	2.98
359.838	2.99
360.207	3.16
360.576	3.34
360.945	2.94
361.314	3.23
361.682	3.38
362.051	3.43
362.42	3.32
362.788	3.05
363.157	3.51
363.525	3.19
363.894	3.01
364.262	3.15
364.631	3.08
364.999	3.26
365.367	3.21
365.735	2.78
366.104	3.28
366.472	3.09
366.84	3.12
367.208	3.18
367.576	3.18
367.944	3.27
368.312	3.51
368.68	3.24
369.048	3.37
369.416	3.26
369.783	3.38
370.151	3.13
370.519	3.07
370.886	3.46
371.254	3.19
371.621	3.52
371.989	2.59
372.356	3.06
372.724	3.3
373.091	3.1
373.458	3.5
373.826	3.37
374.193	3.09
374.56	3.67
374.927	3.67
375.294	3.09
375.661	3.73
376.028	3.75
376.395	3.52
376.762	3.67
377.129	3.13
377.496	3.14
377.863	3.21
378.229	3.43
378.596	3.2
378.963	3.52
379.329	3.04
379.696	3.08
380.062	3.84
380.429	3.43
380.795	3.26
381.161	3.6
381.528	3.29
381.894	3.61
382.26	3.4
382.626	3.48
382.993	3.57
383.359	3.41
383.725	3.48
384.091	3.28
384.457	3.17
384.823	3.47
385.188	3.15
385.554	3.36
385.92	3.41
386.286	3.55
386.651	3.59
387.017	3.71
387.383	3.28
387.748	3.45
388.114	3.6
388.479	3.59
388.845	3.56
389.21	3.4
389.575	3.3
389.94	3.72
390.306	3.57
390.671	3.42
391.036	3.61
391.401	3.66
391.766	3.46
392.131	3.54
392.496	3.39
392.861	3.29
393.226	3.47
393.591	3.55
393.956	3.55
394.32	3.52
394.685	3.54
395.05	3.48
395.414	3.51
395.779	3.47
396.143	3.57
396.508	3.19
396.872	3.51
397.236	3.59
397.601	3.45
397.965	3.48
398.329	3.48
398.694	3.27
399.058	3.65
399.422	3.3
399.786	3.09
400.15	3.19
400.514	3.61
400.878	3.6
401.242	3.37
401.605	3.7
401.969	3.43
402.333	3.78
402.697	3.6
403.06	3.26
403.424	3.88
403.787	3.2
404.151	4
404.514	3.62
404.878	3.63
405.241	3.65
405.604	3.41
405.968	3.35
406.331	3.6
406.694	3.83
407.057	3.41
407.42	3.41
407.783	3.71
408.146	3.62
408.509	3.72
408.872	3.61
409.235	3.56
409.598	3.69
409.961	3.43
410.323	3.68
410.686	3.84
411.049	3.79
411.411	3.65
411.774	3.69
412.136	3.71
412.499	3.6
412.861	3.71
413.223	3.74
413.586	3.72
413.948	3.54
414.31	3.89
414.672	3.6
415.035	3.52
415.397	3.75
415.759	3.54
416.121	3.63
416.483	3.7
416.845	3.6
417.206	3.72
417.568	3.75
417.93	3.63
418.292	3.65
418.653	3.8
419.015	3.76
419.377	3.48
419.738	3.54
420.1	3.5
420.461	3.53
420.822	3.65
421.184	3.56
421.545	3.79
421.906	3.57
422.267	3.52
422.629	3.53
422.99	3.55
423.351	3.47
423.712	3.48
424.073	3.61
424.434	3.62
424.795	3.66
425.155	3.44
425.516	3.45
425.877	3.55
426.238	3.54
426.598	3.49
426.959	3.56
427.32	3.69
427.68	3.61
428.041	3.63
428.401	3.67
428.761	3.71
429.122	3.72
429.482	3.72
429.842	3.84
430.202	3.68
430.563	3.78
430.923	3.79
431.283	3.64
431.643	3.77
432.003	3.49
432.363	3.84
432.722	3.51
433.082	3.73
433.442	3.78
433.802	3.78
434.161	3.63
434.521	3.68
434.881	3.53
435.24	3.7
435.6	3.68
435.959	3.74
436.319	3.74
436.678	3.75
437.037	3.72
437.396	3.75
437.756	3.73
438.115	3.67
438.474	3.64
438.833	3.71
439.192	3.68
439.551	3.59
439.91	3.64
440.269	3.74
440.628	3.63
440.987	3.5
441.345	3.66
441.704	3.62
442.063	3.64
442.421	3.59
442.78	3.57
443.138	3.57
443.497	3.78
443.855	3.68
444.214	3.75
444.572	3.78
444.93	3.84
445.288	3.59
445.647	3.69
446.005	3.67
446.363	3.53
446.721	3.65
447.079	3.68
447.437	3.55
447.795	3.68
448.153	3.67
448.51	3.67
448.868	3.65
449.226	3.74
449.584	3.58
449.941	3.65
450.299	3.64
450.656	3.67
451.014	3.65
451.371	3.81
451.729	3.75
452.086	3.6
452.443	3.93
452.801	3.76
453.158	3.83
453.515	3.71
453.872	3.67
454.229	3.8
454.586	3.6
454.943	3.64
455.3	3.6
455.657	3.8
456.014	3.84
456.371	3.83
456.727	3.71
457.084	3.64
457.441	3.72
457.797	3.72
458.154	3.63
458.51	3.5
458.867	3.88
459.223	3.71
459.58	3.72
459.936	3.49
460.292	3.7
460.648	3.75
461.005	3.56
461.361	3.6
461.717	3.74
462.073	3.55
462.429	3.66
462.785	3.65
463.141	3.68
463.496	3.69
463.852	4.01
464.208	3.77
464.564	3.79
464.919	3.78
465.275	3.85
465.631	4.01
465.986	3.73
466.342	3.62
466.697	3.78
467.052	3.81
467.408	3.66
467.763	3.92
468.118	3.66
468.473	3.94
468.829	3.71
469.184	3.67
469.539	3.78
469.894	3.91
470.249	3.96
470.603	3.92
470.958	3.74
471.313	3.86
471.668	3.95
472.023	3.6
472.377	3.62
472.732	3.83
473.086	3.77
473.441	3.89
473.795	3.78
474.15	3.71
474.504	3.51
474.859	3.73
475.213	3.67
475.567	3.82
475.921	3.81
476.275	3.63
476.63	3.68
476.984	3.82
477.338	3.76
477.692	3.72
478.045	3.91
478.399	3.79
478.753	3.77
479.107	3.73
479.461	3.76
479.814	3.78
480.168	3.62
480.521	3.6
480.875	3.68
481.228	3.73
481.582	3.84
481.935	3.76
482.289	3.84
482.642	3.86
482.995	3.68
483.348	3.68
483.701	3.79
484.055	3.61
484.408	3.53
484.761	3.59
485.114	3.5
485.466	3.38
485.819	3.38
486.172	3.42
486.525	3.5
486.878	3.6
487.23	3.55
487.583	3.54
487.936	3.64
488.288	3.47
488.641	3.54
488.993	3.5
489.345	3.49
489.698	3.47
490.05	3.51
490.402	3.55
490.754	3.59
491.107	3.58
491.459	3.54
491.811	3.74
492.163	3.59
492.515	3.71
492.866	3.5
493.218	3.45
493.57	3.46
493.922	3.5
494.274	3.62
494.625	3.57
494.977	3.73
495.328	3.66
495.68	3.63
496.031	3.58
496.383	3.64
496.734	3.66
497.086	3.65
497.437	3.62
497.788	3.67
498.139	3.67
498.49	3.76
498.842	3.71
499.193	3.7
499.544	3.68
499.894	3.69
500.245	3.77
500.596	3.71
500.947	3.71
501.298	3.74
501.648	3.82
501.999	3.71
502.35	3.66
502.7	3.62
503.051	3.69
503.401	3.71
503.752	3.87
504.102	3.69
504.452	3.63
504.803	3.7
505.153	3.57
505.503	3.77
505.853	3.81
506.203	3.69
506.553	3.6
506.903	3.84
507.253	3.76
507.603	3.76
507.953	3.74
508.303	3.68
508.652	3.86
509.002	3.65
509.352	3.63
509.701	3.69
510.051	3.65
510.4	3.62
510.75	3.6
511.099	3.63
511.449	3.8
511.798	3.64
512.147	3.79
512.496	3.75
512.846	3.72
513.195	3.66
513.544	3.74
513.893	3.71
514.242	3.61
514.591	3.66
514.939	3.66
515.288	3.7
515.637	3.61
515.986	3.72
516.334	3.86
516.683	3.62
517.032	3.63
517.38	3.66
517.729	3.79
518.077	3.65
518.426	3.78
518.774	3.58
519.122	3.73
519.47	3.65
519.819	3.61
520.167	3.42
520.515	3.45
520.863	3.57
521.211	3.53
521.559	3.63
521.907	3.71
522.255	3.65
522.602	3.7
522.95	3.66
523.298	3.54
523.645	3.73
523.993	3.76
524.341	3.71
524.688	3.67
525.036	3.75
525.383	3.55
525.73	3.53
526.078	3.53
526.425	3.64
526.772	3.55
527.119	3.66
527.466	3.6
527.814	3.38
528.161	3.6
528.508	3.6
528.854	3.59
529.201	3.53
529.548	3.48
529.895	3.46
530.242	3.35
530.588	3.32
530.935	3.42
531.282	3.51
531.628	3.55
531.975	3.52
532.321	3.5
532.667	3.43
533.014	3.48
533.36	3.57
533.706	3.49
534.052	3.6
534.399	3.56
534.745	3.47
535.091	3.43
535.437	3.46
535.783	3.48
536.129	3.64
536.474	3.57
536.82	3.53
537.166	3.53
537.512	3.5
537.857	3.56
538.203	3.49
538.549	3.56
538.894	3.59
539.239	3.57
539.585	3.56
539.93	3.59
540.276	3.56
540.621	3.57
540.966	3.6
541.311	3.6
541.656	3.6
542.001	3.55
542.346	3.49
542.691	3.4
543.036	3.34
543.381	3.37
543.726	3.42
544.071	3.5
544.415	3.49
544.76	3.54
545.105	3.49
545.449	3.53
545.794	3.61
546.138	3.49
546.483	3.64
546.827	3.64
547.171	3.69
547.516	3.55
547.86	3.62
548.204	3.55
548.548	3.49
548.892	3.58
549.236	3.59
549.58	3.57
549.924	3.63
550.268	3.72
550.612	3.46
550.956	3.69
551.3	3.67
551.643	3.72
551.987	3.87
552.33	3.8
552.674	3.73
553.017	3.58
553.361	3.75
553.704	3.56
554.048	3.67
554.391	3.63
554.734	3.66
555.077	3.63
555.42	3.56
555.764	3.7
556.107	3.62
556.45	3.53
556.793	3.66
557.135	3.54
557.478	3.65
557.821	3.49
558.164	3.72
558.507	3.71
558.849	3.67
559.192	3.66
559.534	3.5
559.877	3.59
560.219	3.86
560.562	3.67
560.904	3.72
561.246	3.55
561.589	3.77
561.931	3.4
562.273	3.36
562.615	3.53
562.957	3.53
563.299	3.55
563.641	3.77
563.983	3.65
564.325	3.61
564.667	3.64
565.008	3.27
565.35	3.57
565.692	3.78
566.033	3.57
566.375	3.55
566.716	3.49
567.058	3.62
567.399	3.61
567.741	3.57
568.082	3.53
568.423	3.55
568.764	3.76
569.105	3.5
569.447	3.63
569.788	3.59
570.129	3.52
570.47	3.63
570.811	3.63
571.151	3.75
571.492	3.6
571.833	3.77
572.174	3.48
572.514	3.47
572.855	3.48
573.195	3.46
573.536	3.18
573.876	3.47
574.217	3.59
574.557	3.48
574.898	3.59
575.238	3.61
575.578	3.46
575.918	3.49
576.258	3.73
576.598	3.48
576.938	3.49
577.278	3.67
577.618	3.65
577.958	3.65
578.298	3.68
578.638	3.61
578.977	3.46
579.317	3.46
579.657	3.56
579.996	3.67
580.336	3.55
580.675	3.38
581.014	3.56
581.354	3.74
581.693	3.51
582.032	3.46
582.372	3.81
582.711	3.52
583.05	3.6
583.389	3.56
583.728	3.53
584.067	3.79
584.406	3.67
584.745	3.44
585.083	3.39
585.422	3.69
585.761	3.85
586.1	3.78
586.438	3.66
586.777	3.68
587.115	3.6
587.454	3.75
587.792	3.27
588.13	3.82
588.469	3.64
588.807	3.27
589.145	3.44
589.483	3.32
589.821	3.85
590.159	3.38
590.497	3.66
590.835	3.5
591.173	3.45
591.511	3.4
591.849	3.53
592.187	3.66
592.524	3.37
592.862	3.5
593.2	3.23
593.537	3.32
593.875	3.57
594.212	3.52
594.55	3.69
594.887	3.78
595.224	3.62
595.561	3.72
595.899	3.31
596.236	3.57
596.573	3.37
596.91	3.73
597.247	3.51
597.584	3.55
597.921	3.54
598.258	3.54
598.594	3.57
598.931	3.55
599.268	3.38
599.604	3.26
599.941	3.54
600.277	3.5
600.614	3.77
600.95	3.7
601.287	3.51
601.623	3.76
601.959	3.28
602.296	3.54
602.632	3.35
602.968	3.59
603.304	3.4
603.64	3.61
603.976	3.45
604.312	3.48
604.648	3.49
604.984	3.46
605.319	3.52
605.655	3.56
605.991	3.45
606.326	3.34
606.662	3.44
606.998	3.24
607.333	3.5
607.668	3.22
608.004	3.69
608.339	3.52
608.674	3.28
609.01	3.4
609.345	3.63
609.68	3.5
610.015	3.21
610.35	3.74
610.685	3.58
611.02	3.49
611.355	3.26
611.689	3.39
612.024	3.33
612.359	3.6
612.694	3.38
613.028	3.54
613.363	3.59
613.697	3.6
614.032	3.62
614.366	3.8
614.7	3.5
615.035	3.44
615.369	3.32
615.703	3.32
616.037	3.44
616.371	3.37
616.705	3.64
617.039	3.36
617.373	3.24
617.707	3.28
618.041	3.76
618.375	3.39
618.709	3.16
619.042	3.15
619.376	3.37
619.71	3.45
620.043	3.38
620.377	3.6
620.71	3.36
621.043	3.09
621.377	3.26
621.71	3.4
622.043	3.6
622.376	3.65
622.709	3.42
623.043	3.58
623.376	3.83
623.709	3.4
624.041	3.68
624.374	3.24
624.707	3.58
625.04	3.21
625.373	4.11
625.705	3.37
626.038	3.54
626.37	4.03
626.703	4.04
627.035	3.08
627.368	3.76
627.7	3.26
628.032	3.31
628.365	3.21
628.697	3.36
629.029	3.53
629.361	3.32
629.693	3.19
630.025	3.47
630.357	3.5
630.689	2.88
631.021	3.59
631.353	3.84
631.684	3.31
632.016	3.18
632.348	3.68
632.679	3
633.011	3.92
633.342	3.5
633.674	3.67
634.005	3.31
634.336	3.64
634.668	3.32
634.999	3.88
635.33	3.07
635.661	3.24
635.992	3.17
636.323	3.01
636.654	3.69
636.985	3.44
637.316	3.17
637.647	3.71
637.977	3.79
638.308	3.41
638.639	3.34
638.969	3.68
639.3	3.45
639.63	3.59
639.961	3.58
640.291	3.07
640.622	3.58
640.952	4
641.282	3.63
641.612	3.63
641.943	3.35
642.273	3.7
642.603	3.66
642.933	3.73
643.263	3.46
643.592	3.64
643.922	3.82
644.252	3.61
644.582	2.8
644.911	3.18
645.241	3.03
645.571	3.89
645.9	3.39
646.23	3.49
646.559	3.78
646.888	3.26
647.218	3.35
647.547	3.46
647.876	3.36
648.205	3.23
648.534	3.81
648.863	3.37
649.192	3.97
649.521	3.76
649.85	3.15
650.179	3.62
650.508	3.63
650.837	3.18
651.165	3.3
651.494	3.43
651.822	3.34
652.151	3.53
652.479	3.58
652.808	3.77
653.136	3.4
653.465	3.73
653.793	3.8
654.121	3.65
654.449	3.6
654.777	3.78
655.105	3.45
655.433	3.94
655.761	3.22
656.089	3.5
656.417	3.79
656.745	3.39
657.073	2.65
657.4	3.39
657.728	3
658.056	4.14
658.383	2.66
658.711	3.42
659.038	3.47
659.365	3.55
659.693	3.18
660.02	3.2
660.347	3.79
660.674	3.62
661.001	3.5
661.329	3.25
661.656	3.11
661.982	3.29
662.309	3.98
662.636	3.33
662.963	3.85
663.29	3.77
663.616	3.33
663.943	3.45
664.27	3.7
664.596	3.6
664.923	3.96
665.249	3.08
665.576	3.86
665.902	3.91
666.228	3.5
666.554	3.45
666.881	3
667.207	3.31
667.533	3.8
667.859	3.71
668.185	2.9
668.511	3.92
668.837	3.08
669.162	4.48
669.488	3.59
669.814	3.54
670.139	3.03
670.465	3.18
670.791	2.98
671.116	3.15
671.442	3.65
671.767	3.56
672.092	3.91
672.418	3.25
672.743	4.1
673.068	2.87
673.393	3.27
673.718	3.72
674.043	3.37
674.368	2.84
674.693	3.28
675.018	2.71
675.343	3.11
675.667	3.75
675.992	3.25
676.317	3
676.641	3.18
676.966	3.61
677.29	3.26
677.615	3.13
677.939	3.43
678.264	3.74
678.588	3.82
678.912	4.08
679.236	3.33
679.56	4.16
679.885	3.43
680.209	3.3
680.532	4
680.856	3.12
681.18	3.43
681.504	3.39
681.828	3.56
682.152	2.77
682.475	3.44
682.799	3.25
683.122	3.36
683.446	3.93
683.769	4.7
684.093	3.13
684.416	3.52
684.739	4.14
685.062	3.21
685.386	3.46
685.709	3.56
686.032	3.13
686.355	3.34
686.678	4.12
687.001	3.86
687.324	3.53
687.646	3.73
687.969	2.87
688.292	4.27
688.614	3.66
688.937	2.74
689.26	3.78
689.582	3.17
689.904	3.37
690.227	3.78
690.549	3.49
690.871	3.13
691.194	3.86
691.516	3.99
691.838	3.78
692.16	4.26
692.482	3.06
692.804	3.2
693.126	3.95
