Data from 445_forehead_Reflection__3__43.txt Node

Date: Tue Dec 12 18:34:37 CST 2023
User: ToomeyLab
Spectrometer: FLMS14357
Trigger mode: 0
Integration Time (sec): 1.000000E-2
Scans to average: 100
Electric dark correction enabled: true
Nonlinearity correction enabled: false
Boxcar width: 0
XAxis mode: Wavelengths
Number of Pixels in Spectrum: 2048
>>>>>Begin Spectral Data<<<<<
189.047	7.35
189.435	7.35
189.823	7.35
190.211	-780.88
190.599	19.58
190.987	69.64
191.375	-37.41
191.763	357.28
192.151	24.29
192.538	160.94
192.926	89.11
193.314	-525
193.702	88.25
194.089	-28.15
194.477	-5875
194.864	19.76
195.252	5.98
195.639	-352.24
196.027	318.66
196.414	53.92
196.801	691.98
197.189	-45.78
197.576	-112.78
197.963	107.04
198.351	33.92
198.738	34.88
199.125	29.08
199.512	38.04
199.899	52.54
200.286	13.23
200.673	17.41
201.06	2.07
201.447	-36.89
201.833	68.65
202.22	-4.86
202.607	-11.51
202.994	23.21
203.38	66.83
203.767	23.4
204.154	49.11
204.54	66.41
204.927	8.25
205.313	65.53
205.699	87.44
206.086	38.6
206.472	39.36
206.858	26.58
207.245	32.06
207.631	41.66
208.017	33.25
208.403	47.28
208.789	26.45
209.175	18.93
209.561	47.06
209.947	46.9
210.333	37.31
210.719	29.23
211.105	13.68
211.491	92.16
211.876	61.39
212.262	50.16
212.648	4.21
213.034	3.67
213.419	27.62
213.805	36.18
214.19	44.9
214.576	49.48
214.961	8.59
215.346	25.09
215.732	49.33
216.117	21.55
216.502	-0.2
216.888	17.81
217.273	32.97
217.658	8.78
218.043	19.01
218.428	41.15
218.813	37.57
219.198	-13.29
219.583	8.8
219.968	28.14
220.353	31.36
220.738	30.76
221.122	24.13
221.507	11.36
221.892	24.52
222.276	24.84
222.661	20.48
223.046	-2.59
223.43	18.7
223.815	11.54
224.199	12.4
224.583	3.21
224.968	10.56
225.352	2.99
225.736	13.43
226.121	9.61
226.505	7.82
226.889	9.2
227.273	8.64
227.657	15.31
228.041	6.65
228.425	6.49
228.809	6.24
229.193	6.56
229.577	6.36
229.961	3.33
230.344	4.38
230.728	4.46
231.112	4.28
231.495	5.02
231.879	4.29
232.263	3.63
232.646	3.67
233.03	6.39
233.413	4.18
233.797	3.18
234.18	2.46
234.563	3.47
234.946	6.55
235.33	7.05
235.713	6.75
236.096	3.42
236.479	5.66
236.862	2.66
237.245	4.82
237.628	4.69
238.011	4.54
238.394	3.51
238.777	4.71
239.16	4.67
239.543	4.89
239.925	5.91
240.308	5.77
240.691	4.9
241.073	5.75
241.456	4.71
241.838	4.72
242.221	4.62
242.603	3.96
242.986	4.75
243.368	4.61
243.75	3.78
244.133	4.26
244.515	4.61
244.897	3.84
245.279	4.12
245.661	3.49
246.043	4.33
246.425	5.09
246.807	3.58
247.189	5.18
247.571	4.18
247.953	4.12
248.335	4.19
248.717	4.05
249.098	4.12
249.48	3.62
249.862	3.72
250.243	3.93
250.625	4.58
251.006	4.67
251.388	4.51
251.769	4.8
252.151	4.1
252.532	5.02
252.913	5.67
253.295	5.12
253.676	3.99
254.057	4.13
254.438	4.12
254.819	4.79
255.2	3.6
255.581	4.43
255.962	4.69
256.343	4.96
256.724	4.36
257.105	5.06
257.486	4.68
257.867	4.56
258.247	4.76
258.628	4.58
259.009	3.95
259.389	4.66
259.77	4.31
260.15	4.17
260.531	4.86
260.911	4.66
261.292	3.6
261.672	3.97
262.052	4.08
262.432	4.12
262.813	4.06
263.193	4.28
263.573	5.41
263.953	5.36
264.333	4.88
264.713	4.52
265.093	4.19
265.473	4.81
265.853	4.26
266.233	3.87
266.612	4.34
266.992	3.74
267.372	4.92
267.752	5.01
268.131	4
268.511	4.11
268.89	3.49
269.27	4.19
269.649	4.36
270.029	4.2
270.408	4.49
270.787	4.07
271.167	4.5
271.546	3.98
271.925	4.86
272.304	4.78
272.683	3.55
273.062	4.11
273.441	4.38
273.82	3.76
274.199	3.95
274.578	3.92
274.957	4.32
275.336	4.23
275.715	4.71
276.093	3.84
276.472	4.46
276.851	4.31
277.229	4.1
277.608	4.46
277.986	3.94
278.365	4.3
278.743	4.19
279.122	3.99
279.5	4.14
279.878	3.9
280.257	4.01
280.635	4.69
281.013	4.37
281.391	4.51
281.769	4.47
282.147	4.51
282.525	4.21
282.903	3.95
283.281	4.34
283.659	4.14
284.037	4.21
284.415	4.17
284.792	4.65
285.17	4.07
285.548	4.54
285.925	4.33
286.303	4.15
286.68	4.56
287.058	4.35
287.435	4.8
287.813	3.98
288.19	4.55
288.567	4.68
288.945	4.86
289.322	4.24
289.699	4.57
290.076	4.24
290.453	4.6
290.83	4.39
291.207	4.81
291.584	4.57
291.961	5.07
292.338	4.63
292.715	4.61
293.092	4.48
293.469	4.69
293.845	5.12
294.222	5.08
294.599	5.42
294.975	4.73
295.352	5.18
295.728	4.99
296.105	5.37
296.481	5.55
296.858	5.57
297.234	5.3
297.61	5.77
297.986	5.46
298.363	5.96
298.739	5.53
299.115	5.08
299.491	5.05
299.867	5.37
300.243	5.39
300.619	6.02
300.995	5.7
301.371	6.23
301.746	5.87
302.122	6.24
302.498	6.08
302.874	6.18
303.249	6.4
303.625	5.84
304	6.3
304.376	6.37
304.751	6.39
305.127	6.34
305.502	6.93
305.878	6.53
306.253	6.57
306.628	6.49
307.003	6.92
307.378	6.75
307.754	6.92
308.129	6.37
308.504	7.8
308.879	6.41
309.254	7.68
309.629	7.39
310.003	7.36
310.378	7.67
310.753	7.5
311.128	7.63
311.502	7.06
311.877	7.28
312.252	7.15
312.626	7.83
313.001	7.87
313.375	7.39
313.75	8.12
314.124	8.22
314.498	8.17
314.873	8.12
315.247	8.29
315.621	8.37
315.995	8.33
316.369	8.25
316.743	8.22
317.117	8.08
317.491	8.45
317.865	8.36
318.239	8.52
318.613	9.29
318.987	9.06
319.361	8.4
319.734	9.17
320.108	8.91
320.482	9.21
320.855	8.36
321.229	9.06
321.602	9.49
321.976	9.9
322.349	9.15
322.723	9.05
323.096	9.22
323.469	9.22
323.843	9.67
324.216	9.81
324.589	9.42
324.962	9.87
325.335	9.79
325.708	9.86
326.081	9.83
326.454	9.67
326.827	10.3
327.2	10.31
327.573	10
327.945	10.04
328.318	10.4
328.691	10.02
329.063	10.98
329.436	10.2
329.809	10.77
330.181	10.8
330.553	10.48
330.926	10.64
331.298	10.35
331.671	10.53
332.043	10.59
332.415	11.11
332.787	11.08
333.159	10.87
333.532	10.86
333.904	10.84
334.276	11.81
334.648	10.72
335.02	11.07
335.391	11.53
335.763	10.85
336.135	11.45
336.507	11.28
336.879	11.55
337.25	11.86
337.622	11.33
337.993	11.35
338.365	11.14
338.736	12.14
339.108	11.57
339.479	11.69
339.851	11.35
340.222	11.36
340.593	11.76
340.964	12.08
341.336	12.09
341.707	11.63
342.078	11.63
342.449	12
342.82	12.67
343.191	12.35
343.562	12.09
343.933	12.47
344.303	12.45
344.674	12.15
345.045	12.4
345.416	12.41
345.786	12.13
346.157	12.59
346.527	12.6
346.898	12.61
347.268	12.69
347.639	12.91
348.009	12.5
348.38	12.54
348.75	13.31
349.12	13.04
349.49	13.03
349.861	13.54
350.231	13.02
350.601	13.29
350.971	12.89
351.341	13.14
351.711	13.29
352.081	13.06
352.45	13.5
352.82	13.36
353.19	13.52
353.56	13.48
353.929	13.36
354.299	12.85
354.669	12.99
355.038	13.48
355.408	13.62
355.777	14.01
356.147	13.87
356.516	13.78
356.885	13.88
357.254	13.83
357.624	13.72
357.993	13.62
358.362	13.92
358.731	14.1
359.1	13.95
359.469	13.78
359.838	13.94
360.207	14.24
360.576	14.41
360.945	14.17
361.314	14.15
361.682	14.35
362.051	14.48
362.42	14.37
362.788	14.64
363.157	14.7
363.525	14.62
363.894	14.26
364.262	14.28
364.631	14.36
364.999	14.45
365.367	14.95
365.735	14.68
366.104	15.08
366.472	14.78
366.84	15
367.208	14.95
367.576	15.07
367.944	15.22
368.312	15.16
368.68	15.15
369.048	15.19
369.416	15.31
369.783	15.42
370.151	15.5
370.519	15.49
370.886	15.26
371.254	15.12
371.621	15.66
371.989	15.53
372.356	15.75
372.724	15.29
373.091	15.67
373.458	15.83
373.826	15.87
374.193	15.43
374.56	16.19
374.927	16.23
375.294	15.88
375.661	16.32
376.028	15.95
376.395	16.1
376.762	16.12
377.129	16.29
377.496	16.31
377.863	16.45
378.229	16.44
378.596	16.11
378.963	16.41
379.329	16.13
379.696	16.52
380.062	16.56
380.429	16.66
380.795	16.76
381.161	16.64
381.528	16.91
381.894	17.02
382.26	16.87
382.626	16.77
382.993	16.84
383.359	16.97
383.725	16.77
384.091	16.9
384.457	16.82
384.823	17.14
385.188	17.08
385.554	17.28
385.92	17.29
386.286	17.61
386.651	17.34
387.017	17.76
387.383	17.05
387.748	17.32
388.114	17.22
388.479	17.71
388.845	17.61
389.21	17.65
389.575	17.52
389.94	17.82
390.306	17.85
390.671	17.75
391.036	17.83
391.401	17.99
391.766	18.22
392.131	17.91
392.496	18.1
392.861	17.59
393.226	18
393.591	18.06
393.956	17.69
394.32	18.12
394.685	18.49
395.05	18.03
395.414	18.35
395.779	18.22
396.143	18.36
396.508	18.33
396.872	18.44
397.236	18.55
397.601	18.78
397.965	18.53
398.329	18.66
398.694	18.47
399.058	18.93
399.422	19.02
399.786	18.63
400.15	18.7
400.514	19.29
400.878	19.09
401.242	19.01
401.605	19.21
401.969	19.24
402.333	19.03
402.697	19
403.06	19.14
403.424	19.54
403.787	18.9
404.151	19.58
404.514	19.06
404.878	18.93
405.241	19.37
405.604	19.47
405.968	19.4
406.331	19.5
406.694	19.6
407.057	19.55
407.42	19.67
407.783	19.81
408.146	19.65
408.509	19.78
408.872	19.81
409.235	19.85
409.598	19.82
409.961	19.85
410.323	20.28
410.686	20.02
411.049	20.32
411.411	20.2
411.774	20.25
412.136	20.14
412.499	20.28
412.861	20.19
413.223	20.63
413.586	20.32
413.948	20.53
414.31	20.59
414.672	20.74
415.035	20.39
415.397	20.64
415.759	20.75
416.121	20.69
416.483	20.91
416.845	20.71
417.206	21.13
417.568	20.59
417.93	20.84
418.292	20.62
418.653	20.83
419.015	20.91
419.377	20.75
419.738	20.9
420.1	20.76
420.461	20.9
420.822	20.84
421.184	20.79
421.545	20.96
421.906	20.91
422.267	20.94
422.629	20.94
422.99	20.92
423.351	20.94
423.712	20.93
424.073	21.18
424.434	21.15
424.795	21.13
425.155	21.27
425.516	20.99
425.877	21.21
426.238	21.21
426.598	21.17
426.959	21.4
427.32	21.47
427.68	21.63
428.041	21.77
428.401	21.8
428.761	21.82
429.122	22
429.482	21.91
429.842	22.11
430.202	22.02
430.563	22.21
430.923	22.05
431.283	22.17
431.643	22.48
432.003	22.3
432.363	22.39
432.722	22.52
433.082	22.37
433.442	22.61
433.802	22.58
434.161	22.63
434.521	22.59
434.881	22.58
435.24	22.67
435.6	22.62
435.959	22.7
436.319	22.75
436.678	22.91
437.037	22.94
437.396	22.99
437.756	22.98
438.115	23.28
438.474	23.1
438.833	23.48
439.192	23.15
439.551	23.12
439.91	23.07
440.269	23.15
440.628	23.15
440.987	23.1
441.345	23.48
441.704	23.26
442.063	23.35
442.421	23.4
442.78	23.32
443.138	23.35
443.497	23.5
443.855	23.43
444.214	23.63
444.572	23.76
444.93	23.77
445.288	23.74
445.647	24.06
446.005	23.84
446.363	23.96
446.721	23.76
447.079	23.82
447.437	23.76
447.795	23.91
448.153	23.74
448.51	23.83
448.868	23.87
449.226	24.06
449.584	24
449.941	24.18
450.299	24.33
450.656	24.26
451.014	24.4
451.371	24.37
451.729	24.63
452.086	24.76
452.443	24.73
452.801	24.72
453.158	25.12
453.515	24.91
453.872	24.65
454.229	24.93
454.586	24.82
454.943	25.15
455.3	24.99
455.657	25.21
456.014	25.42
456.371	25.24
456.727	25.23
457.084	25.39
457.441	25.36
457.797	25.27
458.154	25.55
458.51	25.49
458.867	25.56
459.223	25.59
459.58	25.6
459.936	25.39
460.292	25.59
460.648	25.59
461.005	25.53
461.361	25.28
461.717	25.36
462.073	25.29
462.429	25.62
462.785	25.82
463.141	25.93
463.496	25.89
463.852	26.38
464.208	26.1
464.564	26.19
464.919	26.46
465.275	26.32
465.631	26.68
465.986	26.52
466.342	26.1
466.697	26.48
467.052	26.5
467.408	26.41
467.763	26.6
468.118	26.57
468.473	26.8
468.829	26.78
469.184	26.71
469.539	26.89
469.894	26.79
470.249	27.05
470.603	27.11
470.958	27.16
471.313	27.42
471.668	27.48
472.023	27.32
472.377	27.01
472.732	27.15
473.086	27.29
473.441	27.3
473.795	27.48
474.15	27.43
474.504	27.43
474.859	27.53
475.213	27.57
475.567	27.75
475.921	27.69
476.275	27.76
476.63	27.48
476.984	27.81
477.338	27.9
477.692	27.92
478.045	28.01
478.399	27.66
478.753	27.93
479.107	27.99
479.461	27.88
479.814	28.12
480.168	28.05
480.521	27.98
480.875	28.1
481.228	28.22
481.582	28.36
481.935	28.29
482.289	28.22
482.642	28.22
482.995	28.21
483.348	28.13
483.701	28.19
484.055	27.98
484.408	27.93
484.761	27.79
485.114	27.48
485.466	27.21
485.819	27.34
486.172	27.42
486.525	27.67
486.878	27.73
487.23	28
487.583	28.06
487.936	28.23
488.288	28.18
488.641	28.02
488.993	28.01
489.345	27.99
489.698	27.94
490.05	28.09
490.402	28.23
490.754	28.38
491.107	28.63
491.459	28.79
491.811	28.86
492.163	28.87
492.515	28.85
492.866	28.68
493.218	28.45
493.57	28.57
493.922	28.68
494.274	28.82
494.625	29.15
494.977	29.36
495.328	29.56
495.68	29.67
496.031	29.83
496.383	29.85
496.734	29.97
497.086	29.99
497.437	30.08
497.788	30.1
498.139	29.99
498.49	29.93
498.842	30.02
499.193	30.1
499.544	30.22
499.894	30.17
500.245	30.35
500.596	30.38
500.947	30.42
501.298	30.79
501.648	30.62
501.999	30.7
502.35	30.83
502.7	30.78
503.051	31.01
503.401	30.95
503.752	31.38
504.102	31.08
504.452	30.92
504.803	31.03
505.153	31.25
505.503	31.24
505.853	31.47
506.203	31.29
506.553	31.24
506.903	31.39
507.253	31.34
507.603	31.5
507.953	31.56
508.303	31.38
508.652	31.54
509.002	31.56
509.352	31.78
509.701	31.54
510.051	31.64
510.4	31.55
510.75	31.61
511.099	31.44
511.449	31.64
511.798	31.79
512.147	31.57
512.496	31.88
512.846	31.95
513.195	31.97
513.544	31.89
513.893	31.99
514.242	31.99
514.591	32.08
514.939	32.07
515.288	32.1
515.637	32.25
515.986	32.4
516.334	32.41
516.683	32.46
517.032	32.49
517.38	32.52
517.729	32.73
518.077	32.71
518.426	32.73
518.774	32.67
519.122	32.7
519.47	32.52
519.819	32.53
520.167	32.42
520.515	32.35
520.863	32.66
521.211	32.66
521.559	32.92
521.907	32.82
522.255	33.07
522.602	33.2
522.95	33.15
523.298	33.23
523.645	33.55
523.993	33.41
524.341	33.71
524.688	33.73
525.036	33.7
525.383	33.77
525.73	33.68
526.078	33.63
526.425	33.65
526.772	33.44
527.119	33.31
527.466	33.16
527.814	33.27
528.161	33.5
528.508	33.54
528.854	33.63
529.201	33.39
529.548	33.33
529.895	33.1
530.242	32.75
530.588	32.89
530.935	33.2
531.282	33.26
531.628	33.43
531.975	33.45
532.321	33.69
532.667	33.91
533.014	34.04
533.36	34.04
533.706	34.21
534.052	34.17
534.399	34.24
534.745	33.97
535.091	33.84
535.437	33.95
535.783	34.16
536.129	34.31
536.474	34.38
536.82	34.74
537.166	34.64
537.512	34.92
537.857	34.84
538.203	34.67
538.549	34.79
538.894	34.81
539.239	34.8
539.585	35.05
539.93	35.34
540.276	35.38
540.621	35.49
540.966	35.75
541.311	35.64
541.656	35.63
542.001	35.69
542.346	35.16
542.691	34.99
543.036	34.86
543.381	34.91
543.726	34.95
544.071	35.2
544.415	35.28
544.76	35.53
545.105	35.55
545.449	35.66
545.794	35.9
546.138	35.98
546.483	36.25
546.827	36.46
547.171	36.12
547.516	36.24
547.86	36.26
548.204	36.36
548.548	36.35
548.892	36.17
549.236	36.28
549.58	36.48
549.924	36.62
550.268	37
550.612	36.98
550.956	37.18
551.3	37.13
551.643	37.13
551.987	37.3
552.33	37.38
552.674	37.7
553.017	37.69
553.361	37.77
553.704	37.53
554.048	37.5
554.391	37.45
554.734	37.63
555.077	37.68
555.42	37.48
555.764	37.61
556.107	37.93
556.45	37.88
556.793	37.92
557.135	38.23
557.478	38.06
557.821	38.22
558.164	38.49
558.507	38.39
558.849	38.53
559.192	38.21
559.534	38.76
559.877	38.48
560.219	38.54
560.562	38.76
560.904	38.84
561.246	38.92
561.589	38.57
561.931	38.61
562.273	38.7
562.615	38.56
562.957	38.83
563.299	38.9
563.641	38.88
563.983	38.82
564.325	39.12
564.667	39.15
565.008	39.16
565.35	39.41
565.692	39.32
566.033	39.47
566.375	39.55
566.716	39.15
567.058	39.36
567.399	39.58
567.741	39.68
568.082	39.26
568.423	39.33
568.764	39.29
569.105	39.52
569.447	39.74
569.788	39.76
570.129	39.5
570.47	39.84
570.811	39.76
571.151	39.73
571.492	39.99
571.833	40.08
572.174	40.06
572.514	40.17
572.855	39.97
573.195	39.97
573.536	40.07
573.876	40.05
574.217	40.07
574.557	40.18
574.898	40.38
575.238	40.41
575.578	40.56
575.918	40.43
576.258	40.8
576.598	40.32
576.938	40.32
577.278	40.56
577.618	40.77
577.958	40.63
578.298	40.94
578.638	40.83
578.977	40.83
579.317	40.99
579.657	41.26
579.996	41.08
580.336	41.33
580.675	41.23
581.014	41.53
581.354	41.47
581.693	41.49
582.032	41.65
582.372	41.83
582.711	41.65
583.05	41.72
583.389	41.93
583.728	41.61
584.067	42.36
584.406	42.05
584.745	41.96
585.083	41.81
585.422	42.34
585.761	42.64
586.1	42.25
586.438	42.29
586.777	42.38
587.115	42.27
587.454	42.95
587.792	42.57
588.13	42.79
588.469	42.4
588.807	42.5
589.145	42.39
589.483	42.59
589.821	42.77
590.159	42.82
590.497	42.96
590.835	42.78
591.173	42.63
591.511	43
591.849	42.79
592.187	42.88
592.524	43.08
592.862	43.09
593.2	43.14
593.537	43.11
593.875	43.25
594.212	43.33
594.55	43.44
594.887	43.28
595.224	43.17
595.561	43.47
595.899	43.15
596.236	43.18
596.573	43.38
596.91	43.44
597.247	43.14
597.584	43.34
597.921	43.63
598.258	43.58
598.594	43.25
598.931	43.33
599.268	43.12
599.604	43.34
599.941	43.85
600.277	43.78
600.614	44.23
600.95	44.3
601.287	44.13
601.623	44.22
601.959	44.52
602.296	44.51
602.632	44.33
602.968	44.75
603.304	44.21
603.64	44.47
603.976	44.49
604.312	44.48
604.648	44.5
604.984	44.2
605.319	44.39
605.655	44.41
605.991	44.41
606.326	44
606.662	44.43
606.998	44.19
607.333	44.25
607.668	44.44
608.004	44.64
608.339	44.91
608.674	44.97
609.01	45.03
609.345	45.24
609.68	44.94
610.015	45.24
610.35	45.31
610.685	45.33
611.02	45.27
611.355	44.82
611.689	44.88
612.024	45.2
612.359	45.41
612.694	45.12
613.028	45.5
613.363	45.52
613.697	45.69
614.032	45.89
614.366	45.84
614.7	45.85
615.035	45.67
615.369	45.84
615.703	45.91
616.037	45.82
616.371	46.04
616.705	46.38
617.039	46.16
617.373	45.95
617.707	46.23
618.041	46.41
618.375	46.25
618.709	46.45
619.042	45.82
619.376	46.26
619.71	46.76
620.043	46.25
620.377	46.7
620.71	46.13
621.043	46.83
621.377	46.66
621.71	46.74
622.043	46.64
622.376	47.22
622.709	46.99
623.043	47.44
623.376	47.05
623.709	46.83
624.041	46.67
624.374	47.17
624.707	47.66
625.04	46.5
625.373	47.15
625.705	47.23
626.038	47.55
626.37	47.29
626.703	47.56
627.035	47.32
627.368	47.68
627.7	47.68
628.032	47.21
628.365	47.27
628.697	47.47
629.029	47.64
629.361	47.21
629.693	47.52
630.025	47.05
630.357	47.5
630.689	47.68
631.021	47.4
631.353	47.78
631.684	47.83
632.016	48.26
632.348	47.98
632.679	47.88
633.011	48.43
633.342	47.99
633.674	48.42
634.005	48
634.336	48.14
634.668	48.27
634.999	48.24
635.33	48.34
635.661	48.6
635.992	48.74
636.323	48.58
636.654	48.14
636.985	48.53
637.316	48.34
637.647	48.54
637.977	48.41
638.308	48.14
638.639	48.92
638.969	48.93
639.3	49.1
639.63	48.79
639.961	49.04
640.291	48.97
640.622	49.22
640.952	48.97
641.282	48.89
641.612	49.22
641.943	48.96
642.273	49.33
642.603	49.68
642.933	49.21
643.263	48.92
643.592	48.9
643.922	50.51
644.252	49.45
644.582	49.51
644.911	49.13
645.241	49.6
645.571	49.18
645.9	50.04
646.23	49.64
646.559	50.01
646.888	49.83
647.218	49.81
647.547	50.24
647.876	49.84
648.205	50.58
648.534	50.02
648.863	49.97
649.192	50.66
649.521	50.33
649.85	49.98
650.179	50.29
650.508	50.53
650.837	50.17
651.165	50.56
651.494	49.82
651.822	50.35
652.151	50.46
652.479	50.29
652.808	50.74
653.136	50.69
653.465	50.19
653.793	50.67
654.121	50.72
654.449	50.81
654.777	51.11
655.105	50.57
655.433	50.93
655.761	50.72
656.089	50.81
656.417	50.64
656.745	50.86
657.073	50.55
657.4	50.69
657.728	50.36
658.056	51.33
658.383	50.67
658.711	51.04
659.038	51.18
659.365	51.08
659.693	50.83
660.02	50.87
660.347	51.32
660.674	51.15
661.001	51.12
661.329	51.27
661.656	51.04
661.982	51.46
662.309	50.97
662.636	51.47
662.963	51.36
663.29	51.68
663.616	51.37
663.943	51.97
664.27	52.02
664.596	52.14
664.923	52.4
665.249	52.44
665.576	51.42
665.902	51.93
666.228	52.13
666.554	51.53
666.881	51.75
667.207	52.13
667.533	52.14
667.859	51.99
668.185	52.14
668.511	52.44
668.837	51.8
669.162	52.18
669.488	51.68
669.814	52.16
