Data from 21-7_crown_Reflection__0__125.txt Node

Date: Thu Dec 15 17:28:55 CST 2022
User: ToomeyLab
Spectrometer: FLMS14357
Trigger mode: 0
Integration Time (sec): 1.000000E-2
Scans to average: 100
Electric dark correction enabled: true
Nonlinearity correction enabled: false
Boxcar width: 0
XAxis mode: Wavelengths
Number of Pixels in Spectrum: 2048
>>>>>Begin Spectral Data<<<<<
189.047	-154.05
189.435	-154.05
189.823	-154.05
190.211	0.76
190.599	24.04
190.987	196.3
191.375	100.73
191.763	37.9
192.151	551.2
192.538	121.07
192.926	376.45
193.314	204.63
193.702	84.57
194.089	-99.17
194.477	90.97
194.864	-669.89
195.252	121.32
195.639	108.69
196.027	91.72
196.414	643.11
196.801	285.7
197.189	32.92
197.576	41.3
197.963	21.81
198.351	-13.38
198.738	-26.71
199.125	-114.92
199.512	38.7
199.899	-89.82
200.286	-50.91
200.673	52.71
201.06	-39.39
201.447	-15.17
201.833	-4.65
202.22	-21.25
202.607	-66.19
202.994	-16.76
203.38	2.57
203.767	-36.46
204.154	22.96
204.54	20.59
204.927	26.29
205.313	9.49
205.699	47.95
206.086	8.81
206.472	25.27
206.858	-10.13
207.245	1.22
207.631	-2.74
208.017	18.6
208.403	-172.62
208.789	40.32
209.175	11.58
209.561	-104.85
209.947	-1.3
210.333	-44.54
210.719	3.72
211.105	30.09
211.491	35.13
211.876	-42.72
212.262	-2.67
212.648	21.91
213.034	-15.3
213.419	7.44
213.805	-53.56
214.19	-28.26
214.576	-20.34
214.961	28.77
215.346	1.9
215.732	38.39
216.117	-24.04
216.502	-15.2
216.888	7.21
217.273	17.26
217.658	-18.05
218.043	-23.01
218.428	-42.71
218.813	-8.82
219.198	-2.24
219.583	-16.09
219.968	-8.27
220.353	-22.55
220.738	9.99
221.122	-24.4
221.507	-10.46
221.892	-44.67
222.276	-39.64
222.661	-12.95
223.046	-8.82
223.43	3.6
223.815	1.36
224.199	-3.02
224.583	-4.11
224.968	-9.68
225.352	-6.79
225.736	4.51
226.121	-0.41
226.505	-3.47
226.889	5.15
227.273	-4.29
227.657	3.97
228.041	3.75
228.425	0.27
228.809	2.4
229.193	1.8
229.577	1.92
229.961	1.33
230.344	2.89
230.728	2.82
231.112	3.42
231.495	1.09
231.879	-0.08
232.263	1.27
232.646	1.55
233.03	3.17
233.413	1.83
233.797	0.39
234.18	2.54
234.563	0.39
234.946	2.47
235.33	1.63
235.713	2.52
236.096	3.96
236.479	2.75
236.862	1.97
237.245	0.81
237.628	1.95
238.011	2.17
238.394	1.26
238.777	2
239.16	4.34
239.543	3.08
239.925	1.38
240.308	1.82
240.691	0.66
241.073	1.99
241.456	2.64
241.838	1.89
242.221	2.83
242.603	2.64
242.986	2.62
243.368	2.59
243.75	3.32
244.133	3.38
244.515	2.65
244.897	1.88
245.279	2.63
245.661	2.89
246.043	1.83
246.425	2.47
246.807	2.28
247.189	2.74
247.571	2.55
247.953	2.72
248.335	2.99
248.717	3
249.098	2.92
249.48	2.65
249.862	2.93
250.243	3.42
250.625	3.17
251.006	3.02
251.388	2.57
251.769	1.56
252.151	3.03
252.532	2.47
252.913	2.37
253.295	2.65
253.676	2.88
254.057	2.64
254.438	2.62
254.819	3.75
255.2	2.94
255.581	3.27
255.962	3.37
256.343	3.07
256.724	3.22
257.105	2.43
257.486	1.6
257.867	2.38
258.247	1.7
258.628	3.01
259.009	2.52
259.389	1.74
259.77	2.13
260.15	3.18
260.531	2.95
260.911	2.57
261.292	2.84
261.672	2.84
262.052	2.75
262.432	2.58
262.813	2.11
263.193	2.91
263.573	2.67
263.953	2.01
264.333	2.44
264.713	3.21
265.093	2.63
265.473	1.79
265.853	2.95
266.233	2.38
266.612	2.08
266.992	2.14
267.372	2.79
267.752	2.99
268.131	2.66
268.511	2.44
268.89	3.35
269.27	2.05
269.649	2.62
270.029	2.41
270.408	2.46
270.787	2.68
271.167	2.4
271.546	2.84
271.925	2.96
272.304	2.37
272.683	2.39
273.062	2.07
273.441	2.21
273.82	2.29
274.199	2.29
274.578	2.62
274.957	2.48
275.336	2.89
275.715	2.41
276.093	2.08
276.472	2.35
276.851	3.04
277.229	2.35
277.608	1.85
277.986	2.32
278.365	2.83
278.743	2.88
279.122	2.31
279.5	2.06
279.878	1.85
280.257	2.11
280.635	2.28
281.013	1.78
281.391	2.35
281.769	2.67
282.147	2.01
282.525	2.23
282.903	1.64
283.281	2.71
283.659	2.53
284.037	2.42
284.415	2.24
284.792	2.63
285.17	2.22
285.548	2.46
285.925	2.13
286.303	2.7
286.68	2.43
287.058	2.55
287.435	2.17
287.813	2.27
288.19	2.05
288.567	1.79
288.945	2.47
289.322	2.24
289.699	2.66
290.076	2.5
290.453	1.95
290.83	2.7
291.207	2.42
291.584	2.73
291.961	2.64
292.338	2.48
292.715	2.49
293.092	3.02
293.469	2.39
293.845	2.41
294.222	3.07
294.599	1.99
294.975	2.14
295.352	2.84
295.728	2.59
296.105	2.68
296.481	2.85
296.858	2.37
297.234	2.15
297.61	2.74
297.986	3.05
298.363	2.82
298.739	2.86
299.115	2.75
299.491	2.97
299.867	2.62
300.243	2.53
300.619	2.34
300.995	2.42
301.371	3.29
301.746	3.07
302.122	2.4
302.498	2.72
302.874	2.87
303.249	2.64
303.625	2.26
304	2.75
304.376	3.31
304.751	2.55
305.127	2.65
305.502	3.19
305.878	2.86
306.253	2.88
306.628	2.41
307.003	2.93
307.378	2.51
307.754	3.06
308.129	2.82
308.504	3.35
308.879	3.23
309.254	3.45
309.629	2.9
310.003	2.75
310.378	3.35
310.753	3.13
311.128	3.01
311.502	2.78
311.877	3.2
312.252	3.15
312.626	3.92
313.001	2.9
313.375	3.3
313.75	3.23
314.124	3.31
314.498	3.57
314.873	2.83
315.247	3.16
315.621	2.99
315.995	2.88
316.369	2.91
316.743	2.88
317.117	3.06
317.491	3.31
317.865	2.82
318.239	3.66
318.613	3.09
318.987	3.07
319.361	3.52
319.734	3.35
320.108	3.24
320.482	3.32
320.855	2.88
321.229	3.23
321.602	3.18
321.976	2.9
322.349	3.9
322.723	3.53
323.096	3.05
323.469	3.26
323.843	2.62
324.216	3.52
324.589	3.65
324.962	3.25
325.335	2.93
325.708	3.44
326.081	3.53
326.454	3.69
326.827	3.67
327.2	3.29
327.573	3.97
327.945	3.48
328.318	3.31
328.691	3.29
329.063	3.16
329.436	3.24
329.809	3.17
330.181	3.77
330.553	3.65
330.926	3.81
331.298	3.28
331.671	3.51
332.043	3.77
332.415	3.66
332.787	3.53
333.159	3.26
333.532	3.13
333.904	3.61
334.276	3.31
334.648	3.6
335.02	2.98
335.391	3.21
335.763	3.28
336.135	3.3
336.507	3.23
336.879	3.25
337.25	3.42
337.622	3.4
337.993	3.26
338.365	3.62
338.736	3.65
339.108	3.13
339.479	3.92
339.851	3.22
340.222	3.71
340.593	3.3
340.964	3.55
341.336	3.54
341.707	3.79
342.078	2.89
342.449	3.49
342.82	3.48
343.191	3.29
343.562	3.33
343.933	2.97
344.303	3.55
344.674	2.99
345.045	3.82
345.416	4.08
345.786	3.35
346.157	3.61
346.527	3.4
346.898	2.95
347.268	3.81
347.639	3.19
348.009	3.52
348.38	3.59
348.75	3.35
349.12	3.39
349.49	3.37
349.861	3.61
350.231	3.57
350.601	3.41
350.971	3.11
351.341	3.57
351.711	3.54
352.081	3.38
352.45	2.75
352.82	2.95
353.19	3.3
353.56	3.47
353.929	3.72
354.299	3.83
354.669	3.9
355.038	3.87
355.408	3.41
355.777	3.94
356.147	3.1
356.516	3.25
356.885	3.4
357.254	3.25
357.624	3.11
357.993	3.6
358.362	3.55
358.731	3.54
359.1	3.38
359.469	3.71
359.838	3.52
360.207	3.6
360.576	3.78
360.945	3.46
361.314	3.54
361.682	3.37
362.051	3.51
362.42	3.58
362.788	3.57
363.157	3.36
363.525	3.48
363.894	3.38
364.262	3.28
364.631	3.52
364.999	3.61
365.367	3.38
365.735	3.41
366.104	3.66
366.472	3.23
366.84	3.45
367.208	4.02
367.576	3.1
367.944	3.31
368.312	3.47
368.68	3.56
369.048	3.33
369.416	3.26
369.783	3.11
370.151	4.12
370.519	3.81
370.886	3.5
371.254	3.54
371.621	3.65
371.989	3.64
372.356	3.41
372.724	3.41
373.091	3.29
373.458	3.19
373.826	3.42
374.193	3.51
374.56	3.66
374.927	3.36
375.294	3.77
375.661	3.5
376.028	3.53
376.395	3.4
376.762	3.26
377.129	3.23
377.496	3.6
377.863	3.63
378.229	3.7
378.596	3.68
378.963	3.6
379.329	3.55
379.696	3.48
380.062	3.5
380.429	3.49
380.795	3.93
381.161	3.22
381.528	3.11
381.894	3.42
382.26	3.45
382.626	3.64
382.993	3.88
383.359	3.62
383.725	3.55
384.091	3.78
384.457	3.38
384.823	3.58
385.188	3.73
385.554	3.72
385.92	3.71
386.286	3.52
386.651	3.39
387.017	3.82
387.383	3.71
387.748	3.78
388.114	3.25
388.479	3.82
388.845	3.27
389.21	3.73
389.575	3.71
389.94	3.77
390.306	3.79
390.671	3.5
391.036	3.53
391.401	3.57
391.766	3.42
392.131	3.76
392.496	3.59
392.861	3.4
393.226	3.56
393.591	3.48
393.956	3.66
394.32	3.87
394.685	3.64
395.05	3.48
395.414	3.49
395.779	3.83
396.143	3.44
396.508	3.61
396.872	3.55
397.236	3.89
397.601	3.81
397.965	3.63
398.329	3.53
398.694	3.51
399.058	3.7
399.422	3.74
399.786	3.49
400.15	3.39
400.514	3.67
400.878	3.81
401.242	3.8
401.605	3.52
401.969	3.5
402.333	3.54
402.697	4.04
403.06	3.72
403.424	3.87
403.787	3.81
404.151	3.66
404.514	3.68
404.878	3.57
405.241	3.78
405.604	3.62
405.968	3.75
406.331	3.7
406.694	3.66
407.057	3.57
407.42	3.83
407.783	3.8
408.146	3.66
408.509	3.66
408.872	3.7
409.235	3.84
409.598	3.85
409.961	3.81
410.323	3.53
410.686	3.65
411.049	3.78
411.411	3.76
411.774	3.71
412.136	3.73
412.499	3.84
412.861	3.33
413.223	3.42
413.586	3.69
413.948	3.78
414.31	3.82
414.672	3.68
415.035	3.81
415.397	3.86
415.759	3.44
416.121	3.71
416.483	3.95
416.845	3.88
417.206	3.68
417.568	3.71
417.93	3.69
418.292	3.56
418.653	3.73
419.015	3.73
419.377	3.55
419.738	3.77
420.1	3.78
420.461	3.64
420.822	3.63
421.184	3.62
421.545	3.73
421.906	3.68
422.267	3.66
422.629	3.64
422.99	3.6
423.351	3.58
423.712	3.67
424.073	3.72
424.434	3.76
424.795	3.56
425.155	3.64
425.516	3.62
425.877	3.71
426.238	3.73
426.598	3.75
426.959	3.79
427.32	3.65
427.68	3.71
428.041	3.78
428.401	3.7
428.761	3.79
429.122	3.76
429.482	3.76
429.842	3.86
430.202	3.88
430.563	3.75
430.923	3.74
431.283	3.95
431.643	3.86
432.003	3.8
432.363	3.99
432.722	3.83
433.082	3.81
433.442	3.9
433.802	3.84
434.161	3.77
434.521	3.78
434.881	3.83
435.24	3.76
435.6	3.71
435.959	3.86
436.319	3.9
436.678	4
437.037	3.91
437.396	3.97
437.756	3.86
438.115	3.84
438.474	3.9
438.833	3.69
439.192	3.81
439.551	3.78
439.91	3.87
440.269	3.89
440.628	3.8
440.987	3.86
441.345	3.77
441.704	3.8
442.063	3.76
442.421	3.82
442.78	3.76
443.138	3.83
443.497	3.94
443.855	3.87
444.214	3.68
444.572	3.95
444.93	3.89
445.288	3.77
445.647	3.8
446.005	3.9
446.363	3.82
446.721	3.91
447.079	3.81
447.437	3.93
447.795	3.83
448.153	3.91
448.51	3.91
448.868	3.8
449.226	3.82
449.584	3.87
449.941	3.82
450.299	3.77
450.656	3.92
451.014	4.07
451.371	4.04
451.729	4.04
452.086	4.01
452.443	4.03
452.801	4.02
453.158	4.02
453.515	3.74
453.872	3.89
454.229	3.88
454.586	3.85
454.943	4.03
455.3	3.98
455.657	3.95
456.014	4.12
456.371	4.01
456.727	4.11
457.084	4.08
457.441	4.03
457.797	3.91
458.154	4.11
458.51	3.93
458.867	3.98
459.223	3.84
459.58	3.96
459.936	3.9
460.292	3.94
460.648	3.99
461.005	3.93
461.361	3.94
461.717	3.89
462.073	4.01
462.429	3.98
462.785	4.09
463.141	4.03
463.496	4.09
463.852	4.14
464.208	4.1
464.564	4.13
464.919	3.94
465.275	4.06
465.631	4.14
465.986	4.13
466.342	4.01
466.697	3.94
467.052	4.16
467.408	4.18
467.763	4.01
468.118	3.87
468.473	4.05
468.829	3.86
469.184	4.16
469.539	3.93
469.894	4
470.249	4.1
470.603	4.18
470.958	4.08
471.313	4.16
471.668	4.2
472.023	4.28
472.377	3.97
472.732	4.06
473.086	4.01
473.441	3.93
473.795	4.24
474.15	3.99
474.504	3.96
474.859	3.86
475.213	4.16
475.567	3.99
475.921	4.19
476.275	4.22
476.63	4.17
476.984	3.97
477.338	4.22
477.692	4.02
478.045	4.09
478.399	4.1
478.753	4.05
479.107	4.14
479.461	3.93
479.814	4.1
480.168	4.07
480.521	4.26
480.875	4.1
481.228	4.1
481.582	4.11
481.935	4.27
482.289	4.03
482.642	4.26
482.995	4.05
483.348	4.04
483.701	4.07
484.055	4.05
484.408	3.99
484.761	3.96
485.114	3.86
485.466	3.87
485.819	3.86
486.172	3.93
486.525	3.93
486.878	3.99
487.23	4
487.583	4.05
487.936	3.99
488.288	4.02
488.641	3.98
488.993	3.91
489.345	3.92
489.698	3.98
490.05	3.98
490.402	3.97
490.754	4.04
491.107	3.98
491.459	4.12
491.811	4.14
492.163	4.09
492.515	4.02
492.866	3.97
493.218	3.99
493.57	4.03
493.922	4.01
494.274	4.14
494.625	4.18
494.977	4.15
495.328	4.21
495.68	4.05
496.031	4.2
496.383	4.28
496.734	4.15
497.086	4.29
497.437	4.34
497.788	4.27
498.139	4.16
498.49	4.19
498.842	4.24
499.193	4.18
499.544	4.14
499.894	4.1
500.245	4.25
500.596	4.26
500.947	4.14
501.298	4.16
501.648	4.2
501.999	4.44
502.35	4.24
502.7	4.49
503.051	4.27
503.401	4.34
503.752	4.06
504.102	4.2
504.452	4.1
504.803	4.25
505.153	4.34
505.503	4.32
505.853	4.15
506.203	4.22
506.553	4.1
506.903	4.34
507.253	4.26
507.603	4.22
507.953	4.25
508.303	4.2
508.652	4.15
509.002	4.31
509.352	4.3
509.701	4.21
510.051	4.38
510.4	4.33
510.75	4.23
511.099	4.18
511.449	4.36
511.798	4.23
512.147	4.27
512.496	4.24
512.846	4.24
513.195	4.29
513.544	4.32
513.893	4.32
514.242	4.26
514.591	4.25
514.939	4.39
515.288	4.32
515.637	4.32
515.986	4.35
516.334	4.32
516.683	4.26
517.032	4.32
517.38	4.28
517.729	4.3
518.077	4.3
518.426	4.4
518.774	4.28
519.122	4.29
519.47	4.13
519.819	4.21
520.167	4.25
520.515	4.3
520.863	4.21
521.211	4.3
521.559	4.27
521.907	4.37
522.255	4.26
522.602	4.35
522.95	4.39
523.298	4.35
523.645	4.31
523.993	4.39
524.341	4.32
524.688	4.3
525.036	4.4
525.383	4.26
525.73	4.28
526.078	4.41
526.425	4.22
526.772	4.36
527.119	4.3
527.466	4.38
527.814	4.27
528.161	4.38
528.508	4.4
528.854	4.25
529.201	4.18
529.548	4.2
529.895	4.13
530.242	4.12
530.588	4.14
530.935	4.19
531.282	4.16
531.628	4.23
531.975	4.28
532.321	4.24
532.667	4.33
533.014	4.32
533.36	4.35
533.706	4.4
534.052	4.37
534.399	4.28
534.745	4.16
535.091	4.21
535.437	4.22
535.783	4.32
536.129	4.31
536.474	4.37
536.82	4.42
537.166	4.31
537.512	4.39
537.857	4.3
538.203	4.31
538.549	4.27
538.894	4.33
539.239	4.33
539.585	4.38
539.93	4.49
540.276	4.35
540.621	4.44
540.966	4.43
541.311	4.5
541.656	4.33
542.001	4.38
542.346	4.34
542.691	4.28
543.036	4.22
543.381	4.29
543.726	4.35
544.071	4.33
544.415	4.31
544.76	4.35
545.105	4.36
545.449	4.41
545.794	4.39
546.138	4.41
546.483	4.53
546.827	4.36
547.171	4.43
547.516	4.42
547.86	4.48
548.204	4.34
548.548	4.51
548.892	4.51
549.236	4.49
549.58	4.54
549.924	4.58
550.268	4.58
550.612	4.57
550.956	4.74
551.3	4.75
551.643	4.54
551.987	4.62
552.33	4.76
552.674	4.48
553.017	4.63
553.361	4.62
553.704	4.65
554.048	4.5
554.391	4.61
554.734	4.4
555.077	4.49
555.42	4.58
555.764	4.53
556.107	4.77
556.45	4.59
556.793	4.66
557.135	4.54
557.478	4.56
557.821	4.75
558.164	4.57
558.507	4.56
558.849	4.79
559.192	4.59
559.534	4.63
559.877	4.74
560.219	4.63
560.562	4.6
560.904	4.75
561.246	4.62
561.589	4.86
561.931	4.63
562.273	4.57
562.615	4.28
562.957	4.52
563.299	4.57
563.641	4.64
563.983	4.4
564.325	4.73
564.667	4.55
565.008	4.59
565.35	4.47
565.692	4.81
566.033	4.64
566.375	4.67
566.716	4.47
567.058	4.58
567.399	4.57
567.741	4.62
568.082	4.63
568.423	4.56
568.764	4.6
569.105	4.64
569.447	4.53
569.788	4.71
570.129	4.7
570.47	4.68
570.811	4.6
571.151	4.53
571.492	4.7
571.833	4.63
572.174	4.73
572.514	4.62
572.855	4.71
573.195	4.49
573.536	4.56
573.876	4.52
574.217	4.64
574.557	4.61
574.898	4.64
575.238	4.75
575.578	4.84
575.918	4.74
576.258	4.87
576.598	4.56
576.938	4.63
577.278	4.58
577.618	4.67
577.958	4.69
578.298	4.68
578.638	4.66
578.977	4.64
579.317	4.79
579.657	4.55
579.996	4.82
580.336	4.91
580.675	4.73
581.014	4.99
581.354	4.83
581.693	4.75
582.032	5.01
582.372	4.69
582.711	4.66
583.05	4.57
583.389	4.77
583.728	4.94
584.067	4.76
584.406	4.85
584.745	4.75
585.083	4.74
585.422	4.79
585.761	4.73
586.1	4.85
586.438	4.68
586.777	4.88
587.115	4.79
587.454	4.64
587.792	4.77
588.13	4.78
588.469	4.6
588.807	5
589.145	4.63
589.483	4.57
589.821	4.87
590.159	4.95
590.497	4.89
590.835	4.91
591.173	4.97
591.511	4.96
591.849	4.95
592.187	4.84
592.524	4.96
592.862	4.77
593.2	4.82
593.537	4.98
593.875	4.7
594.212	4.86
594.55	4.87
594.887	4.94
595.224	4.92
595.561	4.93
595.899	4.92
596.236	4.95
596.573	4.96
596.91	4.79
597.247	5.09
597.584	4.96
597.921	4.89
598.258	4.97
598.594	4.72
598.931	4.62
599.268	4.63
599.604	4.92
599.941	4.74
600.277	4.86
600.614	4.8
600.95	4.55
601.287	4.7
601.623	4.59
601.959	5.17
602.296	4.93
602.632	4.79
602.968	4.96
603.304	4.94
603.64	4.96
603.976	4.8
604.312	5
604.648	4.99
604.984	5.07
605.319	5.02
605.655	4.84
605.991	4.89
606.326	4.76
606.662	4.75
606.998	5.07
607.333	4.8
607.668	4.79
608.004	5.13
608.339	4.8
608.674	5.04
609.01	5.08
609.345	4.94
609.68	4.95
610.015	5.26
610.35	5.19
610.685	4.62
611.02	4.95
611.355	4.83
611.689	4.88
612.024	4.96
612.359	4.93
612.694	5.08
613.028	4.86
613.363	5.01
613.697	4.96
614.032	4.93
614.366	4.98
614.7	4.95
615.035	5.14
615.369	5.04
615.703	5.09
616.037	5.14
616.371	4.94
616.705	4.89
617.039	5.12
617.373	5.03
617.707	4.91
618.041	4.91
618.375	4.62
618.709	5.24
619.042	4.69
619.376	5.15
619.71	4.84
620.043	5.14
620.377	5.21
620.71	4.94
621.043	4.97
621.377	5.11
621.71	5.31
622.043	5.41
622.376	5.34
622.709	5.26
623.043	5.05
623.376	4.91
623.709	5.19
624.041	5.12
624.374	5.13
624.707	5.1
625.04	4.96
625.373	5.33
625.705	5.15
626.038	5.02
626.37	4.95
626.703	5.19
627.035	5.08
627.368	5.53
627.7	5.05
628.032	4.91
628.365	5.15
628.697	5.18
629.029	5.08
629.361	5.51
629.693	5.05
630.025	4.99
630.357	5.09
630.689	5.27
631.021	5.36
631.353	5.27
631.684	5.35
632.016	4.76
632.348	4.97
632.679	5.2
633.011	5.14
633.342	5.18
633.674	4.75
634.005	5.39
634.336	5.36
634.668	5.2
634.999	5.04
635.33	5.33
635.661	5.24
635.992	5.11
636.323	5.2
636.654	5.01
636.985	5.2
637.316	5.11
637.647	5.27
637.977	4.89
638.308	5.64
638.639	5.02
638.969	5.05
639.3	5.03
639.63	5.23
639.961	5.44
640.291	5.09
640.622	5.59
640.952	5.48
641.282	5.13
641.612	5.39
641.943	5.2
642.273	4.84
642.603	5.41
642.933	5.95
643.263	5.33
643.592	5.63
643.922	5.74
644.252	5.33
644.582	5.34
644.911	5.18
645.241	5.04
645.571	5.42
645.9	5.35
646.23	5.46
646.559	4.85
646.888	5.58
647.218	5.25
647.547	5.55
647.876	5.24
648.205	4.94
648.534	5.5
648.863	4.98
649.192	5.38
649.521	5.65
649.85	5.59
650.179	5.44
650.508	5.21
650.837	5.53
651.165	5.34
651.494	5.14
651.822	5.39
652.151	5.45
652.479	5.72
652.808	5.64
653.136	4.96
653.465	5.2
653.793	5.41
654.121	5.27
654.449	5.11
654.777	5.08
655.105	5.16
655.433	5.55
655.761	5.19
656.089	5.56
656.417	5.99
656.745	5.53
657.073	5.38
657.4	5.2
657.728	4.78
658.056	5.46
658.383	5.16
658.711	5.55
659.038	5.89
659.365	5.51
659.693	5.41
660.02	5.03
660.347	5.44
660.674	5.46
661.001	5.39
661.329	5.39
661.656	5.21
661.982	5.17
662.309	5.33
662.636	5.48
662.963	4.98
663.29	5.36
663.616	5.03
663.943	5.21
664.27	5.22
664.596	5.32
664.923	5.69
665.249	5.71
665.576	5.64
665.902	5.07
666.228	5.34
666.554	5.91
666.881	5.54
667.207	5.54
667.533	5.62
667.859	5.03
668.185	5.38
668.511	5.4
668.837	5.54
669.162	5.68
669.488	4.94
669.814	5.53
670.139	4.97
670.465	5.61
670.791	5.1
671.116	5.51
671.442	4.79
671.767	5.63
672.092	5.04
672.418	5.66
672.743	5.43
673.068	5.46
673.393	5.77
673.718	4.77
674.043	5.42
674.368	5.38
674.693	5.1
675.018	5.45
675.343	5.92
675.667	5.85
675.992	5.07
676.317	4.74
676.641	5.83
676.966	5.63
677.29	5.06
677.615	5.35
677.939	5.96
678.264	5.31
678.588	5.4
678.912	5.48
679.236	5.7
679.56	5.41
679.885	5.13
680.209	5.67
680.532	6.03
680.856	5.79
681.18	6.14
681.504	5.98
681.828	5.14
682.152	5.63
682.475	5.62
682.799	5.73
683.122	5.47
683.446	5.51
683.769	5.52
684.093	5.96
684.416	5.36
684.739	5.64
685.062	5.82
685.386	6.12
685.709	5.11
686.032	6.1
686.355	5.52
686.678	6.21
687.001	5.58
687.324	5.75
687.646	6.29
687.969	5.71
688.292	5.63
688.614	6.14
688.937	6.02
689.26	6.04
689.582	6.01
689.904	5.96
690.227	5.48
690.549	5.89
690.871	5.55
691.194	5.1
691.516	5.7
691.838	5.74
