Data from 21-7_forehead_Reflection__1__131.txt Node

Date: Thu Dec 15 17:30:31 CST 2022
User: ToomeyLab
Spectrometer: FLMS14357
Trigger mode: 0
Integration Time (sec): 1.000000E-2
Scans to average: 100
Electric dark correction enabled: true
Nonlinearity correction enabled: false
Boxcar width: 0
XAxis mode: Wavelengths
Number of Pixels in Spectrum: 2048
>>>>>Begin Spectral Data<<<<<
189.047	51.64
189.435	51.64
189.823	51.64
190.211	-165.15
190.599	57.44
190.987	-54.97
191.375	4.53
191.763	55.22
192.151	156.64
192.538	137.97
192.926	488.9
193.314	96.88
193.702	-7.65
194.089	-16.43
194.477	184.67
194.864	-494.84
195.252	221.88
195.639	91.19
196.027	-273.89
196.414	380.14
196.801	246.43
197.189	78.87
197.576	-542.78
197.963	114.69
198.351	16.3
198.738	-32.83
199.125	-75.08
199.512	7.88
199.899	-66.62
200.286	36.78
200.673	59.45
201.06	3.73
201.447	32.28
201.833	-7.37
202.22	36.07
202.607	-38.28
202.994	4.56
203.38	43.63
203.767	46.17
204.154	25.69
204.54	41.46
204.927	39.01
205.313	56.12
205.699	45.39
206.086	42.09
206.472	32.3
206.858	26.82
207.245	3.15
207.631	53.29
208.017	28.57
208.403	77.85
208.789	36.19
209.175	-25.77
209.561	-105.94
209.947	23.78
210.333	24.67
210.719	32.29
211.105	5.08
211.491	61.53
211.876	-15.45
212.262	-1.22
212.648	14.24
213.034	0.88
213.419	-6.21
213.805	-12.85
214.19	-9.93
214.576	8.67
214.961	11.19
215.346	9.78
215.732	31.85
216.117	33.6
216.502	-11.43
216.888	17.82
217.273	-2.18
217.658	12.48
218.043	-7.36
218.428	4.29
218.813	17.97
219.198	-24.44
219.583	7.82
219.968	22.14
220.353	-22.72
220.738	32.04
221.122	16.97
221.507	12.95
221.892	-8.22
222.276	-23.98
222.661	-11.29
223.046	-10.02
223.43	15.95
223.815	6.33
224.199	3.86
224.583	5
224.968	3.62
225.352	1.95
225.736	11.3
226.121	5.52
226.505	-3.32
226.889	10.95
227.273	6.28
227.657	5.37
228.041	5.48
228.425	-0.98
228.809	-1.2
229.193	6.25
229.577	3.58
229.961	3.14
230.344	3.06
230.728	3.45
231.112	3.88
231.495	2.43
231.879	1.6
232.263	4.49
232.646	5.12
233.03	5.09
233.413	3.07
233.797	0.93
234.18	6.36
234.563	3.22
234.946	1.42
235.33	2.33
235.713	2.83
236.096	3.94
236.479	5.1
236.862	2.54
237.245	3.77
237.628	4.18
238.011	2.64
238.394	2.67
238.777	4.56
239.16	6.47
239.543	5.03
239.925	2.41
240.308	2.21
240.691	2.47
241.073	2.4
241.456	3.63
241.838	3.77
242.221	4.04
242.603	3.15
242.986	3.37
243.368	3.79
243.75	3.83
244.133	3.9
244.515	3.53
244.897	3.34
245.279	3.23
245.661	4.09
246.043	3.8
246.425	3.37
246.807	3.3
247.189	3.38
247.571	3.51
247.953	3.61
248.335	3.49
248.717	3.88
249.098	3.87
249.48	3.48
249.862	3.74
250.243	3.88
250.625	4.15
251.006	4.65
251.388	3.96
251.769	3.3
252.151	4.41
252.532	3.06
252.913	3.46
253.295	3.8
253.676	3.92
254.057	3.97
254.438	3.73
254.819	4.1
255.2	3.72
255.581	5.42
255.962	4.21
256.343	4.63
256.724	4.42
257.105	3.6
257.486	2.8
257.867	3.73
258.247	4.51
258.628	4.81
259.009	3.16
259.389	2.82
259.77	3.35
260.15	4.02
260.531	3.63
260.911	3.29
261.292	3.88
261.672	3.69
262.052	3.65
262.432	3.26
262.813	3.41
263.193	4.07
263.573	3.46
263.953	3.53
264.333	3.77
264.713	4.38
265.093	4
265.473	3.26
265.853	3.25
266.233	3.91
266.612	3.43
266.992	3.84
267.372	4.47
267.752	4.12
268.131	3.12
268.511	3.94
268.89	3.79
269.27	2.97
269.649	3.17
270.029	3.8
270.408	3.29
270.787	3.57
271.167	3.37
271.546	3.89
271.925	3.71
272.304	3.01
272.683	3.3
273.062	3.55
273.441	3.29
273.82	3.66
274.199	3.27
274.578	3.33
274.957	3.46
275.336	3.45
275.715	3.69
276.093	3.48
276.472	2.96
276.851	3.65
277.229	3.37
277.608	2.59
277.986	2.97
278.365	3.6
278.743	2.97
279.122	3.58
279.5	3.22
279.878	3.17
280.257	4.02
280.635	3.63
281.013	3.13
281.391	3.37
281.769	4.1
282.147	3.53
282.525	3.1
282.903	2.83
283.281	4.11
283.659	3.59
284.037	3.06
284.415	3.3
284.792	3.14
285.17	3.68
285.548	3.34
285.925	3.68
286.303	3.73
286.68	3.43
287.058	3.63
287.435	3.47
287.813	3.32
288.19	3.23
288.567	3.47
288.945	3.87
289.322	3.41
289.699	3.83
290.076	3.48
290.453	3.58
290.83	3.64
291.207	3.6
291.584	3.55
291.961	3.78
292.338	3.66
292.715	3.7
293.092	3.97
293.469	3.68
293.845	4.15
294.222	4.78
294.599	3.9
294.975	3.57
295.352	4.53
295.728	4.18
296.105	4.41
296.481	4.87
296.858	4.26
297.234	4.2
297.61	4.39
297.986	4.84
298.363	4.25
298.739	4.79
299.115	4.44
299.491	4.71
299.867	4.33
300.243	4.57
300.619	4.51
300.995	4.86
301.371	5.01
301.746	5.49
302.122	4.11
302.498	4.92
302.874	5.17
303.249	5.15
303.625	5.01
304	5.42
304.376	5.49
304.751	5.84
305.127	4.95
305.502	5.05
305.878	6.21
306.253	5.47
306.628	6.09
307.003	5.73
307.378	5.89
307.754	6.54
308.129	6.34
308.504	6.64
308.879	6.71
309.254	6.47
309.629	6.15
310.003	6.45
310.378	6.6
310.753	6.53
311.128	6.12
311.502	6.45
311.877	6.79
312.252	7.07
312.626	7.28
313.001	6.93
313.375	6.99
313.75	6.97
314.124	7.48
314.498	7.57
314.873	7.18
315.247	7.37
315.621	7.43
315.995	7.98
316.369	7.43
316.743	7.36
317.117	8.06
317.491	8.25
317.865	8.15
318.239	8.3
318.613	7.69
318.987	7.58
319.361	8.43
319.734	7.77
320.108	8.06
320.482	9.01
320.855	8.49
321.229	8.39
321.602	9.04
321.976	8.59
322.349	9.48
322.723	8.89
323.096	9.11
323.469	8.91
323.843	8.74
324.216	9.06
324.589	9.09
324.962	8.87
325.335	8.95
325.708	9.05
326.081	9.25
326.454	9.8
326.827	9.43
327.2	9.07
327.573	9.82
327.945	9.43
328.318	9.42
328.691	9.19
329.063	9.58
329.436	9.23
329.809	9.96
330.181	10.2
330.553	10.25
330.926	10.18
331.298	10.01
331.671	10.33
332.043	10.23
332.415	10.58
332.787	10.49
333.159	9.77
333.532	10.04
333.904	10.29
334.276	10.43
334.648	10.27
335.02	10.64
335.391	9.91
335.763	10.25
336.135	11.34
336.507	9.95
336.879	10.75
337.25	10.74
337.622	11.5
337.993	11.13
338.365	10.74
338.736	10.59
339.108	10.93
339.479	10.79
339.851	11.17
340.222	11.26
340.593	11.14
340.964	11.18
341.336	10.8
341.707	11.1
342.078	10.77
342.449	11.42
342.82	11.36
343.191	11.02
343.562	11.43
343.933	11.21
344.303	11.77
344.674	11.36
345.045	11.35
345.416	11.61
345.786	11.51
346.157	11.4
346.527	11.24
346.898	11.44
347.268	11.81
347.639	11.83
348.009	11.58
348.38	11.49
348.75	12.08
349.12	12.18
349.49	11.94
349.861	12.22
350.231	12.06
350.601	12.34
350.971	11.62
351.341	12.21
351.711	12.18
352.081	11.89
352.45	12.16
352.82	11.74
353.19	12.25
353.56	12.24
353.929	12.51
354.299	12.71
354.669	12.58
355.038	12.73
355.408	12.31
355.777	12.93
356.147	12.72
356.516	12.49
356.885	12.41
357.254	12.25
357.624	12.32
357.993	12.59
358.362	12.66
358.731	13.23
359.1	12.81
359.469	12.94
359.838	12.8
360.207	12.64
360.576	13.42
360.945	13.29
361.314	13.11
361.682	12.84
362.051	13.01
362.42	13.35
362.788	13.45
363.157	13.12
363.525	13.26
363.894	13.23
364.262	13.33
364.631	13.68
364.999	13.74
365.367	13.6
365.735	13.46
366.104	13.55
366.472	13.8
366.84	13.71
367.208	14.13
367.576	14.08
367.944	13.77
368.312	13.99
368.68	14.25
369.048	14.1
369.416	13.9
369.783	14.29
370.151	14.41
370.519	14.49
370.886	14.41
371.254	14.59
371.621	14.48
371.989	14.75
372.356	14.3
372.724	14.47
373.091	14.38
373.458	14.56
373.826	14.61
374.193	14.76
374.56	14.69
374.927	14.9
375.294	15.27
375.661	15.25
376.028	15.03
376.395	15.12
376.762	14.84
377.129	15.11
377.496	15.24
377.863	15.48
378.229	15.13
378.596	15.33
378.963	15.43
379.329	15.59
379.696	15.38
380.062	15.4
380.429	15.12
380.795	15.79
381.161	15.5
381.528	15.31
381.894	15.37
382.26	15.64
382.626	15.88
382.993	15.87
383.359	15.63
383.725	15.8
384.091	16.07
384.457	15.88
384.823	15.95
385.188	15.94
385.554	16.04
385.92	16.04
386.286	16.25
386.651	15.96
387.017	16.33
387.383	16.23
387.748	16.31
388.114	16.3
388.479	16.34
388.845	16.1
389.21	16.49
389.575	16.73
389.94	16.77
390.306	16.5
390.671	16.65
391.036	16.71
391.401	16.89
391.766	16.77
392.131	17.02
392.496	16.99
392.861	16.77
393.226	16.68
393.591	16.86
393.956	17.17
394.32	17.03
394.685	16.93
395.05	17.41
395.414	17.25
395.779	17.27
396.143	17.04
396.508	16.97
396.872	17.31
397.236	17.61
397.601	17.49
397.965	17.52
398.329	17.43
398.694	17.28
399.058	17.47
399.422	17.68
399.786	17.54
400.15	17.51
400.514	17.67
400.878	17.78
401.242	18.04
401.605	17.84
401.969	17.75
402.333	17.87
402.697	18.17
403.06	17.7
403.424	18.11
403.787	17.89
404.151	18.19
404.514	18.45
404.878	18.03
405.241	18.12
405.604	17.87
405.968	17.95
406.331	18.26
406.694	18.06
407.057	18.15
407.42	18.47
407.783	18.52
408.146	18.33
408.509	18.39
408.872	18.47
409.235	18.71
409.598	18.54
409.961	18.57
410.323	18.71
410.686	18.88
411.049	18.93
411.411	18.73
411.774	18.78
412.136	18.85
412.499	19.18
412.861	18.59
413.223	19.07
413.586	19.12
413.948	19.59
414.31	19.29
414.672	19.25
415.035	19.27
415.397	19.27
415.759	19.22
416.121	19.52
416.483	19.34
416.845	19.57
417.206	19.2
417.568	19.27
417.93	19.47
418.292	19.48
418.653	19.33
419.015	19.6
419.377	19.55
419.738	19.56
420.1	19.44
420.461	19.51
420.822	19.76
421.184	19.72
421.545	19.67
421.906	19.73
422.267	19.59
422.629	19.56
422.99	19.65
423.351	19.69
423.712	19.89
424.073	20.1
424.434	20.09
424.795	20.19
425.155	20.05
425.516	20.1
425.877	20.08
426.238	20.03
426.598	20.15
426.959	20.48
427.32	20.39
427.68	20.73
428.041	20.74
428.401	20.91
428.761	20.99
429.122	21.06
429.482	21.15
429.842	21.08
430.202	21.1
430.563	21.52
430.923	21.38
431.283	21.46
431.643	21.63
432.003	21.49
432.363	21.62
432.722	21.75
433.082	21.6
433.442	21.94
433.802	21.86
434.161	21.69
434.521	21.76
434.881	21.76
435.24	21.78
435.6	21.87
435.959	21.86
436.319	21.98
436.678	22.34
437.037	22.21
437.396	22.28
437.756	22.28
438.115	22.32
438.474	22.36
438.833	22.32
439.192	22.25
439.551	22.36
439.91	22.58
440.269	22.47
440.628	22.63
440.987	22.49
441.345	22.53
441.704	22.66
442.063	22.6
442.421	22.64
442.78	22.72
443.138	22.77
443.497	22.88
443.855	23.07
444.214	22.91
444.572	23.17
444.93	23.21
445.288	23.24
445.647	23.19
446.005	23.24
446.363	23.38
446.721	23.31
447.079	23.23
447.437	23.09
447.795	23.2
448.153	23.23
448.51	23.28
448.868	23.24
449.226	23.57
449.584	23.5
449.941	23.75
450.299	23.68
450.656	23.98
451.014	24.08
451.371	24.18
451.729	24.27
452.086	24.11
452.443	24.51
452.801	24.55
453.158	24.48
453.515	24.31
453.872	24.39
454.229	24.49
454.586	24.3
454.943	24.68
455.3	24.75
455.657	24.77
456.014	24.9
456.371	24.96
456.727	25.02
457.084	25.07
457.441	24.92
457.797	25.05
458.154	25.22
458.51	25.12
458.867	25.31
459.223	25.1
459.58	25.34
459.936	25.28
460.292	25.21
460.648	25.01
461.005	25.07
461.361	24.99
461.717	25
462.073	25.2
462.429	25.36
462.785	25.56
463.141	25.91
463.496	25.84
463.852	25.89
464.208	26.02
464.564	25.71
464.919	25.95
465.275	26.22
465.631	26.32
465.986	26.14
466.342	26.15
466.697	26.57
467.052	26.44
467.408	26.56
467.763	26.47
468.118	26.53
468.473	26.48
468.829	26.42
469.184	26.54
469.539	26.72
469.894	26.61
470.249	26.87
470.603	26.97
470.958	26.98
471.313	27.09
471.668	27.21
472.023	27.2
472.377	27.02
472.732	27.41
473.086	27.18
473.441	27.15
473.795	27.27
474.15	27.31
474.504	27.18
474.859	27.44
475.213	27.58
475.567	27.43
475.921	27.65
476.275	27.6
476.63	27.68
476.984	27.77
477.338	27.82
477.692	27.86
478.045	27.87
478.399	27.81
478.753	27.8
479.107	28.07
479.461	28.04
479.814	27.88
480.168	28.02
480.521	27.85
480.875	28.05
481.228	28.13
481.582	28.03
481.935	28.48
482.289	28.21
482.642	28.17
482.995	28.04
483.348	28.2
483.701	28.13
484.055	27.95
484.408	27.89
484.761	27.64
485.114	27.42
485.466	27.45
485.819	27.54
486.172	27.61
486.525	27.79
486.878	27.94
487.23	28.11
487.583	28.19
487.936	28.2
488.288	28.15
488.641	27.99
488.993	28.11
489.345	28.14
489.698	28.18
490.05	28.19
490.402	28.38
490.754	28.54
491.107	28.64
491.459	29.04
491.811	28.94
492.163	29.01
492.515	28.84
492.866	28.65
493.218	28.69
493.57	28.84
493.922	28.9
494.274	28.97
494.625	29.44
494.977	29.58
495.328	29.83
495.68	29.87
496.031	30.07
496.383	30.01
496.734	30.01
497.086	30.25
497.437	30.19
497.788	30.19
498.139	30.15
498.49	30.1
498.842	30.12
499.193	30.12
499.544	30.17
499.894	30.29
500.245	30.43
500.596	30.58
500.947	30.63
501.298	30.76
501.648	30.87
501.999	30.94
502.35	30.92
502.7	31.01
503.051	30.97
503.401	31.21
503.752	31.23
504.102	31.06
504.452	31.33
504.803	31.34
505.153	31.52
505.503	31.47
505.853	31.59
506.203	31.29
506.553	31.47
506.903	31.66
507.253	31.58
507.603	31.6
507.953	31.75
508.303	31.81
508.652	31.68
509.002	31.85
509.352	31.84
509.701	31.8
510.051	31.85
510.4	31.92
510.75	31.89
511.099	31.81
511.449	31.99
511.798	31.99
512.147	32.03
512.496	32.26
512.846	32.18
513.195	32.14
513.544	32.28
513.893	32.1
514.242	32.37
514.591	32.39
514.939	32.39
515.288	32.75
515.637	32.65
515.986	32.77
516.334	32.85
516.683	32.87
517.032	32.85
517.38	32.93
517.729	33.09
518.077	33.05
518.426	33.12
518.774	32.9
519.122	32.89
519.47	32.88
519.819	32.68
520.167	32.71
520.515	32.85
520.863	32.83
521.211	33
521.559	32.89
521.907	33.16
522.255	33.32
522.602	33.59
522.95	33.69
523.298	33.79
523.645	33.81
523.993	33.95
524.341	33.94
524.688	33.97
525.036	33.84
525.383	33.88
525.73	33.86
526.078	34.01
526.425	33.82
526.772	33.77
527.119	33.66
527.466	33.62
527.814	33.72
528.161	33.7
528.508	33.82
528.854	33.86
529.201	33.82
529.548	33.57
529.895	33.37
530.242	33.5
530.588	33.57
530.935	33.69
531.282	33.61
531.628	33.83
531.975	34
532.321	34.34
532.667	34.46
533.014	34.59
533.36	34.66
533.706	34.63
534.052	34.52
534.399	34.46
534.745	34.34
535.091	34.42
535.437	34.46
535.783	34.65
536.129	34.85
536.474	35.01
536.82	35.08
537.166	35.04
537.512	35.2
537.857	35.18
538.203	35.25
538.549	35.2
538.894	35.25
539.239	35.32
539.585	35.62
539.93	35.79
540.276	36.01
540.621	36.17
540.966	35.95
541.311	35.82
541.656	36.01
542.001	35.86
542.346	35.55
542.691	35.26
543.036	35.46
543.381	35.48
543.726	35.53
544.071	35.73
544.415	35.81
544.76	35.93
545.105	35.93
545.449	36.2
545.794	36.3
546.138	36.32
546.483	36.65
546.827	36.67
547.171	36.65
547.516	36.81
547.86	36.81
548.204	36.82
548.548	36.68
548.892	36.57
549.236	36.8
549.58	37.23
549.924	37.38
550.268	37.52
550.612	37.6
550.956	37.74
551.3	37.8
551.643	37.83
551.987	37.88
552.33	38.4
552.674	38.09
553.017	37.98
553.361	38.25
553.704	37.86
554.048	38.17
554.391	38.33
554.734	38.18
555.077	38.45
555.42	38.31
555.764	38.4
556.107	38.62
556.45	38.53
556.793	38.79
557.135	38.71
557.478	38.68
557.821	38.98
558.164	39.02
558.507	38.68
558.849	39.29
559.192	38.99
559.534	38.87
559.877	39.2
560.219	39.14
560.562	39.29
560.904	39.37
561.246	39.27
561.589	39.3
561.931	39.45
562.273	39.35
562.615	39.65
562.957	39.56
563.299	39.65
563.641	39.38
563.983	39.48
564.325	39.76
564.667	39.72
565.008	39.48
565.35	39.66
565.692	39.97
566.033	40.02
566.375	39.95
566.716	40.14
567.058	39.93
567.399	40.04
567.741	39.96
568.082	39.99
568.423	40.05
568.764	40.15
569.105	40.25
569.447	40.37
569.788	40.33
570.129	40.47
570.47	40.53
570.811	40.58
571.151	40.48
571.492	40.59
571.833	41.1
572.174	40.83
572.514	40.8
572.855	41.01
573.195	40.81
573.536	40.93
573.876	40.77
574.217	40.88
574.557	40.84
574.898	40.82
575.238	41.02
575.578	41.05
575.918	41.21
576.258	41.47
576.598	41.23
576.938	41.33
577.278	41.42
577.618	41.34
577.958	41.43
578.298	41.41
578.638	41.64
578.977	41.65
579.317	41.74
579.657	41.79
579.996	42.14
580.336	42.29
580.675	41.94
581.014	42.38
581.354	42.27
581.693	42.57
582.032	42.48
582.372	42.86
582.711	42.48
583.05	42.54
583.389	42.82
583.728	42.98
584.067	42.64
584.406	42.59
584.745	43
585.083	42.95
585.422	43.15
585.761	43.12
586.1	42.83
586.438	42.95
586.777	43.15
587.115	43.41
587.454	43.29
587.792	43.67
588.13	43.49
588.469	43.69
588.807	43.45
589.145	43.17
589.483	43.52
589.821	43.42
590.159	43.6
590.497	43.53
590.835	43.69
591.173	43.9
591.511	43.79
591.849	43.77
592.187	43.75
592.524	43.76
592.862	43.82
593.2	43.94
593.537	43.94
593.875	43.83
594.212	44.15
594.55	44.19
594.887	44.49
595.224	44.37
595.561	44.26
595.899	44.23
596.236	44.47
596.573	44.13
596.91	44.48
597.247	44.45
597.584	44.33
597.921	44.51
598.258	44.66
598.594	44.21
598.931	44.23
599.268	44.47
599.604	44.31
599.941	44.63
600.277	44.69
600.614	44.69
600.95	45.04
601.287	45.01
601.623	45.23
601.959	45.4
602.296	45.58
602.632	45.19
602.968	45.32
603.304	45.61
603.64	45.56
603.976	45.48
604.312	45.38
604.648	45.37
604.984	45.32
605.319	45.28
605.655	45.28
605.991	45.56
606.326	45.27
606.662	45.32
606.998	45.73
607.333	45.32
607.668	45.45
608.004	45.66
608.339	45.74
608.674	45.88
609.01	45.76
609.345	45.83
609.68	46
610.015	46.34
610.35	46.07
610.685	45.79
611.02	46.06
611.355	46.11
611.689	45.85
612.024	45.99
612.359	46.2
612.694	46.71
613.028	46.88
613.363	46.69
613.697	46.46
614.032	46.46
614.366	47.09
614.7	46.99
615.035	47.31
615.369	47.49
615.703	47.27
616.037	47.32
616.371	47.28
616.705	47.45
617.039	47.47
617.373	47.12
617.707	47.54
618.041	47.2
618.375	47.53
618.709	47.57
619.042	47.9
619.376	47.23
619.71	48.03
620.043	48.25
620.377	47.85
620.71	47.84
621.043	48.17
621.377	47.63
621.71	48.09
622.043	48.37
622.376	48.49
622.709	48.36
623.043	48.07
623.376	48.56
623.709	48.37
624.041	48.14
624.374	48.23
624.707	48.36
625.04	48.24
625.373	48.19
625.705	48.88
626.038	48.92
626.37	48.91
626.703	48.58
627.035	48.53
627.368	48.53
627.7	48.66
628.032	48.19
628.365	48.65
628.697	48.72
629.029	48.7
629.361	49.01
629.693	49.12
630.025	49.02
630.357	48.99
630.689	48.61
631.021	49.03
631.353	49.36
631.684	49.17
632.016	49.36
632.348	49.56
632.679	49.71
633.011	49.71
633.342	49.58
633.674	49.74
634.005	49.65
634.336	49.87
634.668	49.76
634.999	49.76
635.33	49.72
635.661	49.55
635.992	49.7
636.323	50.39
636.654	49.71
636.985	49.62
637.316	49.63
637.647	50.19
637.977	50.12
638.308	49.96
638.639	50.38
638.969	50.3
639.3	49.94
639.63	50.65
639.961	50.23
640.291	50.63
640.622	50.77
640.952	50.67
641.282	50.68
641.612	50.6
641.943	50.15
642.273	50.69
642.603	50.56
642.933	51
643.263	50.7
643.592	50.91
643.922	51.58
644.252	50.54
644.582	50.96
644.911	51.03
645.241	50.72
645.571	51.53
645.9	51.71
646.23	51.84
646.559	51.08
646.888	51.52
647.218	51.07
647.547	51.66
647.876	51.48
648.205	51.44
648.534	51.35
648.863	52.48
649.192	51.71
649.521	52.3
649.85	51.89
650.179	52.38
650.508	51.64
650.837	51.4
651.165	51.98
651.494	51.88
651.822	52.14
652.151	51.63
652.479	51.78
652.808	52.31
653.136	51.85
653.465	52.54
653.793	52.27
654.121	52.36
654.449	52.78
654.777	52.27
655.105	52.53
655.433	52.01
655.761	53.01
656.089	52.17
656.417	52.89
656.745	53.11
657.073	52.88
657.4	52.2
657.728	52.14
658.056	52.93
658.383	53.3
658.711	52.36
659.038	52.59
659.365	52.87
659.693	52.86
660.02	53.4
660.347	53.3
660.674	52.75
661.001	53
661.329	53.09
661.656	52.99
661.982	52.94
662.309	53.49
662.636	53.14
662.963	53.22
663.29	53.42
663.616	53.71
663.943	53.91
664.27	53.67
664.596	53.61
664.923	53.62
665.249	54.15
665.576	53.57
665.902	54.06
666.228	54.07
666.554	54.15
666.881	53.55
667.207	53.97
667.533	54.11
667.859	54.45
668.185	54.11
668.511	53.8
668.837	54.89
669.162	54.39
669.488	53.64
