Data from 21-7_chest_Reflection__2__122.txt Node

Date: Thu Dec 15 17:27:32 CST 2022
User: ToomeyLab
Spectrometer: FLMS14357
Trigger mode: 0
Integration Time (sec): 1.000000E-2
Scans to average: 100
Electric dark correction enabled: true
Nonlinearity correction enabled: false
Boxcar width: 0
XAxis mode: Wavelengths
Number of Pixels in Spectrum: 2048
>>>>>Begin Spectral Data<<<<<
189.047	98.95
189.435	98.95
189.823	98.95
190.211	92.37
190.599	41.26
190.987	76.25
191.375	87.47
191.763	112.03
192.151	120.32
192.538	-15.68
192.926	283.85
193.314	128.6
193.702	-133.25
194.089	-15.82
194.477	168.38
194.864	-264.95
195.252	181.96
195.639	93.53
196.027	-156.15
196.414	48.66
196.801	111.49
197.189	90.74
197.576	364.05
197.963	157.84
198.351	19.63
198.738	-36.14
199.125	-86.29
199.512	37.13
199.899	-19.01
200.286	2.14
200.673	16.72
201.06	12.23
201.447	29.08
201.833	1.14
202.22	-25.04
202.607	-47.13
202.994	18.49
203.38	-1.66
203.767	-25.55
204.154	34.37
204.54	35.76
204.927	3.38
205.313	34.22
205.699	-3.55
206.086	19.58
206.472	48.38
206.858	14.97
207.245	-58.83
207.631	-7.56
208.017	27.98
208.403	-56.53
208.789	-0.83
209.175	2.79
209.561	-84.65
209.947	8.56
210.333	-26.67
210.719	3.42
211.105	20.94
211.491	38.3
211.876	-11.38
212.262	11.6
212.648	6.22
213.034	-39.12
213.419	-12.1
213.805	-75.84
214.19	-31.91
214.576	-25.08
214.961	-8.71
215.346	-24.33
215.732	-18.78
216.117	9.19
216.502	0.43
216.888	25.89
217.273	15.84
217.658	-15.09
218.043	10.92
218.428	8.8
218.813	-8.87
219.198	-40.88
219.583	-17.43
219.968	-14.45
220.353	-12.99
220.738	10.08
221.122	1.06
221.507	-13.85
221.892	-9.19
222.276	-26.93
222.661	-0.83
223.046	-5.82
223.43	13.74
223.815	7.02
224.199	-3.46
224.583	6.41
224.968	1.42
225.352	-0.87
225.736	7.84
226.121	9.48
226.505	-1.76
226.889	1.05
227.273	-5.07
227.657	6.86
228.041	0.43
228.425	3.33
228.809	2.49
229.193	3.66
229.577	4.02
229.961	3.37
230.344	5.01
230.728	5.62
231.112	5
231.495	3.61
231.879	3.28
232.263	4.24
232.646	4.4
233.03	7.16
233.413	4.4
233.797	4.52
234.18	3.24
234.563	5.79
234.946	2.67
235.33	4.23
235.713	5.59
236.096	5.63
236.479	4.89
236.862	3.79
237.245	1.81
237.628	3.8
238.011	5.33
238.394	2.44
238.777	4.24
239.16	5.42
239.543	4.98
239.925	5.09
240.308	2.58
240.691	2.86
241.073	3.45
241.456	4.76
241.838	5.61
242.221	4.48
242.603	5.36
242.986	5.36
243.368	5.1
243.75	4.83
244.133	5.07
244.515	4.67
244.897	4.78
245.279	4.84
245.661	5.07
246.043	4.49
246.425	5.69
246.807	5.14
247.189	4.99
247.571	4.54
247.953	4.86
248.335	4.96
248.717	4.89
249.098	4.74
249.48	4.84
249.862	4.8
250.243	4.82
250.625	4.67
251.006	5.19
251.388	5.06
251.769	3.45
252.151	4.97
252.532	5.53
252.913	4.9
253.295	4.53
253.676	4.88
254.057	5.01
254.438	4.99
254.819	4.47
255.2	5.6
255.581	5.83
255.962	4.06
256.343	4.04
256.724	5.46
257.105	3.77
257.486	2.63
257.867	4.44
258.247	5.18
258.628	5.01
259.009	4.14
259.389	3.93
259.77	4.47
260.15	4.95
260.531	4.7
260.911	4.63
261.292	4.67
261.672	4.47
262.052	4.61
262.432	4.31
262.813	4.81
263.193	4.98
263.573	4.74
263.953	3.77
264.333	4.35
264.713	4.97
265.093	4.04
265.473	3.37
265.853	4.04
266.233	4.43
266.612	4.37
266.992	4.01
267.372	4.88
267.752	4.31
268.131	4.29
268.511	4.31
268.89	4.6
269.27	4.19
269.649	3.78
270.029	4.43
270.408	4.4
270.787	4.15
271.167	4.44
271.546	4.99
271.925	4.72
272.304	4.2
272.683	4.14
273.062	4.03
273.441	3.9
273.82	4.32
274.199	4.24
274.578	4.46
274.957	4.53
275.336	4.68
275.715	4.86
276.093	3.8
276.472	3.28
276.851	4.25
277.229	3.59
277.608	3.73
277.986	4.25
278.365	4.6
278.743	4.4
279.122	3.79
279.5	3.41
279.878	3.34
280.257	4.29
280.635	4.27
281.013	3.59
281.391	4.13
281.769	4.37
282.147	3.69
282.525	3.75
282.903	3.5
283.281	4.55
283.659	4.2
284.037	3.79
284.415	4.41
284.792	3.97
285.17	3.84
285.548	4.25
285.925	4
286.303	4.62
286.68	4.11
287.058	4.45
287.435	4.06
287.813	4.01
288.19	4.27
288.567	4.09
288.945	3.73
289.322	4.3
289.699	4.4
290.076	4.14
290.453	3.96
290.83	4.03
291.207	4.4
291.584	4.57
291.961	4.3
292.338	3.91
292.715	4.09
293.092	4.28
293.469	4.29
293.845	4.76
294.222	4.63
294.599	3.62
294.975	3.62
295.352	4.49
295.728	4.13
296.105	4.26
296.481	4.64
296.858	4.51
297.234	3.76
297.61	4.66
297.986	4.88
298.363	4.72
298.739	4.8
299.115	4.78
299.491	4.87
299.867	4.44
300.243	4.29
300.619	4.63
300.995	4.27
301.371	4.86
301.746	4.53
302.122	4.27
302.498	4.51
302.874	5.03
303.249	4.48
303.625	4.48
304	4.96
304.376	5.08
304.751	4.7
305.127	4.75
305.502	5.25
305.878	4.92
306.253	4.57
306.628	4.78
307.003	4.56
307.378	4.57
307.754	4.78
308.129	4.23
308.504	4.98
308.879	4.82
309.254	5.13
309.629	4.84
310.003	4.69
310.378	4.81
310.753	4.93
311.128	4.85
311.502	4.79
311.877	4.79
312.252	5.1
312.626	5.21
313.001	5.28
313.375	4.94
313.75	4.86
314.124	4.82
314.498	4.69
314.873	4.95
315.247	5.19
315.621	4.84
315.995	5.17
316.369	4.54
316.743	4.67
317.117	4.77
317.491	5.43
317.865	4.71
318.239	5.88
318.613	5.37
318.987	4.73
319.361	4.5
319.734	5.34
320.108	5.2
320.482	5.13
320.855	5.25
321.229	4.84
321.602	4.65
321.976	4.69
322.349	5.58
322.723	4.73
323.096	5.02
323.469	5.15
323.843	4.5
324.216	4.68
324.589	5.22
324.962	4.53
325.335	4.8
325.708	4.77
326.081	5.34
326.454	5.26
326.827	4.89
327.2	4.75
327.573	5.54
327.945	4.95
328.318	4.77
328.691	4.78
329.063	4.53
329.436	4.89
329.809	5.05
330.181	6.11
330.553	5.19
330.926	5.36
331.298	5.06
331.671	5.31
332.043	4.71
332.415	5.38
332.787	5.37
333.159	5.14
333.532	5.02
333.904	4.84
334.276	4.92
334.648	5.51
335.02	4.98
335.391	5.06
335.763	5.11
336.135	5.3
336.507	5.17
336.879	5.3
337.25	4.92
337.622	4.9
337.993	4.98
338.365	4.99
338.736	5.3
339.108	5.39
339.479	5.41
339.851	5.15
340.222	5.27
340.593	5.4
340.964	4.85
341.336	4.79
341.707	5.05
342.078	4.98
342.449	4.95
342.82	4.99
343.191	5.22
343.562	5.23
343.933	4.85
344.303	5.2
344.674	4.79
345.045	4.96
345.416	5.49
345.786	5.2
346.157	4.99
346.527	5.17
346.898	4.67
347.268	4.91
347.639	4.87
348.009	5.21
348.38	4.97
348.75	5.6
349.12	5.21
349.49	5.16
349.861	5.32
350.231	5.31
350.601	5.27
350.971	4.86
351.341	4.9
351.711	5.1
352.081	4.93
352.45	4.68
352.82	4.79
353.19	4.8
353.56	5.13
353.929	5.5
354.299	5.13
354.669	5.28
355.038	5.46
355.408	4.86
355.777	5.18
356.147	5.01
356.516	4.98
356.885	4.92
357.254	4.83
357.624	4.75
357.993	5.17
358.362	5
358.731	5.47
359.1	4.98
359.469	5.28
359.838	5.33
360.207	4.81
360.576	5.44
360.945	5.3
361.314	5.06
361.682	4.7
362.051	5
362.42	5.02
362.788	5.19
363.157	5.06
363.525	5.03
363.894	4.82
364.262	5.08
364.631	5.08
364.999	5.12
365.367	5.07
365.735	4.85
366.104	5.03
366.472	4.97
366.84	4.9
367.208	5.46
367.576	5.14
367.944	5.03
368.312	5.04
368.68	5.27
369.048	5
369.416	4.96
369.783	5.01
370.151	5.41
370.519	5.29
370.886	5.36
371.254	5.51
371.621	5.25
371.989	5.1
372.356	5.14
372.724	5.44
373.091	5.21
373.458	4.91
373.826	5.22
374.193	5.38
374.56	5.55
374.927	4.99
375.294	5.65
375.661	5.41
376.028	5.34
376.395	5.17
376.762	4.87
377.129	4.75
377.496	5.23
377.863	5.09
378.229	5.23
378.596	5.21
378.963	5.29
379.329	5.22
379.696	5.2
380.062	5.38
380.429	4.87
380.795	5
381.161	4.92
381.528	4.83
381.894	5.21
382.26	4.98
382.626	5.2
382.993	5.34
383.359	5.12
383.725	4.95
384.091	5.31
384.457	5.19
384.823	5.25
385.188	5.38
385.554	5.38
385.92	5.21
386.286	5.2
386.651	4.98
387.017	5.2
387.383	5.25
387.748	5.24
388.114	5.19
388.479	4.98
388.845	4.98
389.21	5.42
389.575	5.52
389.94	5.38
390.306	5.37
390.671	5.12
391.036	5.5
391.401	5.41
391.766	5.05
392.131	5.37
392.496	5.31
392.861	5.18
393.226	5.16
393.591	5.2
393.956	5.24
394.32	5.35
394.685	5.17
395.05	5.35
395.414	5.34
395.779	5.49
396.143	5.05
396.508	5.12
396.872	5.04
397.236	5.51
397.601	5.16
397.965	5.09
398.329	5.3
398.694	5.26
399.058	5.35
399.422	5.24
399.786	5.08
400.15	5.23
400.514	5.11
400.878	5.36
401.242	5.15
401.605	5.13
401.969	5.25
402.333	5.19
402.697	5.48
403.06	5.27
403.424	5.48
403.787	5.2
404.151	5.29
404.514	5.24
404.878	5.13
405.241	5.28
405.604	5.23
405.968	5.32
406.331	5.44
406.694	5.27
407.057	5.01
407.42	5.32
407.783	5.51
408.146	5.14
408.509	5.41
408.872	5.43
409.235	5.31
409.598	5.15
409.961	5.46
410.323	5.34
410.686	5.12
411.049	5.43
411.411	5.16
411.774	5.22
412.136	5.14
412.499	5.31
412.861	5.08
413.223	5.3
413.586	5.39
413.948	5.4
414.31	5.42
414.672	5.36
415.035	5.46
415.397	5.4
415.759	5.18
416.121	5.27
416.483	5.33
416.845	5.16
417.206	5.41
417.568	5.22
417.93	5.43
418.292	5.23
418.653	5.1
419.015	5.27
419.377	5.25
419.738	5.34
420.1	5.29
420.461	5.13
420.822	5.32
421.184	5.31
421.545	5.3
421.906	5.24
422.267	5.18
422.629	5.21
422.99	5.17
423.351	5.15
423.712	5.27
424.073	5.35
424.434	5.37
424.795	5.07
425.155	5.15
425.516	5.09
425.877	5.25
426.238	5.24
426.598	5.27
426.959	5.39
427.32	5.29
427.68	5.32
428.041	5.4
428.401	5.23
428.761	5.36
429.122	5.49
429.482	5.46
429.842	5.37
430.202	5.6
430.563	5.51
430.923	5.32
431.283	5.51
431.643	5.46
432.003	5.54
432.363	5.62
432.722	5.4
433.082	5.45
433.442	5.41
433.802	5.51
434.161	5.37
434.521	5.43
434.881	5.29
435.24	5.44
435.6	5.48
435.959	5.36
436.319	5.41
436.678	5.47
437.037	5.47
437.396	5.48
437.756	5.45
438.115	5.44
438.474	5.43
438.833	5.42
439.192	5.42
439.551	5.44
439.91	5.45
440.269	5.34
440.628	5.45
440.987	5.41
441.345	5.48
441.704	5.42
442.063	5.45
442.421	5.43
442.78	5.46
443.138	5.38
443.497	5.39
443.855	5.63
444.214	5.41
444.572	5.61
444.93	5.35
445.288	5.5
445.647	5.33
446.005	5.37
446.363	5.42
446.721	5.49
447.079	5.49
447.437	5.37
447.795	5.47
448.153	5.36
448.51	5.42
448.868	5.35
449.226	5.52
449.584	5.47
449.941	5.51
450.299	5.45
450.656	5.56
451.014	5.57
451.371	5.52
451.729	5.54
452.086	5.58
452.443	5.59
452.801	5.6
453.158	5.69
453.515	5.43
453.872	5.55
454.229	5.54
454.586	5.48
454.943	5.49
455.3	5.46
455.657	5.54
456.014	5.73
456.371	5.67
456.727	5.75
457.084	5.86
457.441	5.7
457.797	5.52
458.154	5.67
458.51	5.65
458.867	5.52
459.223	5.67
459.58	5.65
459.936	5.61
460.292	5.49
460.648	5.46
461.005	5.51
461.361	5.61
461.717	5.51
462.073	5.5
462.429	5.59
462.785	5.8
463.141	5.52
463.496	5.66
463.852	5.67
464.208	5.62
464.564	5.59
464.919	5.57
465.275	5.63
465.631	5.97
465.986	5.67
466.342	5.52
466.697	5.67
467.052	5.68
467.408	5.65
467.763	5.67
468.118	5.64
468.473	5.67
468.829	5.6
469.184	5.78
469.539	5.42
469.894	5.7
470.249	5.69
470.603	5.86
470.958	5.78
471.313	5.81
471.668	5.89
472.023	5.76
472.377	5.72
472.732	5.94
473.086	5.84
473.441	5.6
473.795	5.85
474.15	5.69
474.504	5.71
474.859	5.63
475.213	5.94
475.567	5.55
475.921	5.8
476.275	5.87
476.63	5.83
476.984	5.7
477.338	5.96
477.692	5.77
478.045	5.8
478.399	5.71
478.753	5.72
479.107	5.87
479.461	5.7
479.814	5.82
480.168	5.84
480.521	5.81
480.875	5.85
481.228	5.9
481.582	5.64
481.935	5.81
482.289	5.76
482.642	5.85
482.995	5.8
483.348	5.83
483.701	5.82
484.055	5.75
484.408	5.73
484.761	5.6
485.114	5.48
485.466	5.47
485.819	5.45
486.172	5.55
486.525	5.6
486.878	5.67
487.23	5.69
487.583	5.63
487.936	5.68
488.288	5.66
488.641	5.61
488.993	5.62
489.345	5.58
489.698	5.62
490.05	5.58
490.402	5.66
490.754	5.66
491.107	5.71
491.459	5.89
491.811	5.77
492.163	5.76
492.515	5.74
492.866	5.71
493.218	5.64
493.57	5.71
493.922	5.71
494.274	5.77
494.625	5.85
494.977	5.92
495.328	5.94
495.68	5.83
496.031	5.93
496.383	5.83
496.734	5.87
497.086	5.96
497.437	6
497.788	6.02
498.139	5.86
498.49	5.87
498.842	5.92
499.193	5.92
499.544	5.96
499.894	5.86
500.245	5.88
500.596	6.05
500.947	6.08
501.298	6.04
501.648	6
501.999	6.06
502.35	5.9
502.7	6.26
503.051	6.04
503.401	6.06
503.752	5.98
504.102	6.06
504.452	5.95
504.803	5.98
505.153	6.18
505.503	6.07
505.853	6.07
506.203	6.17
506.553	6.07
506.903	6.16
507.253	6.18
507.603	6.12
507.953	6.09
508.303	6.25
508.652	6
509.002	6.09
509.352	6.09
509.701	6.07
510.051	6.15
510.4	6.25
510.75	6.14
511.099	6.03
511.449	6.18
511.798	6.07
512.147	6.05
512.496	6.16
512.846	6.13
513.195	6.24
513.544	6.23
513.893	6.18
514.242	6.2
514.591	6.24
514.939	6.26
515.288	6.19
515.637	6.18
515.986	6.21
516.334	6.26
516.683	6.31
517.032	6.2
517.38	6.32
517.729	6.29
518.077	6.23
518.426	6.36
518.774	6.27
519.122	6.25
519.47	6.18
519.819	6.25
520.167	6.23
520.515	6.32
520.863	6.31
521.211	6.21
521.559	6.23
521.907	6.29
522.255	6.25
522.602	6.32
522.95	6.45
523.298	6.4
523.645	6.4
523.993	6.42
524.341	6.39
524.688	6.33
525.036	6.4
525.383	6.5
525.73	6.41
526.078	6.51
526.425	6.45
526.772	6.36
527.119	6.33
527.466	6.47
527.814	6.39
528.161	6.43
528.508	6.43
528.854	6.4
529.201	6.33
529.548	6.26
529.895	6.23
530.242	6.22
530.588	6.25
530.935	6.35
531.282	6.28
531.628	6.4
531.975	6.43
532.321	6.5
532.667	6.58
533.014	6.61
533.36	6.56
533.706	6.55
534.052	6.52
534.399	6.48
534.745	6.43
535.091	6.47
535.437	6.52
535.783	6.52
536.129	6.57
536.474	6.69
536.82	6.64
537.166	6.56
537.512	6.63
537.857	6.67
538.203	6.71
538.549	6.53
538.894	6.67
539.239	6.65
539.585	6.82
539.93	6.91
540.276	6.74
540.621	6.91
540.966	6.93
541.311	6.88
541.656	6.79
542.001	6.78
542.346	6.74
542.691	6.69
543.036	6.69
543.381	6.69
543.726	6.74
544.071	6.75
544.415	6.85
544.76	6.88
545.105	6.85
545.449	6.92
545.794	6.93
546.138	6.88
546.483	7.02
546.827	6.95
547.171	6.97
547.516	7.07
547.86	7.1
548.204	7.09
548.548	7.04
548.892	6.99
549.236	7.12
549.58	7.2
549.924	7.19
550.268	7.23
550.612	7.22
550.956	7.25
551.3	7.33
551.643	7.38
551.987	7.44
552.33	7.46
552.674	7.21
553.017	7.47
553.361	7.48
553.704	7.61
554.048	7.43
554.391	7.53
554.734	7.38
555.077	7.47
555.42	7.4
555.764	7.37
556.107	7.5
556.45	7.45
556.793	7.69
557.135	7.58
557.478	7.63
557.821	7.63
558.164	7.68
558.507	7.44
558.849	7.74
559.192	7.62
559.534	7.65
559.877	7.68
560.219	7.76
560.562	7.6
560.904	7.89
561.246	7.68
561.589	8.02
561.931	7.76
562.273	7.68
562.615	7.7
562.957	7.82
563.299	7.99
563.641	7.9
563.983	7.81
564.325	7.88
564.667	7.94
565.008	7.92
565.35	7.82
565.692	8.02
566.033	8
566.375	8.08
566.716	7.9
567.058	8
567.399	8
567.741	7.99
568.082	7.97
568.423	7.94
568.764	8.09
569.105	8.14
569.447	8.15
569.788	8.16
570.129	8.16
570.47	8.14
570.811	8.28
571.151	8.27
571.492	8.31
571.833	8.15
572.174	8.27
572.514	8.21
572.855	8.34
573.195	8.29
573.536	8.48
573.876	8.33
574.217	8.36
574.557	8.25
574.898	8.44
575.238	8.51
575.578	8.56
575.918	8.65
576.258	8.52
576.598	8.43
576.938	8.39
577.278	8.4
577.618	8.55
577.958	8.52
578.298	8.57
578.638	8.71
578.977	8.79
579.317	8.49
579.657	8.79
579.996	8.83
580.336	8.74
580.675	8.7
581.014	8.96
581.354	8.63
581.693	8.97
582.032	9.02
582.372	8.92
582.711	9.11
583.05	9.08
583.389	9.23
583.728	9.05
584.067	8.99
584.406	9.17
584.745	8.97
585.083	9.24
585.422	9.16
585.761	9.29
586.1	9.27
586.438	9.24
586.777	9.28
587.115	9.42
587.454	9.21
587.792	9.13
588.13	9.38
588.469	9.12
588.807	9.39
589.145	9.42
589.483	9.4
589.821	9.68
590.159	9.68
590.497	9.46
590.835	9.62
591.173	9.72
591.511	9.65
591.849	9.62
592.187	9.6
592.524	9.72
592.862	9.45
593.2	9.54
593.537	9.69
593.875	9.89
594.212	9.82
594.55	9.83
594.887	9.92
595.224	9.8
595.561	9.94
595.899	9.96
596.236	10.03
596.573	9.79
596.91	9.74
597.247	10.11
597.584	9.93
597.921	9.98
598.258	10.1
598.594	10.04
598.931	9.94
599.268	9.96
599.604	10.25
599.941	10.12
600.277	10.32
600.614	10.3
600.95	10.27
601.287	9.98
601.623	10.02
601.959	10.71
602.296	10.44
602.632	10.34
602.968	10.66
603.304	10.34
603.64	10.49
603.976	10.29
604.312	10.54
604.648	10.66
604.984	10.53
605.319	10.39
605.655	10.54
605.991	10.44
606.326	10.65
606.662	10.46
606.998	10.68
607.333	10.63
607.668	10.63
608.004	10.95
608.339	10.78
608.674	10.99
609.01	11.19
609.345	10.95
609.68	10.99
610.015	11.12
610.35	10.83
610.685	10.79
611.02	10.86
611.355	11.09
611.689	10.86
612.024	10.99
612.359	11.13
612.694	11.23
613.028	10.83
613.363	11.15
613.697	11.11
614.032	11.16
614.366	11.42
614.7	11.34
615.035	11.28
615.369	11.75
615.703	11.47
616.037	11.63
616.371	11.37
616.705	11.59
617.039	11.52
617.373	11.53
617.707	11.68
618.041	11.15
618.375	11.09
618.709	11.66
619.042	11.68
619.376	11.73
619.71	11.42
620.043	11.83
620.377	11.88
620.71	11.93
621.043	12.05
621.377	11.85
621.71	12.22
622.043	12.03
622.376	11.94
622.709	12.62
623.043	12.11
623.376	12.3
623.709	11.99
624.041	11.85
624.374	12.24
624.707	12.27
625.04	11.82
625.373	12.25
625.705	12.51
626.038	12.64
626.37	12.42
626.703	12.23
627.035	12.28
627.368	12.4
627.7	12.51
628.032	12.39
628.365	12.59
628.697	12.65
629.029	12.37
629.361	12.46
629.693	12.43
630.025	12.88
630.357	12.85
630.689	12.44
631.021	12.8
631.353	12.87
631.684	12.39
632.016	12.27
632.348	12.33
632.679	13.07
633.011	12.97
633.342	12.99
633.674	12.79
634.005	13.03
634.336	12.98
634.668	13.04
634.999	12.99
635.33	13.29
635.661	13.15
635.992	12.94
636.323	13.32
636.654	13.08
636.985	12.99
637.316	12.97
637.647	13.05
637.977	13.03
638.308	13.37
638.639	12.93
638.969	13.25
639.3	13.18
639.63	13.33
639.961	13.5
640.291	13.59
640.622	13.67
640.952	13.53
641.282	13.28
641.612	13.41
641.943	13.46
642.273	13.6
642.603	13.39
642.933	13.89
643.263	13.62
643.592	13.62
643.922	13.58
644.252	13.75
644.582	13.78
644.911	13.6
645.241	13.61
645.571	13.86
645.9	14.35
646.23	14.08
646.559	13.77
646.888	14.13
647.218	13.58
647.547	14.14
647.876	14.23
648.205	14.03
648.534	14.33
648.863	14.04
649.192	14.16
649.521	14.23
649.85	13.95
650.179	14.38
650.508	14.31
650.837	14.56
651.165	14.29
651.494	14.37
651.822	14.79
652.151	14.31
652.479	14.44
652.808	14.72
653.136	14.12
653.465	14.43
653.793	14.51
654.121	14.74
654.449	14.54
654.777	14.32
655.105	14.33
655.433	15
655.761	14.96
656.089	15.08
656.417	15.45
656.745	14.89
657.073	14.96
657.4	14.99
657.728	14.68
658.056	14.74
658.383	15.16
658.711	14.83
659.038	15.29
659.365	15.09
659.693	14.9
660.02	15.22
660.347	15.05
660.674	15.03
661.001	15.23
661.329	14.97
661.656	14.88
661.982	15.26
662.309	15.23
662.636	15.29
662.963	15.43
663.29	15.68
663.616	15.06
663.943	15.39
664.27	15.45
664.596	15.29
664.923	15.86
665.249	16.08
665.576	15.23
665.902	15.44
666.228	15.66
666.554	16.24
666.881	15.73
667.207	16.13
667.533	15.51
667.859	15.83
668.185	15.71
668.511	15.75
668.837	16.11
669.162	16.5
669.488	15.49
669.814	15.81
670.139	15.54
670.465	16.37
670.791	15.52
671.116	16.01
671.442	15.85
671.767	16.12
672.092	15.73
672.418	16.17
672.743	16.01
673.068	16.09
673.393	16.6
673.718	15.8
674.043	16.07
674.368	16.31
674.693	16.3
675.018	16.48
675.343	17
675.667	16.4
675.992	16.73
676.317	16.24
676.641	16.71
676.966	16.49
677.29	16.1
677.615	16.66
677.939	16.56
678.264	16.4
678.588	16.8
678.912	16.61
679.236	16.68
679.56	17.07
679.885	17.06
680.209	16.91
680.532	16.95
680.856	17.21
681.18	17.46
681.504	16.98
681.828	17.5
682.152	16.93
682.475	17.27
682.799	16.84
683.122	16.84
683.446	17.37
683.769	17.57
684.093	17.03
684.416	16.77
684.739	17.26
685.062	17.46
685.386	17.56
685.709	16.98
686.032	18.08
686.355	17.4
