Data from 21-7_crown_Reflection__2__127.txt Node

Date: Thu Dec 15 17:29:16 CST 2022
User: ToomeyLab
Spectrometer: FLMS14357
Trigger mode: 0
Integration Time (sec): 1.000000E-2
Scans to average: 100
Electric dark correction enabled: true
Nonlinearity correction enabled: false
Boxcar width: 0
XAxis mode: Wavelengths
Number of Pixels in Spectrum: 2048
>>>>>Begin Spectral Data<<<<<
189.047	7.54
189.435	7.54
189.823	7.54
190.211	-130.45
190.599	48.09
190.987	226.95
191.375	-51.32
191.763	55.08
192.151	173.12
192.538	42.22
192.926	222.97
193.314	-21.07
193.702	141.7
194.089	-90.14
194.477	84.29
194.864	-909.68
195.252	87.35
195.639	74.16
196.027	-5.15
196.414	447.58
196.801	3.8
197.189	16.21
197.576	279.18
197.963	235.95
198.351	-16.83
198.738	-32.75
199.125	-146.38
199.512	66.81
199.899	-115.99
200.286	-60.49
200.673	38.85
201.06	-50.89
201.447	27.08
201.833	-19.37
202.22	10.04
202.607	-44.73
202.994	19.14
203.38	6.21
203.767	8.07
204.154	7.41
204.54	81.73
204.927	17.12
205.313	8.54
205.699	-1.18
206.086	39.39
206.472	-0.77
206.858	-6.01
207.245	32.18
207.631	-14.66
208.017	44.5
208.403	-99.16
208.789	5.25
209.175	-51.57
209.561	-100.75
209.947	21.96
210.333	54
210.719	-22.83
211.105	20.5
211.491	13.32
211.876	-37.37
212.262	15.55
212.648	-0.97
213.034	-2.96
213.419	7.12
213.805	-22.64
214.19	-26.69
214.576	-22.22
214.961	14.22
215.346	-21.92
215.732	19.71
216.117	32.69
216.502	19.39
216.888	15.58
217.273	3.23
217.658	-20.49
218.043	-16.91
218.428	-0.83
218.813	27.21
219.198	-18.19
219.583	-14.2
219.968	-2.48
220.353	-17.95
220.738	4.96
221.122	-5.18
221.507	-12.46
221.892	-26.32
222.276	-27.68
222.661	-4.33
223.046	-13.92
223.43	17.65
223.815	2.64
224.199	2.66
224.583	-9.39
224.968	-1.94
225.352	5.36
225.736	11.58
226.121	-3.87
226.505	-3.11
226.889	-0.09
227.273	0.33
227.657	7.75
228.041	7.55
228.425	2.72
228.809	3.05
229.193	7.25
229.577	5.21
229.961	7.07
230.344	7.79
230.728	7.59
231.112	7.72
231.495	5.89
231.879	6.21
232.263	8.95
232.646	5.94
233.03	7.62
233.413	6.56
233.797	7.49
234.18	6.04
234.563	10.11
234.946	5.55
235.33	6.55
235.713	7.52
236.096	7.89
236.479	7.3
236.862	6.21
237.245	5.2
237.628	7.13
238.011	6.43
238.394	5.04
238.777	7.86
239.16	6.31
239.543	7.11
239.925	5.23
240.308	6.39
240.691	4.23
241.073	5.78
241.456	6.33
241.838	7.37
242.221	6.14
242.603	7.46
242.986	7.19
243.368	7.46
243.75	6.96
244.133	7.16
244.515	6.77
244.897	6.72
245.279	6.56
245.661	6.89
246.043	6.64
246.425	6.8
246.807	6.91
247.189	6.01
247.571	6.66
247.953	6.6
248.335	6.7
248.717	6.95
249.098	6.42
249.48	6.56
249.862	6.81
250.243	6.54
250.625	6.65
251.006	7.68
251.388	5.46
251.769	5.64
252.151	6.29
252.532	6.15
252.913	6.64
253.295	5.49
253.676	5.99
254.057	5.92
254.438	6.13
254.819	5.1
255.2	6.06
255.581	7.42
255.962	6.68
256.343	5.31
256.724	4.78
257.105	4.9
257.486	4.01
257.867	5.67
258.247	6.63
258.628	5.48
259.009	6.13
259.389	5.96
259.77	5.65
260.15	6.49
260.531	5.49
260.911	5.94
261.292	5.91
261.672	5.71
262.052	5.91
262.432	5.58
262.813	5.35
263.193	6.38
263.573	5.34
263.953	5.14
264.333	5.56
264.713	5.7
265.093	5.47
265.473	5.13
265.853	5.34
266.233	5.47
266.612	5.33
266.992	5.53
267.372	5.83
267.752	6.01
268.131	5.35
268.511	5.57
268.89	5.86
269.27	4.5
269.649	4.87
270.029	4.7
270.408	4.89
270.787	5.36
271.167	5.68
271.546	5.38
271.925	5.79
272.304	5.29
272.683	5.06
273.062	5.32
273.441	4.71
273.82	5.15
274.199	5.17
274.578	5.18
274.957	5.24
275.336	6.01
275.715	5.41
276.093	5.03
276.472	4.47
276.851	5.18
277.229	5.4
277.608	4.55
277.986	5.1
278.365	5.81
278.743	4.8
279.122	4.44
279.5	5.14
279.878	4.61
280.257	5.48
280.635	5.36
281.013	4.52
281.391	5.19
281.769	5.38
282.147	4.9
282.525	4.69
282.903	4.44
283.281	5.32
283.659	5.19
284.037	4.55
284.415	5.08
284.792	5.48
285.17	4.85
285.548	4.42
285.925	4.92
286.303	5.46
286.68	5.38
287.058	5.25
287.435	4.76
287.813	5.07
288.19	4.76
288.567	4.94
288.945	4.86
289.322	5.25
289.699	5.39
290.076	4.57
290.453	4.44
290.83	5.39
291.207	4.81
291.584	5.23
291.961	4.88
292.338	4.57
292.715	4.69
293.092	5.43
293.469	4.42
293.845	5.16
294.222	5.25
294.599	4.24
294.975	4.37
295.352	4.98
295.728	4.46
296.105	4.78
296.481	4.96
296.858	4.67
297.234	4.33
297.61	4.86
297.986	4.96
298.363	5.02
298.739	5.11
299.115	4.39
299.491	4.89
299.867	4.29
300.243	4.56
300.619	4.44
300.995	4.94
301.371	4.97
301.746	4.58
302.122	4.78
302.498	4.31
302.874	4.58
303.249	5.11
303.625	4.3
304	4.64
304.376	4.87
304.751	4.71
305.127	4.76
305.502	4.66
305.878	4.97
306.253	4.47
306.628	4.72
307.003	4.4
307.378	4.56
307.754	5.08
308.129	4.95
308.504	5.01
308.879	4.82
309.254	4.64
309.629	4.67
310.003	4.41
310.378	5.09
310.753	4.84
311.128	4.37
311.502	4.58
311.877	4.85
312.252	4.73
312.626	5.12
313.001	4.97
313.375	4.94
313.75	4.42
314.124	4.97
314.498	4.68
314.873	4.58
315.247	4.74
315.621	4.69
315.995	4.77
316.369	4.18
316.743	4.78
317.117	4.76
317.491	4.75
317.865	4.51
318.239	5.24
318.613	4.62
318.987	4.32
319.361	4.39
319.734	4.03
320.108	4.76
320.482	5.06
320.855	4.63
321.229	4.51
321.602	4.82
321.976	4.35
322.349	5.55
322.723	4.97
323.096	4.42
323.469	4.28
323.843	4.19
324.216	4.5
324.589	5.09
324.962	4.03
325.335	4.58
325.708	4.79
326.081	4.94
326.454	4.67
326.827	4.71
327.2	4.45
327.573	5.02
327.945	4.81
328.318	4.87
328.691	4.67
329.063	4.28
329.436	4.46
329.809	5.22
330.181	5.69
330.553	5.22
330.926	4.69
331.298	4.82
331.671	5.14
332.043	4.75
332.415	4.71
332.787	5.5
333.159	4.47
333.532	5.12
333.904	4.69
334.276	4.67
334.648	4.89
335.02	4.61
335.391	4.67
335.763	4.74
336.135	4.83
336.507	4.57
336.879	5.02
337.25	5.08
337.622	4.71
337.993	4.74
338.365	4.71
338.736	4.66
339.108	4.67
339.479	4.48
339.851	4.85
340.222	5.22
340.593	4.9
340.964	4.92
341.336	4.81
341.707	4.94
342.078	4.27
342.449	5.02
342.82	5
343.191	4.6
343.562	4.8
343.933	4.6
344.303	4.8
344.674	4.64
345.045	4.81
345.416	5.08
345.786	4.67
346.157	4.58
346.527	4.96
346.898	4.66
347.268	5.05
347.639	4.7
348.009	5.23
348.38	4.67
348.75	5.06
349.12	5.24
349.49	4.93
349.861	4.89
350.231	4.61
350.601	4.64
350.971	4.7
351.341	5.33
351.711	4.96
352.081	4.87
352.45	4.83
352.82	4.78
353.19	4.81
353.56	4.45
353.929	4.84
354.299	5.17
354.669	5.05
355.038	5.07
355.408	4.99
355.777	5.15
356.147	4.82
356.516	5.09
356.885	5.04
357.254	4.63
357.624	4.76
357.993	4.88
358.362	4.99
358.731	5.37
359.1	4.76
359.469	5.1
359.838	5.17
360.207	5.02
360.576	5.22
360.945	5.15
361.314	4.87
361.682	5.05
362.051	4.94
362.42	4.96
362.788	4.99
363.157	5.04
363.525	5.12
363.894	4.94
364.262	5
364.631	5.04
364.999	5.12
365.367	4.88
365.735	4.82
366.104	4.98
366.472	4.93
366.84	5.15
367.208	5.33
367.576	4.95
367.944	5.11
368.312	4.63
368.68	5.31
369.048	5.18
369.416	5
369.783	5.03
370.151	5.5
370.519	5.2
370.886	5.36
371.254	5.03
371.621	5.54
371.989	5.24
372.356	4.92
372.724	5.04
373.091	5.06
373.458	5.07
373.826	5.12
374.193	5.42
374.56	5.25
374.927	5.04
375.294	5.51
375.661	5.4
376.028	5.15
376.395	5.46
376.762	5.15
377.129	5.15
377.496	5.18
377.863	5.26
378.229	5.41
378.596	5.26
378.963	5.21
379.329	5.35
379.696	5.08
380.062	5.15
380.429	4.99
380.795	5.29
381.161	5.08
381.528	4.98
381.894	5.05
382.26	5.32
382.626	5.32
382.993	5.42
383.359	5.05
383.725	5.04
384.091	5.41
384.457	5.29
384.823	5.4
385.188	5.42
385.554	5.4
385.92	5.14
386.286	5.27
386.651	5.02
387.017	5.47
387.383	5.37
387.748	5.33
388.114	5.43
388.479	5.32
388.845	5.06
389.21	5.68
389.575	5.58
389.94	5.68
390.306	5.29
390.671	5.34
391.036	5.25
391.401	5.41
391.766	5.26
392.131	5.48
392.496	5.5
392.861	5.28
393.226	5.12
393.591	5.47
393.956	5.54
394.32	5.57
394.685	5.4
395.05	5.4
395.414	5.28
395.779	5.53
396.143	5.22
396.508	5.45
396.872	5.33
397.236	5.65
397.601	5.46
397.965	5.52
398.329	5.44
398.694	5.28
399.058	5.47
399.422	5.45
399.786	5.29
400.15	5.47
400.514	5.72
400.878	5.39
401.242	5.48
401.605	5.52
401.969	5.35
402.333	5.33
402.697	5.53
403.06	5.45
403.424	5.53
403.787	5.54
404.151	5.52
404.514	5.27
404.878	5.3
405.241	5.44
405.604	5.51
405.968	5.57
406.331	5.62
406.694	5.71
407.057	5.29
407.42	5.43
407.783	5.64
408.146	5.23
408.509	5.58
408.872	5.67
409.235	5.41
409.598	5.39
409.961	5.54
410.323	5.43
410.686	5.59
411.049	5.64
411.411	5.54
411.774	5.52
412.136	5.38
412.499	5.68
412.861	5.22
413.223	5.46
413.586	5.53
413.948	5.55
414.31	5.53
414.672	5.59
415.035	5.9
415.397	5.51
415.759	5.27
416.121	5.64
416.483	5.43
416.845	5.57
417.206	5.52
417.568	5.3
417.93	5.57
418.292	5.46
418.653	5.29
419.015	5.32
419.377	5.33
419.738	5.58
420.1	5.35
420.461	5.37
420.822	5.47
421.184	5.4
421.545	5.49
421.906	5.43
422.267	5.41
422.629	5.36
422.99	5.42
423.351	5.28
423.712	5.42
424.073	5.57
424.434	5.56
424.795	5.39
425.155	5.3
425.516	5.43
425.877	5.39
426.238	5.36
426.598	5.46
426.959	5.57
427.32	5.51
427.68	5.29
428.041	5.6
428.401	5.35
428.761	5.61
429.122	5.56
429.482	5.47
429.842	5.44
430.202	5.66
430.563	5.31
430.923	5.62
431.283	5.58
431.643	5.73
432.003	5.58
432.363	5.68
432.722	5.57
433.082	5.48
433.442	5.87
433.802	5.58
434.161	5.66
434.521	5.53
434.881	5.63
435.24	5.55
435.6	5.67
435.959	5.5
436.319	5.61
436.678	5.64
437.037	5.57
437.396	5.59
437.756	5.51
438.115	5.54
438.474	5.55
438.833	5.57
439.192	5.48
439.551	5.44
439.91	5.68
440.269	5.65
440.628	5.45
440.987	5.38
441.345	5.57
441.704	5.52
442.063	5.47
442.421	5.55
442.78	5.56
443.138	5.46
443.497	5.53
443.855	5.63
444.214	5.51
444.572	5.72
444.93	5.61
445.288	5.56
445.647	5.31
446.005	5.68
446.363	5.56
446.721	5.5
447.079	5.56
447.437	5.51
447.795	5.62
448.153	5.52
448.51	5.54
448.868	5.43
449.226	5.63
449.584	5.58
449.941	5.59
450.299	5.54
450.656	5.52
451.014	5.73
451.371	5.65
451.729	5.59
452.086	5.59
452.443	5.72
452.801	5.51
453.158	5.78
453.515	5.6
453.872	5.56
454.229	5.38
454.586	5.39
454.943	5.67
455.3	5.65
455.657	5.69
456.014	5.62
456.371	5.64
456.727	5.65
457.084	5.7
457.441	5.7
457.797	5.51
458.154	5.67
458.51	5.34
458.867	5.63
459.223	5.55
459.58	5.61
459.936	5.53
460.292	5.54
460.648	5.49
461.005	5.46
461.361	5.49
461.717	5.51
462.073	5.55
462.429	5.49
462.785	5.74
463.141	5.61
463.496	5.58
463.852	5.67
464.208	5.55
464.564	5.68
464.919	5.59
465.275	5.62
465.631	5.74
465.986	5.57
466.342	5.47
466.697	5.52
467.052	5.81
467.408	5.73
467.763	5.64
468.118	5.59
468.473	5.73
468.829	5.59
469.184	5.66
469.539	5.52
469.894	5.6
470.249	5.57
470.603	5.82
470.958	5.73
471.313	5.63
471.668	5.66
472.023	5.75
472.377	5.65
472.732	5.71
473.086	5.68
473.441	5.7
473.795	5.85
474.15	5.56
474.504	5.62
474.859	5.52
475.213	5.53
475.567	5.64
475.921	5.53
476.275	5.7
476.63	5.79
476.984	5.47
477.338	5.65
477.692	5.56
478.045	5.56
478.399	5.68
478.753	5.49
479.107	5.63
479.461	5.65
479.814	5.65
480.168	5.6
480.521	5.77
480.875	5.68
481.228	5.61
481.582	5.61
481.935	5.72
482.289	5.58
482.642	5.69
482.995	5.59
483.348	5.48
483.701	5.6
484.055	5.52
484.408	5.48
484.761	5.32
485.114	5.21
485.466	5.15
485.819	5.24
486.172	5.32
486.525	5.39
486.878	5.47
487.23	5.49
487.583	5.48
487.936	5.45
488.288	5.43
488.641	5.38
488.993	5.26
489.345	5.28
489.698	5.38
490.05	5.32
490.402	5.41
490.754	5.45
491.107	5.47
491.459	5.54
491.811	5.51
492.163	5.49
492.515	5.39
492.866	5.3
493.218	5.3
493.57	5.35
493.922	5.39
494.274	5.51
494.625	5.56
494.977	5.55
495.328	5.59
495.68	5.57
496.031	5.57
496.383	5.55
496.734	5.44
497.086	5.59
497.437	5.61
497.788	5.64
498.139	5.48
498.49	5.56
498.842	5.61
499.193	5.49
499.544	5.55
499.894	5.55
500.245	5.68
500.596	5.63
500.947	5.54
501.298	5.46
501.648	5.52
501.999	5.63
502.35	5.55
502.7	5.65
503.051	5.56
503.401	5.68
503.752	5.51
504.102	5.51
504.452	5.59
504.803	5.51
505.153	5.64
505.503	5.53
505.853	5.6
506.203	5.56
506.553	5.54
506.903	5.53
507.253	5.57
507.603	5.6
507.953	5.58
508.303	5.57
508.652	5.35
509.002	5.56
509.352	5.51
509.701	5.4
510.051	5.62
510.4	5.49
510.75	5.43
511.099	5.39
511.449	5.49
511.798	5.4
512.147	5.49
512.496	5.58
512.846	5.55
513.195	5.49
513.544	5.55
513.893	5.44
514.242	5.52
514.591	5.4
514.939	5.52
515.288	5.5
515.637	5.43
515.986	5.48
516.334	5.5
516.683	5.36
517.032	5.46
517.38	5.38
517.729	5.44
518.077	5.41
518.426	5.53
518.774	5.43
519.122	5.46
519.47	5.45
519.819	5.4
520.167	5.33
520.515	5.42
520.863	5.42
521.211	5.34
521.559	5.39
521.907	5.43
522.255	5.41
522.602	5.46
522.95	5.52
523.298	5.48
523.645	5.5
523.993	5.46
524.341	5.44
524.688	5.4
525.036	5.49
525.383	5.43
525.73	5.37
526.078	5.4
526.425	5.39
526.772	5.3
527.119	5.27
527.466	5.38
527.814	5.28
528.161	5.35
528.508	5.36
528.854	5.34
529.201	5.31
529.548	5.19
529.895	5.13
530.242	5.11
530.588	5.08
530.935	5.16
531.282	5.22
531.628	5.31
531.975	5.31
532.321	5.39
532.667	5.33
533.014	5.39
533.36	5.38
533.706	5.31
534.052	5.32
534.399	5.27
534.745	5.18
535.091	5.14
535.437	5.22
535.783	5.31
536.129	5.28
536.474	5.42
536.82	5.41
537.166	5.26
537.512	5.28
537.857	5.29
538.203	5.2
538.549	5.16
538.894	5.25
539.239	5.34
539.585	5.37
539.93	5.44
540.276	5.29
540.621	5.46
540.966	5.35
541.311	5.41
541.656	5.36
542.001	5.15
542.346	5.2
542.691	5.03
543.036	5.07
543.381	5.09
543.726	5.18
544.071	5.18
544.415	5.23
544.76	5.25
545.105	5.18
545.449	5.25
545.794	5.2
546.138	5.19
546.483	5.4
546.827	5.28
547.171	5.34
547.516	5.31
547.86	5.25
548.204	5.2
548.548	5.27
548.892	5.3
549.236	5.14
549.58	5.34
549.924	5.35
550.268	5.39
550.612	5.37
550.956	5.45
551.3	5.46
551.643	5.18
551.987	5.28
552.33	5.42
552.674	5.25
553.017	5.46
553.361	5.4
553.704	5.32
554.048	5.25
554.391	5.26
554.734	5.11
555.077	5.23
555.42	5.24
555.764	5.27
556.107	5.39
556.45	5.38
556.793	5.45
557.135	5.31
557.478	5.38
557.821	5.37
558.164	5.34
558.507	5.22
558.849	5.41
559.192	5.25
559.534	5.11
559.877	5.43
560.219	5.28
560.562	5.2
560.904	5.45
561.246	5.25
561.589	5.4
561.931	5.38
562.273	5.12
562.615	5.23
562.957	5.23
563.299	5.13
563.641	5.16
563.983	5.04
564.325	5.1
564.667	5.24
565.008	5.1
565.35	4.96
565.692	5.19
566.033	5.12
566.375	5.17
566.716	5.17
567.058	5.23
567.399	5.15
567.741	5.08
568.082	5.17
568.423	5.08
568.764	5.2
569.105	5.12
569.447	5.12
569.788	5.17
570.129	5.25
570.47	5.18
570.811	5.15
571.151	5.24
571.492	5.11
571.833	5.12
572.174	5.19
572.514	5.18
572.855	5.31
573.195	4.95
573.536	5.25
573.876	5.1
574.217	5.07
574.557	5.17
574.898	5.04
575.238	5.17
575.578	5.22
575.918	5.15
576.258	5.4
576.598	5.13
576.938	5.07
577.278	5.08
577.618	5.18
577.958	5.09
578.298	4.87
578.638	4.95
578.977	5.15
579.317	5.12
579.657	5.1
579.996	5.21
580.336	5.12
580.675	5.13
581.014	5.19
581.354	4.95
581.693	5.23
582.032	5.17
582.372	5.08
582.711	5.02
583.05	5.32
583.389	5.29
583.728	5.21
584.067	5.12
584.406	5.16
584.745	5.06
585.083	5.22
585.422	5.19
585.761	4.96
586.1	5.03
586.438	4.99
586.777	5.19
587.115	5.27
587.454	4.97
587.792	5.1
588.13	5.15
588.469	4.88
588.807	5.17
589.145	5.13
589.483	4.87
589.821	5.03
590.159	5.22
590.497	5.22
590.835	5.1
591.173	5.22
591.511	5.11
591.849	5.16
592.187	4.81
592.524	4.89
592.862	5.05
593.2	5.33
593.537	5.11
593.875	4.93
594.212	5.11
594.55	4.93
594.887	4.98
595.224	5.1
595.561	4.98
595.899	5.04
596.236	5.22
596.573	4.98
596.91	4.8
597.247	5.18
597.584	5.14
597.921	4.82
598.258	5.01
598.594	4.91
598.931	4.79
599.268	4.72
599.604	5.05
599.941	5.03
600.277	4.93
600.614	4.94
600.95	4.94
601.287	4.96
601.623	4.81
601.959	5.26
602.296	5.04
602.632	4.79
602.968	5.02
603.304	5.07
603.64	4.98
603.976	4.96
604.312	5.07
604.648	4.91
604.984	4.97
605.319	4.85
605.655	4.79
605.991	4.82
606.326	4.98
606.662	4.65
606.998	4.98
607.333	4.83
607.668	4.92
608.004	4.81
608.339	4.81
608.674	4.96
609.01	5.05
609.345	4.78
609.68	4.8
610.015	4.81
610.35	4.89
610.685	4.65
611.02	4.82
611.355	4.87
611.689	4.78
612.024	4.79
612.359	5.12
612.694	5.08
613.028	4.67
613.363	4.73
613.697	4.8
614.032	4.98
614.366	4.82
614.7	4.71
615.035	4.93
615.369	5.08
615.703	5.01
616.037	4.91
616.371	4.66
616.705	5.17
617.039	4.82
617.373	4.86
617.707	4.68
618.041	4.68
618.375	4.38
618.709	4.82
619.042	4.85
619.376	4.72
619.71	4.66
620.043	5.14
620.377	4.77
620.71	4.74
621.043	4.92
621.377	4.84
621.71	5.42
622.043	5.08
622.376	4.93
622.709	5
623.043	4.52
623.376	4.66
623.709	5.22
624.041	4.92
624.374	5.03
624.707	4.79
625.04	4.79
625.373	5.03
625.705	4.83
626.038	4.97
626.37	4.58
626.703	4.85
627.035	4.87
627.368	5.19
627.7	4.86
628.032	4.68
628.365	5.09
628.697	5.04
629.029	4.93
629.361	4.95
629.693	4.83
630.025	4.95
630.357	5.02
630.689	4.72
631.021	5.05
631.353	4.82
631.684	4.9
632.016	4.67
632.348	4.53
632.679	5.03
633.011	4.87
633.342	5.05
633.674	4.47
634.005	4.63
634.336	5.08
634.668	4.95
634.999	4.56
635.33	4.94
635.661	4.51
635.992	4.82
636.323	4.65
636.654	4.91
636.985	4.51
637.316	4.83
637.647	4.76
637.977	4.81
638.308	4.83
638.639	4.85
638.969	4.91
639.3	4.81
639.63	4.8
639.961	4.92
640.291	4.61
640.622	4.74
640.952	5.18
641.282	4.55
641.612	4.94
641.943	4.55
642.273	4.93
642.603	5.08
642.933	4.87
643.263	5.02
643.592	5.11
643.922	5.33
644.252	4.64
644.582	4.92
644.911	5.04
645.241	4.7
645.571	4.93
645.9	4.78
646.23	5.01
646.559	4.41
646.888	5
647.218	4.86
647.547	4.82
647.876	4.85
648.205	4.59
648.534	4.75
648.863	4.57
649.192	4.69
649.521	5.3
649.85	4.93
650.179	5.05
650.508	4.43
650.837	5.12
651.165	5
651.494	5.21
651.822	4.42
652.151	4.64
652.479	4.86
652.808	4.69
653.136	4.38
653.465	4.81
653.793	5.23
654.121	4.59
654.449	4.54
654.777	4.69
655.105	4.51
655.433	4.96
655.761	4.29
656.089	5.09
656.417	4.93
656.745	5.04
657.073	4.7
657.4	4.41
657.728	4.41
658.056	5.14
658.383	4.57
658.711	5.06
659.038	5.68
659.365	4.83
659.693	4.33
660.02	4.66
660.347	4.7
660.674	4.48
661.001	4.8
661.329	4.56
661.656	4.3
661.982	4.64
662.309	4.84
662.636	4.91
662.963	4.81
663.29	4.9
663.616	4.5
663.943	4.79
664.27	4.79
664.596	4.41
664.923	4.82
665.249	4.95
665.576	4.47
665.902	4.46
666.228	4.8
666.554	5.44
666.881	4.38
667.207	4.63
667.533	4.7
667.859	4.54
668.185	4.52
668.511	5.13
668.837	4.79
669.162	4.72
669.488	4.49
669.814	4.55
670.139	4.51
670.465	4.66
670.791	4.87
671.116	4.29
671.442	4.21
671.767	4.77
672.092	4.99
672.418	4.89
672.743	4.96
673.068	4.45
673.393	4.93
673.718	4.09
674.043	5.32
674.368	4.7
674.693	4.49
675.018	4.54
675.343	4.98
675.667	4.59
675.992	4.73
676.317	4.99
676.641	4.67
676.966	5.21
677.29	4.45
677.615	4.44
677.939	4.74
678.264	4.26
678.588	5.6
678.912	4.35
679.236	5.19
679.56	4.58
679.885	4.16
680.209	4.76
680.532	5.67
680.856	4.99
681.18	5.15
681.504	4.79
681.828	4.72
682.152	4.91
682.475	4.81
682.799	4.14
683.122	4.59
683.446	3.85
683.769	4.81
684.093	5.08
684.416	4.11
684.739	4.4
685.062	4.94
685.386	4.79
685.709	5.43
686.032	4.82
686.355	4.72
686.678	5.07
687.001	4.63
687.324	4.39
687.646	5.16
687.969	4.93
688.292	4.44
688.614	4.92
688.937	4.75
689.26	4.7
689.582	5.3
689.904	4.9
690.227	4.64
690.549	5.06
690.871	4.86
691.194	4.85
691.516	5.24
