Data from 21-7_chest_Reflection__1__121.txt Node

Date: Thu Dec 15 17:27:01 CST 2022
User: ToomeyLab
Spectrometer: FLMS14357
Trigger mode: 0
Integration Time (sec): 1.000000E-2
Scans to average: 100
Electric dark correction enabled: true
Nonlinearity correction enabled: false
Boxcar width: 0
XAxis mode: Wavelengths
Number of Pixels in Spectrum: 2048
>>>>>Begin Spectral Data<<<<<
189.047	102.66
189.435	102.66
189.823	102.66
190.211	-194.36
190.599	179.73
190.987	123.25
191.375	35.68
191.763	1.63
192.151	828.8
192.538	49.49
192.926	267.77
193.314	116.67
193.702	-32.58
194.089	38.92
194.477	213.55
194.864	-1150.11
195.252	8.69
195.639	107.57
196.027	-29.57
196.414	430.05
196.801	308.05
197.189	112.82
197.576	-26.85
197.963	103.91
198.351	-14.97
198.738	-12.23
199.125	-118.25
199.512	9.69
199.899	-66.44
200.286	-11.58
200.673	34.7
201.06	-34.45
201.447	37.63
201.833	19.74
202.22	-18.09
202.607	-32.98
202.994	-11.8
203.38	-5.19
203.767	2.89
204.154	35.69
204.54	30.84
204.927	-28.28
205.313	16.45
205.699	21.21
206.086	42.99
206.472	31.73
206.858	32.93
207.245	-12.68
207.631	55.77
208.017	45.26
208.403	-95.58
208.789	9.73
209.175	18.96
209.561	-22.84
209.947	-35.24
210.333	-24.38
210.719	22.89
211.105	1.12
211.491	-3.09
211.876	-5.2
212.262	8.9
212.648	11.27
213.034	13.6
213.419	3.47
213.805	-1.94
214.19	-0.55
214.576	-23.21
214.961	10.48
215.346	-10.63
215.732	17.36
216.117	43.49
216.502	-55.81
216.888	18.33
217.273	3.06
217.658	-11.7
218.043	-6.1
218.428	-6.96
218.813	13.85
219.198	-30.97
219.583	6.5
219.968	13.22
220.353	-23.5
220.738	10.46
221.122	7.79
221.507	-1.89
221.892	-28.61
222.276	-29.87
222.661	-21.42
223.046	-10.89
223.43	13.01
223.815	4.73
224.199	-2.51
224.583	-11.63
224.968	-3.51
225.352	-6.67
225.736	13.79
226.121	5.48
226.505	1.4
226.889	10.13
227.273	-7.25
227.657	4.31
228.041	-1.67
228.425	0.18
228.809	3.2
229.193	2.29
229.577	2.85
229.961	2.9
230.344	3.66
230.728	3.94
231.112	4.03
231.495	1.28
231.879	1.93
232.263	3.34
232.646	2.5
233.03	3.83
233.413	1.34
233.797	1.59
234.18	3.3
234.563	2.78
234.946	2.52
235.33	2.33
235.713	3.8
236.096	4.24
236.479	3.9
236.862	2.82
237.245	2.55
237.628	3.55
238.011	3.57
238.394	2.25
238.777	3.89
239.16	3.2
239.543	2.49
239.925	3.41
240.308	1.48
240.691	2.36
241.073	3.58
241.456	2.82
241.838	2.96
242.221	3.96
242.603	3.08
242.986	3.31
243.368	3.52
243.75	3.1
244.133	3.68
244.515	3.32
244.897	3.2
245.279	3.34
245.661	3.22
246.043	3.17
246.425	2.85
246.807	3.05
247.189	3.6
247.571	3.3
247.953	3.54
248.335	3.26
248.717	3.39
249.098	3.35
249.48	3
249.862	3.72
250.243	3.82
250.625	3.13
251.006	4.3
251.388	2.69
251.769	1.49
252.151	3.5
252.532	1.99
252.913	3.52
253.295	3.23
253.676	3.06
254.057	2.97
254.438	3.63
254.819	3.83
255.2	4.32
255.581	3.95
255.962	3.13
256.343	3.87
256.724	4.11
257.105	3.32
257.486	2.43
257.867	2.23
258.247	3.03
258.628	3.1
259.009	3.01
259.389	2.44
259.77	3.33
260.15	3.73
260.531	3.17
260.911	2.86
261.292	3.26
261.672	3.18
262.052	3.2
262.432	2.92
262.813	3.08
263.193	2.81
263.573	2.83
263.953	2.78
264.333	2.99
264.713	3.22
265.093	3.01
265.473	2.52
265.853	3.04
266.233	2.38
266.612	3.06
266.992	2.67
267.372	3.09
267.752	3.69
268.131	2.5
268.511	3.18
268.89	3.55
269.27	2.38
269.649	2.83
270.029	2.82
270.408	3.33
270.787	3.16
271.167	3.04
271.546	3.66
271.925	3.03
272.304	2.66
272.683	2.83
273.062	2.71
273.441	2.53
273.82	3.16
274.199	2.81
274.578	2.65
274.957	3.25
275.336	3.32
275.715	3.7
276.093	1.92
276.472	2.27
276.851	2.69
277.229	2.68
277.608	2.31
277.986	2.78
278.365	3.6
278.743	2.65
279.122	2.66
279.5	2.9
279.878	2.26
280.257	2.66
280.635	3.01
281.013	2.56
281.391	2.79
281.769	3.19
282.147	2.64
282.525	2.52
282.903	3
283.281	3.16
283.659	3.3
284.037	2.98
284.415	2.84
284.792	2.71
285.17	2.52
285.548	2.81
285.925	2.9
286.303	3.06
286.68	3.21
287.058	2.9
287.435	2.47
287.813	2.89
288.19	2.89
288.567	2.94
288.945	2.97
289.322	2.9
289.699	3.34
290.076	2.95
290.453	2.83
290.83	2.9
291.207	2.59
291.584	3.12
291.961	3.03
292.338	2.79
292.715	2.81
293.092	3.51
293.469	2.75
293.845	3.31
294.222	3.48
294.599	2.46
294.975	2.41
295.352	2.91
295.728	3.03
296.105	2.85
296.481	2.97
296.858	3.24
297.234	2.27
297.61	3.21
297.986	3.66
298.363	3.32
298.739	3.31
299.115	3.19
299.491	3.4
299.867	3.12
300.243	3.05
300.619	2.8
300.995	3.35
301.371	3.21
301.746	3.76
302.122	3.06
302.498	3.67
302.874	3.59
303.249	3.73
303.625	3.17
304	3.24
304.376	3.75
304.751	3.49
305.127	3.24
305.502	3.46
305.878	3.4
306.253	3.4
306.628	3.76
307.003	3.78
307.378	2.83
307.754	3.13
308.129	3.27
308.504	4.24
308.879	3.39
309.254	3.77
309.629	3.22
310.003	3.78
310.378	3.66
310.753	3.32
311.128	3.74
311.502	3.41
311.877	3.39
312.252	3.82
312.626	4.12
313.001	3.67
313.375	3.77
313.75	3.7
314.124	3.81
314.498	3.86
314.873	3.45
315.247	3.42
315.621	3.71
315.995	3.52
316.369	3.27
316.743	3.02
317.117	3.32
317.491	4.14
317.865	3.16
318.239	4.28
318.613	4.02
318.987	3.61
319.361	3.54
319.734	3.48
320.108	3.55
320.482	3.82
320.855	3.67
321.229	3.85
321.602	3.93
321.976	3.17
322.349	4.85
322.723	3.62
323.096	4.39
323.469	3.29
323.843	3.72
324.216	3.92
324.589	3.89
324.962	3.57
325.335	3.51
325.708	4.02
326.081	3.72
326.454	4.1
326.827	3.81
327.2	3.6
327.573	4.49
327.945	3.51
328.318	3.23
328.691	3.83
329.063	3.69
329.436	3.57
329.809	3.78
330.181	4.59
330.553	3.86
330.926	3.97
331.298	3.54
331.671	4.39
332.043	3.65
332.415	4.29
332.787	4.19
333.159	3.75
333.532	3.97
333.904	3.62
334.276	3.56
334.648	3.52
335.02	3.82
335.391	3.72
335.763	4.15
336.135	3.81
336.507	3.72
336.879	3.53
337.25	3.94
337.622	3.98
337.993	4.11
338.365	3.96
338.736	3.74
339.108	3.97
339.479	4.05
339.851	4.39
340.222	4.29
340.593	3.72
340.964	4
341.336	3.69
341.707	3.97
342.078	3.65
342.449	3.67
342.82	3.97
343.191	3.72
343.562	3.66
343.933	3.62
344.303	3.84
344.674	3.85
345.045	3.97
345.416	4.02
345.786	4.14
346.157	3.6
346.527	4.33
346.898	3.58
347.268	4.32
347.639	3.79
348.009	4.18
348.38	3.54
348.75	3.91
349.12	4.11
349.49	3.81
349.861	4.05
350.231	3.73
350.601	4.05
350.971	3.98
351.341	3.98
351.711	4.12
352.081	3.63
352.45	3.57
352.82	3.56
353.19	3.87
353.56	3.78
353.929	4.2
354.299	4.14
354.669	4.5
355.038	3.8
355.408	4.03
355.777	4.11
356.147	4.16
356.516	3.86
356.885	3.83
357.254	3.66
357.624	3.58
357.993	3.87
358.362	3.87
358.731	4.25
359.1	3.89
359.469	4.07
359.838	4
360.207	3.87
360.576	4.1
360.945	4.19
361.314	3.75
361.682	3.64
362.051	3.94
362.42	3.75
362.788	3.85
363.157	3.74
363.525	4.14
363.894	3.81
364.262	3.68
364.631	3.98
364.999	3.95
365.367	4.02
365.735	3.61
366.104	3.78
366.472	3.9
366.84	4.12
367.208	4.01
367.576	3.98
367.944	3.86
368.312	3.83
368.68	4.17
369.048	4.01
369.416	3.55
369.783	4.07
370.151	4.08
370.519	4.18
370.886	4.04
371.254	4.2
371.621	4.04
371.989	4.06
372.356	3.66
372.724	3.86
373.091	3.88
373.458	3.73
373.826	3.91
374.193	4.07
374.56	4.04
374.927	3.76
375.294	4.1
375.661	4.12
376.028	3.81
376.395	4.19
376.762	3.89
377.129	3.81
377.496	4.03
377.863	4.08
378.229	3.99
378.596	4.12
378.963	4.19
379.329	4.13
379.696	3.82
380.062	3.98
380.429	3.64
380.795	3.95
381.161	3.69
381.528	3.63
381.894	3.62
382.26	3.85
382.626	3.92
382.993	4.25
383.359	3.85
383.725	3.7
384.091	4.08
384.457	3.69
384.823	3.86
385.188	4.13
385.554	3.91
385.92	3.66
386.286	3.85
386.651	3.79
387.017	4.18
387.383	3.78
387.748	4.09
388.114	4.01
388.479	3.89
388.845	3.73
389.21	4.13
389.575	4.32
389.94	4.13
390.306	4.27
390.671	3.85
391.036	3.92
391.401	4
391.766	4.27
392.131	3.83
392.496	3.8
392.861	3.89
393.226	3.97
393.591	4.09
393.956	3.93
394.32	4.26
394.685	3.98
395.05	3.95
395.414	3.86
395.779	4.02
396.143	3.86
396.508	3.91
396.872	3.85
397.236	4.18
397.601	3.89
397.965	3.94
398.329	3.99
398.694	3.86
399.058	4.06
399.422	4.04
399.786	3.85
400.15	3.68
400.514	4.01
400.878	3.92
401.242	3.98
401.605	3.95
401.969	3.87
402.333	3.85
402.697	4.12
403.06	3.87
403.424	4.01
403.787	3.88
404.151	3.94
404.514	3.9
404.878	3.7
405.241	3.76
405.604	3.63
405.968	3.86
406.331	4
406.694	3.77
407.057	3.75
407.42	3.81
407.783	3.97
408.146	3.74
408.509	3.91
408.872	3.86
409.235	4.06
409.598	3.78
409.961	3.81
410.323	3.58
410.686	3.78
411.049	3.93
411.411	3.89
411.774	3.76
412.136	3.98
412.499	3.99
412.861	3.5
413.223	3.8
413.586	3.95
413.948	3.88
414.31	3.88
414.672	3.7
415.035	4.12
415.397	3.8
415.759	3.6
416.121	4.12
416.483	3.72
416.845	4.03
417.206	3.76
417.568	3.74
417.93	3.9
418.292	3.57
418.653	3.57
419.015	3.81
419.377	3.75
419.738	3.87
420.1	3.8
420.461	3.74
420.822	3.82
421.184	3.85
421.545	3.92
421.906	3.87
422.267	3.86
422.629	3.8
422.99	3.85
423.351	3.89
423.712	3.83
424.073	3.93
424.434	3.96
424.795	3.87
425.155	3.86
425.516	3.91
425.877	3.91
426.238	3.85
426.598	3.95
426.959	3.95
427.32	3.94
427.68	3.97
428.041	4.12
428.401	4.04
428.761	4.07
429.122	4
429.482	4.17
429.842	4.16
430.202	4.14
430.563	4.17
430.923	4.25
431.283	4.25
431.643	4.26
432.003	4.26
432.363	4.31
432.722	4.1
433.082	4.03
433.442	4.15
433.802	4.15
434.161	4.26
434.521	4.24
434.881	4.15
435.24	4.23
435.6	4.19
435.959	4.24
436.319	4.2
436.678	4.32
437.037	4.27
437.396	4.51
437.756	4.22
438.115	4.3
438.474	4.33
438.833	4.16
439.192	4.36
439.551	4.23
439.91	4.42
440.269	4.32
440.628	4.3
440.987	4.39
441.345	4.36
441.704	4.25
442.063	4.26
442.421	4.39
442.78	4.37
443.138	4.38
443.497	4.42
443.855	4.39
444.214	4.29
444.572	4.44
444.93	4.32
445.288	4.46
445.647	4.13
446.005	4.38
446.363	4.35
446.721	4.4
447.079	4.34
447.437	4.38
447.795	4.36
448.153	4.23
448.51	4.37
448.868	4.28
449.226	4.51
449.584	4.37
449.941	4.48
450.299	4.45
450.656	4.58
451.014	4.52
451.371	4.57
451.729	4.58
452.086	4.48
452.443	4.56
452.801	4.48
453.158	4.62
453.515	4.47
453.872	4.46
454.229	4.29
454.586	4.34
454.943	4.65
455.3	4.52
455.657	4.58
456.014	4.49
456.371	4.72
456.727	4.65
457.084	4.61
457.441	4.61
457.797	4.46
458.154	4.63
458.51	4.58
458.867	4.55
459.223	4.5
459.58	4.5
459.936	4.55
460.292	4.6
460.648	4.45
461.005	4.48
461.361	4.48
461.717	4.55
462.073	4.64
462.429	4.67
462.785	4.62
463.141	4.54
463.496	4.68
463.852	4.57
464.208	4.62
464.564	4.74
464.919	4.61
465.275	4.53
465.631	4.81
465.986	4.77
466.342	4.61
466.697	4.69
467.052	4.81
467.408	4.7
467.763	4.69
468.118	4.58
468.473	4.65
468.829	4.5
469.184	4.76
469.539	4.82
469.894	4.66
470.249	4.75
470.603	4.77
470.958	4.77
471.313	4.79
471.668	4.8
472.023	4.83
472.377	4.72
472.732	4.83
473.086	4.76
473.441	4.63
473.795	5.01
474.15	4.73
474.504	4.78
474.859	4.64
475.213	4.76
475.567	4.79
475.921	4.79
476.275	4.86
476.63	4.83
476.984	4.75
477.338	4.85
477.692	4.79
478.045	4.88
478.399	4.78
478.753	4.84
479.107	4.81
479.461	4.8
479.814	4.89
480.168	4.78
480.521	4.93
480.875	4.85
481.228	4.86
481.582	4.75
481.935	4.97
482.289	4.88
482.642	4.92
482.995	4.79
483.348	4.73
483.701	4.81
484.055	4.81
484.408	4.69
484.761	4.63
485.114	4.5
485.466	4.53
485.819	4.53
486.172	4.58
486.525	4.68
486.878	4.68
487.23	4.79
487.583	4.8
487.936	4.73
488.288	4.72
488.641	4.58
488.993	4.67
489.345	4.6
489.698	4.67
490.05	4.68
490.402	4.78
490.754	4.75
491.107	4.74
491.459	4.86
491.811	4.83
492.163	4.75
492.515	4.76
492.866	4.75
493.218	4.74
493.57	4.75
493.922	4.75
494.274	4.89
494.625	4.9
494.977	4.89
495.328	4.98
495.68	4.91
496.031	4.97
496.383	4.94
496.734	4.98
497.086	5.1
497.437	5.05
497.788	5.04
498.139	4.92
498.49	5.01
498.842	5.08
499.193	4.91
499.544	4.94
499.894	5.05
500.245	5.02
500.596	5.04
500.947	5.03
501.298	5.01
501.648	5.1
501.999	5.11
502.35	5.03
502.7	5.15
503.051	5.12
503.401	5.2
503.752	5.17
504.102	5.07
504.452	5.1
504.803	5
505.153	5.19
505.503	5.04
505.853	5.16
506.203	5.19
506.553	5.12
506.903	5.24
507.253	5.21
507.603	5.12
507.953	5.13
508.303	5.24
508.652	5.04
509.002	5.13
509.352	5.2
509.701	5.09
510.051	5.29
510.4	5.27
510.75	5.1
511.099	5.1
511.449	5.12
511.798	5.13
512.147	5.14
512.496	5.14
512.846	5.19
513.195	5.13
513.544	5.3
513.893	5.14
514.242	5.17
514.591	5.14
514.939	5.2
515.288	5.26
515.637	5.18
515.986	5.21
516.334	5.28
516.683	5.38
517.032	5.27
517.38	5.16
517.729	5.27
518.077	5.23
518.426	5.42
518.774	5.3
519.122	5.28
519.47	5.3
519.819	5.18
520.167	5.29
520.515	5.25
520.863	5.28
521.211	5.22
521.559	5.28
521.907	5.32
522.255	5.23
522.602	5.35
522.95	5.46
523.298	5.39
523.645	5.38
523.993	5.39
524.341	5.34
524.688	5.4
525.036	5.37
525.383	5.45
525.73	5.4
526.078	5.51
526.425	5.4
526.772	5.34
527.119	5.33
527.466	5.41
527.814	5.26
528.161	5.45
528.508	5.44
528.854	5.42
529.201	5.23
529.548	5.29
529.895	5.13
530.242	5.17
530.588	5.18
530.935	5.22
531.282	5.27
531.628	5.34
531.975	5.37
532.321	5.34
532.667	5.48
533.014	5.47
533.36	5.51
533.706	5.57
534.052	5.44
534.399	5.44
534.745	5.35
535.091	5.34
535.437	5.46
535.783	5.43
536.129	5.49
536.474	5.54
536.82	5.57
537.166	5.55
537.512	5.53
537.857	5.56
538.203	5.53
538.549	5.49
538.894	5.6
539.239	5.6
539.585	5.73
539.93	5.76
540.276	5.73
540.621	5.78
540.966	5.79
541.311	5.67
541.656	5.71
542.001	5.73
542.346	5.71
542.691	5.55
543.036	5.54
543.381	5.57
543.726	5.64
544.071	5.68
544.415	5.68
544.76	5.69
545.105	5.69
545.449	5.83
545.794	5.78
546.138	5.81
546.483	5.95
546.827	5.78
547.171	6.02
547.516	5.85
547.86	5.94
548.204	5.97
548.548	5.88
548.892	5.97
549.236	5.91
549.58	5.96
549.924	6.11
550.268	6.23
550.612	6.13
550.956	6.16
551.3	6.17
551.643	6.09
551.987	6.32
552.33	6.26
552.674	6.15
553.017	6.21
553.361	6.22
553.704	6.22
554.048	6.16
554.391	6.37
554.734	6.06
555.077	6.33
555.42	6.15
555.764	6.3
556.107	6.31
556.45	6.4
556.793	6.51
557.135	6.22
557.478	6.34
557.821	6.74
558.164	6.44
558.507	6.35
558.849	6.52
559.192	6.58
559.534	6.48
559.877	6.36
560.219	6.51
560.562	6.54
560.904	6.71
561.246	6.39
561.589	6.77
561.931	6.56
562.273	6.54
562.615	6.65
562.957	6.66
563.299	6.73
563.641	6.56
563.983	6.36
564.325	6.84
564.667	6.65
565.008	6.69
565.35	6.53
565.692	6.73
566.033	6.82
566.375	6.7
566.716	6.7
567.058	6.68
567.399	6.86
567.741	6.84
568.082	6.79
568.423	6.76
568.764	6.6
569.105	6.91
569.447	6.96
569.788	6.93
570.129	6.68
570.47	6.84
570.811	6.86
571.151	6.92
571.492	6.98
571.833	6.97
572.174	7.13
572.514	7.13
572.855	7.27
573.195	6.94
573.536	7.18
573.876	7.03
574.217	7.03
574.557	6.94
574.898	7.16
575.238	7.26
575.578	7.21
575.918	7.34
576.258	7.39
576.598	7.21
576.938	7.11
577.278	7.15
577.618	7.18
577.958	7.33
578.298	7.33
578.638	7.27
578.977	7.47
579.317	7.49
579.657	7.16
579.996	7.39
580.336	7.68
580.675	7.46
581.014	7.56
581.354	7.55
581.693	7.43
582.032	7.87
582.372	7.8
582.711	7.66
583.05	7.78
583.389	7.76
583.728	7.88
584.067	7.91
584.406	7.89
584.745	7.67
585.083	7.82
585.422	7.78
585.761	7.82
586.1	8
586.438	7.74
586.777	7.87
587.115	8.08
587.454	7.86
587.792	8.06
588.13	8.29
588.469	8.04
588.807	8.04
589.145	8.14
589.483	8.06
589.821	8.06
590.159	8.22
590.497	8.24
590.835	8.2
591.173	8.33
591.511	8.32
591.849	8.4
592.187	7.95
592.524	8.28
592.862	8.36
593.2	8.45
593.537	8.51
593.875	8.36
594.212	8.72
594.55	8.28
594.887	8.6
595.224	8.56
595.561	8.38
595.899	8.61
596.236	8.55
596.573	8.45
596.91	8.66
597.247	8.74
597.584	8.72
597.921	8.69
598.258	8.58
598.594	8.65
598.931	8.4
599.268	8.59
599.604	8.68
599.941	8.78
600.277	8.99
600.614	8.71
600.95	8.8
601.287	8.6
601.623	8.7
601.959	8.95
602.296	8.72
602.632	8.87
602.968	8.77
603.304	8.94
603.64	8.97
603.976	8.98
604.312	8.98
604.648	9.19
604.984	9.11
605.319	9.12
605.655	9.19
605.991	9.05
606.326	9.1
606.662	8.96
606.998	9.39
607.333	9.23
607.668	9.18
608.004	9.28
608.339	9.15
608.674	9.46
609.01	9.55
609.345	9.39
609.68	9.43
610.015	9.61
610.35	9.57
610.685	9.14
611.02	9.28
611.355	9.42
611.689	9.5
612.024	9.62
612.359	9.78
612.694	9.74
613.028	9.58
613.363	9.54
613.697	9.82
614.032	9.63
614.366	9.28
614.7	9.8
615.035	9.82
615.369	10.2
615.703	10.27
616.037	10
616.371	10.02
616.705	10.15
617.039	10.13
617.373	9.97
617.707	10.27
618.041	9.69
618.375	9.35
618.709	10.18
619.042	10.08
619.376	9.97
619.71	10.3
620.043	10.25
620.377	10.3
620.71	10.46
621.043	10.62
621.377	10.64
621.71	10.7
622.043	10.58
622.376	10.52
622.709	10.62
623.043	10.36
623.376	10.55
623.709	10.66
624.041	10.51
624.374	10.69
624.707	10.6
625.04	10.61
625.373	10.85
625.705	10.9
626.038	10.74
626.37	10.97
626.703	10.88
627.035	11
627.368	10.96
627.7	10.98
628.032	10.99
628.365	11.23
628.697	11.08
629.029	10.95
629.361	11.05
629.693	10.81
630.025	11.28
630.357	11.08
630.689	10.95
631.021	11.11
631.353	11.21
631.684	11.21
632.016	11.18
632.348	11.48
632.679	11.26
633.011	11.26
633.342	11.58
633.674	11.17
634.005	11.32
634.336	11.65
634.668	11.38
634.999	11.02
635.33	12.02
635.661	11.22
635.992	11.49
636.323	11.67
636.654	11.54
636.985	11.56
637.316	11.81
637.647	11.73
637.977	11.8
638.308	11.91
638.639	11.48
638.969	11.82
639.3	11.83
639.63	11.98
639.961	11.92
640.291	11.75
640.622	12.48
640.952	11.8
641.282	11.59
641.612	11.69
641.943	11.89
642.273	12.06
642.603	12.1
642.933	12.3
643.263	12.21
643.592	12.38
643.922	12.59
644.252	12.2
644.582	12.4
644.911	12.18
645.241	12.57
645.571	12.73
645.9	12.48
646.23	12.7
646.559	12.33
646.888	13.06
647.218	12.61
647.547	13.01
647.876	12.48
648.205	12.37
648.534	12.76
648.863	12.66
649.192	12.48
649.521	13.06
649.85	13.04
650.179	12.75
650.508	12.94
650.837	13.29
651.165	12.67
651.494	12.92
651.822	13.15
652.151	12.77
652.479	13.29
652.808	13.18
653.136	12.63
653.465	13.34
653.793	13.04
654.121	13.36
654.449	13.28
654.777	12.9
655.105	13.08
655.433	13.62
655.761	13.56
656.089	13.43
656.417	13.91
656.745	14.14
657.073	13.27
657.4	12.8
657.728	13.3
658.056	13.85
658.383	13.77
658.711	13.5
659.038	13.57
659.365	14
659.693	13.39
660.02	13.83
660.347	13.72
660.674	13.34
661.001	13.71
661.329	13.71
661.656	13.54
661.982	13.48
662.309	13.59
662.636	14
662.963	14.19
663.29	14
663.616	13.76
663.943	14.21
664.27	14.3
664.596	14.18
664.923	14.45
665.249	14.41
665.576	14.44
665.902	14.3
666.228	14.6
666.554	14.74
666.881	14.33
667.207	14.85
667.533	14.51
667.859	13.85
668.185	14.53
668.511	14.84
668.837	15.09
669.162	14.62
669.488	13.98
669.814	14.53
670.139	14.23
670.465	15.3
670.791	14.41
671.116	14.74
671.442	14.12
671.767	15.1
672.092	14.87
672.418	14.87
672.743	15.1
673.068	14.4
673.393	15.4
673.718	14.42
674.043	14.8
674.368	15.09
674.693	14.96
675.018	15.88
675.343	15.52
675.667	15.28
675.992	15.4
676.317	15.38
676.641	15.95
676.966	16.17
677.29	15.56
677.615	15.14
677.939	16.01
678.264	15.34
678.588	15.6
678.912	15.47
679.236	15.04
679.56	15.11
679.885	15.35
680.209	15.81
680.532	15.92
680.856	16.11
681.18	16.07
681.504	15.68
681.828	15.49
682.152	15.85
682.475	15.65
682.799	15.79
683.122	16.14
683.446	15.45
683.769	16.2
684.093	16.47
684.416	15.95
684.739	15.03
685.062	16.3
685.386	16.4
685.709	16.7
686.032	16.2
686.355	16.36
686.678	16.38
687.001	16.65
687.324	16.18
687.646	17.03
