Data from 21-7_chest_Reflection__4__124.txt Node

Date: Thu Dec 15 17:27:57 CST 2022
User: ToomeyLab
Spectrometer: FLMS14357
Trigger mode: 0
Integration Time (sec): 1.000000E-2
Scans to average: 100
Electric dark correction enabled: true
Nonlinearity correction enabled: false
Boxcar width: 0
XAxis mode: Wavelengths
Number of Pixels in Spectrum: 2048
>>>>>Begin Spectral Data<<<<<
189.047	-242.49
189.435	-242.49
189.823	-242.49
190.211	-164.88
190.599	178.41
190.987	28.84
191.375	43.13
191.763	-32.54
192.151	237.92
192.538	124.74
192.926	267.58
193.314	75.86
193.702	-110.78
194.089	5.14
194.477	219.08
194.864	-1015.27
195.252	-36.17
195.639	-11.67
196.027	-66.2
196.414	509.66
196.801	186.7
197.189	50.59
197.576	-363.94
197.963	-118.71
198.351	8.5
198.738	-19.73
199.125	-88.38
199.512	27.49
199.899	-144.64
200.286	-53.2
200.673	62.26
201.06	16.16
201.447	-29.36
201.833	6.65
202.22	11.84
202.607	-38.21
202.994	-17.89
203.38	8.19
203.767	5.31
204.154	25.07
204.54	6.51
204.927	-2.48
205.313	50.99
205.699	0.37
206.086	26.34
206.472	2.75
206.858	33.5
207.245	-7.46
207.631	35.23
208.017	68.25
208.403	-174.29
208.789	18.47
209.175	26.99
209.561	-98.32
209.947	-4.4
210.333	11.13
210.719	39.63
211.105	26.36
211.491	28.78
211.876	9.44
212.262	8.09
212.648	-0.18
213.034	5
213.419	11.9
213.805	-6.77
214.19	-33.17
214.576	5.54
214.961	29.72
215.346	-25.61
215.732	30.14
216.117	29.09
216.502	18.19
216.888	9.56
217.273	8.97
217.658	-6.03
218.043	-29.56
218.428	-9.76
218.813	24.23
219.198	-63.37
219.583	0
219.968	-8.48
220.353	-27.33
220.738	5.23
221.122	-14.18
221.507	-9.27
221.892	-29.23
222.276	-13.85
222.661	-9.33
223.046	-9.69
223.43	7.96
223.815	11.18
224.199	2.4
224.583	8.57
224.968	-1.74
225.352	-9.82
225.736	8.19
226.121	2.64
226.505	3.63
226.889	4.72
227.273	1.87
227.657	8.5
228.041	1.76
228.425	-1.26
228.809	2.54
229.193	4.45
229.577	1.99
229.961	2.78
230.344	4.06
230.728	4.2
231.112	4.16
231.495	1.39
231.879	3
232.263	3.73
232.646	1.82
233.03	5.2
233.413	2.95
233.797	1.1
234.18	2.7
234.563	2.67
234.946	3.79
235.33	1.27
235.713	3.23
236.096	3.9
236.479	3.61
236.862	1.9
237.245	2.98
237.628	3.59
238.011	2.29
238.394	3.68
238.777	2.04
239.16	3.89
239.543	4.62
239.925	2.76
240.308	3.3
240.691	3.11
241.073	3.45
241.456	4.6
241.838	3.48
242.221	2.74
242.603	4.32
242.986	3.28
243.368	3.3
243.75	3.12
244.133	3.59
244.515	3.21
244.897	3.25
245.279	2.87
245.661	4.04
246.043	2.68
246.425	3.41
246.807	3.69
247.189	3.3
247.571	3.17
247.953	3.33
248.335	3.37
248.717	3.38
249.098	3.39
249.48	2.9
249.862	3.49
250.243	3.99
250.625	3.43
251.006	3.28
251.388	2.35
251.769	2.56
252.151	3.1
252.532	2.59
252.913	3.02
253.295	2.85
253.676	3.45
254.057	3.01
254.438	2.9
254.819	2.46
255.2	4.04
255.581	5.33
255.962	3.41
256.343	4.24
256.724	3.58
257.105	3.4
257.486	1.54
257.867	2.66
258.247	2.87
258.628	3.66
259.009	3.22
259.389	2.71
259.77	2.84
260.15	4.19
260.531	3.51
260.911	3.3
261.292	3.21
261.672	3.14
262.052	3.23
262.432	3.14
262.813	2.94
263.193	3.13
263.573	3.11
263.953	2.41
264.333	3.05
264.713	3.78
265.093	3.28
265.473	2.53
265.853	3.38
266.233	3.06
266.612	3.15
266.992	3.19
267.372	3.08
267.752	3.81
268.131	3.12
268.511	2.93
268.89	3.74
269.27	2.32
269.649	2.74
270.029	3.02
270.408	2.89
270.787	2.71
271.167	3.01
271.546	3.61
271.925	2.91
272.304	3.22
272.683	2.94
273.062	2.95
273.441	2.63
273.82	2.68
274.199	2.7
274.578	2.79
274.957	2.91
275.336	3.41
275.715	3.38
276.093	3.18
276.472	2.26
276.851	2.6
277.229	2.49
277.608	2.52
277.986	2.58
278.365	3.53
278.743	2.72
279.122	2.96
279.5	2.63
279.878	2.04
280.257	2.69
280.635	3.11
281.013	2.58
281.391	2.65
281.769	3.02
282.147	3.2
282.525	2.17
282.903	2.35
283.281	2.91
283.659	3.23
284.037	2.72
284.415	2.6
284.792	3.07
285.17	2.7
285.548	3.09
285.925	2.87
286.303	3.34
286.68	2.78
287.058	3.21
287.435	2.95
287.813	2.77
288.19	2.41
288.567	3.11
288.945	2.39
289.322	2.92
289.699	3.06
290.076	2.81
290.453	2.71
290.83	2.51
291.207	2.5
291.584	3.13
291.961	2.94
292.338	2.92
292.715	2.68
293.092	3.14
293.469	3.13
293.845	3.18
294.222	3.51
294.599	2.83
294.975	2.14
295.352	3.48
295.728	3.4
296.105	3.33
296.481	2.92
296.858	3.27
297.234	2.84
297.61	3.18
297.986	3.63
298.363	3.36
298.739	3.24
299.115	3.09
299.491	3.32
299.867	3.1
300.243	3.09
300.619	3.05
300.995	3.3
301.371	3.69
301.746	3.53
302.122	2.69
302.498	3.06
302.874	3.53
303.249	3.42
303.625	3.04
304	3.44
304.376	4
304.751	3.43
305.127	3.09
305.502	3.33
305.878	3.34
306.253	3.31
306.628	3.31
307.003	2.99
307.378	3.23
307.754	3.73
308.129	3.16
308.504	3.85
308.879	3.35
309.254	3.72
309.629	3.6
310.003	3.38
310.378	3.62
310.753	3.53
311.128	3.43
311.502	3.5
311.877	3.42
312.252	3.52
312.626	3.89
313.001	4.02
313.375	3.76
313.75	3.85
314.124	3.8
314.498	3.96
314.873	3.58
315.247	3.88
315.621	3.24
315.995	3.59
316.369	3.45
316.743	2.94
317.117	3.37
317.491	3.51
317.865	3.17
318.239	3.69
318.613	3.87
318.987	3.72
319.361	3.99
319.734	4.1
320.108	3.46
320.482	3.73
320.855	3.59
321.229	3.92
321.602	3.72
321.976	2.99
322.349	4
322.723	3.76
323.096	3.48
323.469	4.01
323.843	3.65
324.216	3.74
324.589	3.83
324.962	3.29
325.335	3.27
325.708	3.71
326.081	3.46
326.454	4.14
326.827	4.11
327.2	3.34
327.573	4.23
327.945	3.54
328.318	3.72
328.691	3.75
329.063	3.42
329.436	3.64
329.809	3.81
330.181	4.24
330.553	4.22
330.926	4.14
331.298	3.75
331.671	3.78
332.043	3.81
332.415	4.5
332.787	3.61
333.159	3.83
333.532	3.89
333.904	4.67
334.276	4.37
334.648	3.67
335.02	3.81
335.391	3.54
335.763	4.14
336.135	3.93
336.507	3.68
336.879	3.89
337.25	3.95
337.622	4.01
337.993	4.02
338.365	3.58
338.736	3.7
339.108	3.83
339.479	3.38
339.851	4.25
340.222	4.11
340.593	3.73
340.964	3.71
341.336	4.05
341.707	4.08
342.078	3.75
342.449	3.96
342.82	3.98
343.191	3.84
343.562	4.14
343.933	3.58
344.303	3.97
344.674	3.96
345.045	3.78
345.416	4.18
345.786	3.78
346.157	3.74
346.527	3.69
346.898	3.62
347.268	3.88
347.639	3.76
348.009	3.74
348.38	3.58
348.75	4.25
349.12	3.84
349.49	3.94
349.861	3.82
350.231	3.86
350.601	4.17
350.971	3.81
351.341	4.05
351.711	4.12
352.081	3.54
352.45	3.67
352.82	3.66
353.19	3.75
353.56	3.91
353.929	3.75
354.299	3.91
354.669	4.18
355.038	4.26
355.408	3.89
355.777	4.1
356.147	4.09
356.516	4.22
356.885	3.59
357.254	3.6
357.624	3.73
357.993	3.49
358.362	3.96
358.731	3.92
359.1	4.01
359.469	4.22
359.838	3.85
360.207	3.81
360.576	4
360.945	4.16
361.314	3.68
361.682	3.75
362.051	3.75
362.42	3.81
362.788	4.15
363.157	3.76
363.525	3.94
363.894	3.76
364.262	3.77
364.631	3.89
364.999	4.04
365.367	3.5
365.735	3.71
366.104	3.88
366.472	4.06
366.84	4.09
367.208	4.24
367.576	4
367.944	4.12
368.312	3.79
368.68	4.25
369.048	3.8
369.416	3.91
369.783	4.01
370.151	4.16
370.519	4.42
370.886	3.93
371.254	4.14
371.621	3.97
371.989	4
372.356	3.86
372.724	3.89
373.091	3.76
373.458	3.97
373.826	3.92
374.193	3.95
374.56	4.07
374.927	4.16
375.294	3.85
375.661	3.84
376.028	3.93
376.395	4
376.762	3.94
377.129	4.06
377.496	4.09
377.863	4.04
378.229	4.32
378.596	4.32
378.963	3.87
379.329	4.26
379.696	3.83
380.062	4.06
380.429	3.82
380.795	4.41
381.161	3.77
381.528	3.74
381.894	4.11
382.26	4.1
382.626	4.17
382.993	4.29
383.359	4.1
383.725	3.89
384.091	4.13
384.457	4.12
384.823	4.19
385.188	4.05
385.554	3.96
385.92	3.8
386.286	4.11
386.651	4.17
387.017	4.26
387.383	3.97
387.748	4.24
388.114	4.18
388.479	4.12
388.845	3.93
389.21	4.49
389.575	4.23
389.94	4.36
390.306	4.14
390.671	4.21
391.036	4.01
391.401	4.14
391.766	3.98
392.131	4.32
392.496	4.24
392.861	4.16
393.226	4.08
393.591	4.12
393.956	4.2
394.32	4.1
394.685	4.03
395.05	4.05
395.414	4.2
395.779	4.28
396.143	4.12
396.508	4.1
396.872	4.12
397.236	4.35
397.601	4.04
397.965	4.12
398.329	4.25
398.694	4.12
399.058	4.03
399.422	3.97
399.786	3.93
400.15	4.15
400.514	4.21
400.878	4.05
401.242	4.24
401.605	4.2
401.969	4.01
402.333	4.22
402.697	4.31
403.06	4.32
403.424	4.15
403.787	4.36
404.151	4.09
404.514	4.25
404.878	4.16
405.241	4.18
405.604	4.03
405.968	4.08
406.331	4.1
406.694	4.19
407.057	4.1
407.42	4.19
407.783	4.16
408.146	4.24
408.509	4.34
408.872	4.25
409.235	4.22
409.598	4.15
409.961	4.22
410.323	4.29
410.686	4.17
411.049	4.29
411.411	4.16
411.774	4.12
412.136	4.07
412.499	4.3
412.861	3.76
413.223	4
413.586	4.24
413.948	4.38
414.31	4.12
414.672	4.02
415.035	4.26
415.397	4.21
415.759	4.03
416.121	4.2
416.483	4.08
416.845	4.02
417.206	4.1
417.568	4.18
417.93	4.1
418.292	4.04
418.653	4.05
419.015	4.21
419.377	4.11
419.738	4.15
420.1	4.18
420.461	4.09
420.822	4.27
421.184	4.11
421.545	4.12
421.906	4.14
422.267	4.11
422.629	4.17
422.99	4.01
423.351	4.11
423.712	4.2
424.073	4.15
424.434	4.25
424.795	4.1
425.155	4.13
425.516	4.13
425.877	4.2
426.238	4.17
426.598	4.27
426.959	4.22
427.32	4.22
427.68	4.28
428.041	4.26
428.401	4.17
428.761	4.31
429.122	4.29
429.482	4.35
429.842	4.25
430.202	4.41
430.563	4.34
430.923	4.4
431.283	4.31
431.643	4.45
432.003	4.38
432.363	4.34
432.722	4.37
433.082	4.41
433.442	4.51
433.802	4.34
434.161	4.31
434.521	4.44
434.881	4.46
435.24	4.35
435.6	4.47
435.959	4.39
436.319	4.37
436.678	4.39
437.037	4.4
437.396	4.48
437.756	4.35
438.115	4.33
438.474	4.41
438.833	4.33
439.192	4.29
439.551	4.44
439.91	4.45
440.269	4.37
440.628	4.36
440.987	4.4
441.345	4.45
441.704	4.32
442.063	4.36
442.421	4.43
442.78	4.41
443.138	4.42
443.497	4.44
443.855	4.42
444.214	4.33
444.572	4.57
444.93	4.3
445.288	4.52
445.647	4.53
446.005	4.43
446.363	4.42
446.721	4.44
447.079	4.44
447.437	4.49
447.795	4.47
448.153	4.49
448.51	4.42
448.868	4.44
449.226	4.47
449.584	4.5
449.941	4.48
450.299	4.51
450.656	4.52
451.014	4.59
451.371	4.66
451.729	4.54
452.086	4.47
452.443	4.7
452.801	4.66
453.158	4.78
453.515	4.57
453.872	4.53
454.229	4.47
454.586	4.34
454.943	4.62
455.3	4.61
455.657	4.56
456.014	4.61
456.371	4.67
456.727	4.68
457.084	4.69
457.441	4.64
457.797	4.67
458.154	4.68
458.51	4.51
458.867	4.56
459.223	4.65
459.58	4.68
459.936	4.68
460.292	4.52
460.648	4.55
461.005	4.45
461.361	4.58
461.717	4.5
462.073	4.63
462.429	4.74
462.785	4.75
463.141	4.65
463.496	4.61
463.852	4.69
464.208	4.62
464.564	4.48
464.919	4.68
465.275	4.78
465.631	4.81
465.986	4.74
466.342	4.76
466.697	4.76
467.052	4.86
467.408	4.9
467.763	4.71
468.118	4.67
468.473	4.74
468.829	4.65
469.184	4.79
469.539	4.68
469.894	4.79
470.249	4.78
470.603	4.78
470.958	4.8
471.313	4.83
471.668	4.91
472.023	5.01
472.377	4.8
472.732	5.01
473.086	4.64
473.441	4.74
473.795	4.87
474.15	4.77
474.504	4.87
474.859	4.73
475.213	4.81
475.567	4.75
475.921	4.77
476.275	4.8
476.63	4.85
476.984	4.68
477.338	4.94
477.692	4.74
478.045	4.84
478.399	4.93
478.753	4.85
479.107	4.94
479.461	4.71
479.814	4.76
480.168	4.8
480.521	5.03
480.875	4.89
481.228	4.89
481.582	4.87
481.935	4.9
482.289	4.98
482.642	4.96
482.995	4.79
483.348	4.83
483.701	4.84
484.055	4.79
484.408	4.78
484.761	4.61
485.114	4.54
485.466	4.53
485.819	4.56
486.172	4.65
486.525	4.71
486.878	4.73
487.23	4.76
487.583	4.77
487.936	4.7
488.288	4.73
488.641	4.68
488.993	4.62
489.345	4.68
489.698	4.67
490.05	4.7
490.402	4.77
490.754	4.76
491.107	4.81
491.459	4.89
491.811	4.88
492.163	4.86
492.515	4.85
492.866	4.76
493.218	4.75
493.57	4.8
493.922	4.79
494.274	4.93
494.625	4.95
494.977	4.99
495.328	5.08
495.68	5
496.031	5.02
496.383	5.02
496.734	4.95
497.086	5.07
497.437	5.15
497.788	5.11
498.139	4.98
498.49	5.09
498.842	4.98
499.193	4.97
499.544	5.07
499.894	5.05
500.245	5.07
500.596	5.11
500.947	5.09
501.298	5.04
501.648	5.08
501.999	5.12
502.35	5
502.7	5.33
503.051	5.1
503.401	5.19
503.752	5.03
504.102	5.07
504.452	5.11
504.803	5.08
505.153	5.07
505.503	5.17
505.853	5.16
506.203	5.24
506.553	5.2
506.903	5.07
507.253	5.26
507.603	5.31
507.953	5.07
508.303	5.27
508.652	5.12
509.002	5.26
509.352	5.34
509.701	5.18
510.051	5.25
510.4	5.29
510.75	5.15
511.099	5.05
511.449	5.28
511.798	5.25
512.147	5.17
512.496	5.3
512.846	5.17
513.195	5.15
513.544	5.23
513.893	5.23
514.242	5.19
514.591	5.25
514.939	5.31
515.288	5.23
515.637	5.26
515.986	5.24
516.334	5.4
516.683	5.42
517.032	5.35
517.38	5.39
517.729	5.32
518.077	5.34
518.426	5.32
518.774	5.34
519.122	5.35
519.47	5.3
519.819	5.26
520.167	5.26
520.515	5.32
520.863	5.32
521.211	5.32
521.559	5.25
521.907	5.4
522.255	5.42
522.602	5.48
522.95	5.34
523.298	5.46
523.645	5.43
523.993	5.48
524.341	5.48
524.688	5.45
525.036	5.52
525.383	5.45
525.73	5.37
526.078	5.49
526.425	5.4
526.772	5.4
527.119	5.43
527.466	5.41
527.814	5.52
528.161	5.41
528.508	5.45
528.854	5.45
529.201	5.39
529.548	5.25
529.895	5.2
530.242	5.18
530.588	5.26
530.935	5.31
531.282	5.32
531.628	5.38
531.975	5.46
532.321	5.52
532.667	5.48
533.014	5.56
533.36	5.5
533.706	5.53
534.052	5.6
534.399	5.47
534.745	5.43
535.091	5.38
535.437	5.44
535.783	5.53
536.129	5.52
536.474	5.58
536.82	5.69
537.166	5.58
537.512	5.62
537.857	5.55
538.203	5.64
538.549	5.58
538.894	5.66
539.239	5.67
539.585	5.69
539.93	5.77
540.276	5.68
540.621	5.76
540.966	5.62
541.311	5.76
541.656	5.7
542.001	5.68
542.346	5.59
542.691	5.5
543.036	5.55
543.381	5.58
543.726	5.66
544.071	5.64
544.415	5.71
544.76	5.7
545.105	5.75
545.449	5.77
545.794	5.79
546.138	5.82
546.483	5.92
546.827	5.7
547.171	5.89
547.516	6.07
547.86	5.9
548.204	5.89
548.548	5.84
548.892	5.83
549.236	5.89
549.58	6
549.924	6.2
550.268	6.11
550.612	6.07
550.956	6.22
551.3	6.35
551.643	6.02
551.987	6.16
552.33	6.17
552.674	6.08
553.017	6.17
553.361	6.18
553.704	6.14
554.048	6.01
554.391	6.13
554.734	6.21
555.077	6.1
555.42	6.14
555.764	6.26
556.107	6.23
556.45	6.34
556.793	6.45
557.135	6.39
557.478	6.21
557.821	6.33
558.164	6.42
558.507	6.19
558.849	6.58
559.192	6.35
559.534	6.45
559.877	6.32
560.219	6.36
560.562	6.32
560.904	6.41
561.246	6.35
561.589	6.45
561.931	6.44
562.273	6.45
562.615	6.34
562.957	6.44
563.299	6.5
563.641	6.45
563.983	6.3
564.325	6.58
564.667	6.64
565.008	6.5
565.35	6.51
565.692	6.54
566.033	6.48
566.375	6.47
566.716	6.46
567.058	6.5
567.399	6.55
567.741	6.58
568.082	6.65
568.423	6.5
568.764	6.54
569.105	6.51
569.447	6.73
569.788	6.62
570.129	6.7
570.47	6.71
570.811	6.57
571.151	6.72
571.492	6.7
571.833	6.73
572.174	7.04
572.514	6.76
572.855	6.95
573.195	6.75
573.536	6.93
573.876	6.79
574.217	6.79
574.557	6.92
574.898	6.76
575.238	6.81
575.578	6.92
575.918	6.93
576.258	6.89
576.598	6.79
576.938	6.82
577.278	7.01
577.618	7.15
577.958	7.01
578.298	6.96
578.638	6.95
578.977	7.07
579.317	7.07
579.657	7.07
579.996	7.02
580.336	7.15
580.675	7.11
581.014	7.16
581.354	7.13
581.693	7.09
582.032	7.34
582.372	7.19
582.711	7.33
583.05	7.39
583.389	7.4
583.728	7.28
584.067	7.2
584.406	7.44
584.745	7.25
585.083	7.48
585.422	7.37
585.761	7.3
586.1	7.51
586.438	7.31
586.777	7.53
587.115	7.55
587.454	7.29
587.792	7.43
588.13	7.57
588.469	7.31
588.807	7.68
589.145	7.59
589.483	7.43
589.821	7.37
590.159	7.61
590.497	7.48
590.835	7.89
591.173	7.72
591.511	7.63
591.849	7.67
592.187	7.43
592.524	7.7
592.862	7.47
593.2	7.69
593.537	7.62
593.875	7.65
594.212	7.86
594.55	7.87
594.887	7.93
595.224	7.84
595.561	7.7
595.899	7.84
596.236	7.87
596.573	7.76
596.91	7.79
597.247	7.97
597.584	7.92
597.921	7.84
598.258	7.84
598.594	7.85
598.931	7.73
599.268	7.83
599.604	7.92
599.941	7.99
600.277	8.1
600.614	8.04
600.95	7.82
601.287	8
601.623	7.81
601.959	8.21
602.296	8.14
602.632	8.1
602.968	8.15
603.304	8.21
603.64	8.07
603.976	8.01
604.312	8.07
604.648	8.03
604.984	8.07
605.319	8.15
605.655	8.16
605.991	8.26
606.326	8.15
606.662	8.15
606.998	8.26
607.333	7.98
607.668	8.08
608.004	8.3
608.339	8.06
608.674	8.41
609.01	8.65
609.345	8.5
609.68	8.4
610.015	8.65
610.35	8.62
610.685	8.28
611.02	8.31
611.355	8.46
611.689	8.3
612.024	8.52
612.359	8.64
612.694	8.5
613.028	8.6
613.363	8.55
613.697	8.81
614.032	8.5
614.366	8.61
614.7	8.67
615.035	8.48
615.369	8.72
615.703	8.71
616.037	8.99
616.371	8.63
616.705	9.08
617.039	8.82
617.373	9.11
617.707	9
618.041	8.85
618.375	8.56
618.709	8.91
619.042	8.73
619.376	8.98
619.71	9.05
620.043	9.08
620.377	8.96
620.71	8.64
621.043	9.29
621.377	9.2
621.71	9.25
622.043	8.95
622.376	9.56
622.709	9.41
623.043	9.1
623.376	9.22
623.709	9.35
624.041	9.21
624.374	9.37
624.707	9.33
625.04	9.24
625.373	9.29
625.705	9.28
626.038	9.35
626.37	9.11
626.703	9.3
627.035	9.4
627.368	9.49
627.7	9.09
628.032	9.22
628.365	9.58
628.697	9.53
629.029	9.47
629.361	9.21
629.693	9.32
630.025	9.52
630.357	9.71
630.689	9.33
631.021	9.68
631.353	9.66
631.684	9.51
632.016	9.36
632.348	9.54
632.679	9.65
633.011	9.82
633.342	9.7
633.674	9.64
634.005	9.69
634.336	9.99
634.668	9.77
634.999	9.65
635.33	9.79
635.661	9.59
635.992	9.84
636.323	9.93
636.654	9.64
636.985	9.56
637.316	9.79
637.647	9.89
637.977	9.68
638.308	9.79
638.639	9.91
638.969	9.89
639.3	9.85
639.63	9.98
639.961	10.16
640.291	10.22
640.622	10.48
640.952	10.57
641.282	10.11
641.612	10.05
641.943	10.04
642.273	10.12
642.603	9.95
642.933	10.53
643.263	10.43
643.592	10.36
643.922	10.66
644.252	9.88
644.582	10.6
644.911	10.17
645.241	10.41
645.571	10.39
645.9	10.92
646.23	10.59
646.559	10.52
646.888	10.87
647.218	10.11
647.547	10.5
647.876	10.47
648.205	9.94
648.534	10.63
648.863	10.61
649.192	10.37
649.521	10.83
649.85	10.55
650.179	10.31
650.508	10.68
650.837	11.06
651.165	10.61
651.494	10.5
651.822	10.89
652.151	10.77
652.479	10.81
652.808	10.89
653.136	10.67
653.465	10.96
653.793	10.58
654.121	10.79
654.449	10.72
654.777	10.4
655.105	10.85
655.433	11.19
655.761	11.04
656.089	11.22
656.417	11.37
656.745	11.24
657.073	10.77
657.4	11.03
657.728	10.61
658.056	10.82
658.383	10.92
658.711	11.03
659.038	11.58
659.365	11.52
659.693	10.87
660.02	11.17
660.347	10.86
660.674	11.01
661.001	11.19
661.329	10.97
661.656	11.27
661.982	11.14
662.309	11.15
662.636	11.28
662.963	11.3
663.29	11.33
663.616	11.51
663.943	11.58
664.27	11.35
664.596	11.45
664.923	11.44
665.249	11.48
665.576	11.22
665.902	11.71
666.228	11.99
666.554	11.81
666.881	10.9
667.207	11.81
667.533	11.41
667.859	11.76
668.185	11.9
668.511	12.09
668.837	11.86
669.162	11.76
669.488	11.36
669.814	12.09
670.139	11.69
670.465	11.8
670.791	11.22
671.116	12.02
671.442	11.4
671.767	11.48
672.092	11.54
672.418	11.68
672.743	11.8
673.068	11.2
673.393	11.49
673.718	11.66
674.043	11.78
674.368	12.03
674.693	12.03
675.018	12.06
675.343	12.23
675.667	12.19
675.992	12.48
676.317	11.34
676.641	12.27
676.966	12.47
677.29	12.24
677.615	12.03
677.939	12.55
678.264	11.89
678.588	12.53
678.912	12.18
679.236	11.88
679.56	12.28
679.885	12.26
680.209	13.03
680.532	12.59
680.856	12.85
681.18	13
681.504	12.02
681.828	12.35
682.152	12.43
682.475	12.4
682.799	12.28
683.122	12.36
683.446	11.71
683.769	13.47
684.093	13.17
684.416	13.01
684.739	11.98
685.062	13.07
685.386	12.89
685.709	12.64
686.032	12.71
686.355	12.79
686.678	13.26
687.001	12.7
687.324	12.95
687.646	12.89
687.969	12.65
688.292	12.78
688.614	12.9
688.937	12.74
689.26	12.69
689.582	13.38
