Data from 21-7_chest_Reflection__0__120.txt Node

Date: Thu Dec 15 17:26:48 CST 2022
User: ToomeyLab
Spectrometer: FLMS14357
Trigger mode: 0
Integration Time (sec): 1.000000E-2
Scans to average: 100
Electric dark correction enabled: true
Nonlinearity correction enabled: false
Boxcar width: 0
XAxis mode: Wavelengths
Number of Pixels in Spectrum: 2048
>>>>>Begin Spectral Data<<<<<
189.047	-16.08
189.435	-16.08
189.823	-16.08
190.211	-28.32
190.599	85.96
190.987	-39.77
191.375	-27.1
191.763	29.57
192.151	-31.36
192.538	44.92
192.926	389.28
193.314	31.24
193.702	-2.2
194.089	-87.15
194.477	164.34
194.864	129.89
195.252	-100.86
195.639	122.83
196.027	-47.82
196.414	418.6
196.801	-114.75
197.189	106.01
197.576	-383.62
197.963	301.5
198.351	16.02
198.738	-18.5
199.125	-32.31
199.512	59.15
199.899	-136.3
200.286	-14.19
200.673	44.89
201.06	-20.5
201.447	24.86
201.833	11.5
202.22	10.79
202.607	-34.13
202.994	10.39
203.38	1.81
203.767	-6.49
204.154	49.52
204.54	81.51
204.927	28.13
205.313	30.8
205.699	55.11
206.086	35.39
206.472	6.12
206.858	-15.65
207.245	34.22
207.631	37.42
208.017	46.98
208.403	2.99
208.789	5.83
209.175	-8.18
209.561	-104.42
209.947	-23.65
210.333	10.63
210.719	29.31
211.105	31.16
211.491	5.85
211.876	-45.48
212.262	-4.46
212.648	-7.66
213.034	-9.56
213.419	14.58
213.805	-2.19
214.19	-54.47
214.576	-14.31
214.961	30.64
215.346	-2.45
215.732	-2.88
216.117	38.95
216.502	-16.7
216.888	25.35
217.273	18.18
217.658	-3.86
218.043	-13.44
218.428	-26.2
218.813	35.67
219.198	-44.83
219.583	-0.94
219.968	5.05
220.353	-30.95
220.738	-0.71
221.122	-6.92
221.507	-10.42
221.892	0.55
222.276	-23.72
222.661	-18.24
223.046	-4.13
223.43	18.71
223.815	6.5
224.199	0.38
224.583	7.89
224.968	1.5
225.352	6.9
225.736	5.29
226.121	7.65
226.505	1.31
226.889	1.47
227.273	-0.33
227.657	6.06
228.041	6.88
228.425	1.97
228.809	1.23
229.193	5.1
229.577	4.74
229.961	5.41
230.344	5.16
230.728	6.28
231.112	5.51
231.495	2.75
231.879	5.84
232.263	5.01
232.646	4.49
233.03	5.97
233.413	3.85
233.797	2.58
234.18	5.88
234.563	4.99
234.946	4.34
235.33	4.49
235.713	5.58
236.096	5.64
236.479	3.4
236.862	3.93
237.245	2.6
237.628	4.32
238.011	5.16
238.394	4.75
238.777	4.27
239.16	6.07
239.543	3.86
239.925	4.18
240.308	3.87
240.691	3.94
241.073	5.71
241.456	4.44
241.838	4.65
242.221	4.72
242.603	5.43
242.986	5.29
243.368	5.44
243.75	4.78
244.133	5.45
244.515	5.34
244.897	4.59
245.279	4.25
245.661	5.65
246.043	4.54
246.425	4.95
246.807	5.18
247.189	5.16
247.571	4.65
247.953	4.99
248.335	4.87
248.717	5.18
249.098	5.04
249.48	4.78
249.862	5
250.243	5.16
250.625	4.81
251.006	5.73
251.388	4.18
251.769	4.49
252.151	5.66
252.532	4.98
252.913	5.51
253.295	4.43
253.676	4.99
254.057	4.5
254.438	4.7
254.819	4.31
255.2	4.24
255.581	4.91
255.962	5.45
256.343	3.93
256.724	4.84
257.105	4.51
257.486	3.42
257.867	4.91
258.247	5.25
258.628	4.74
259.009	4.81
259.389	3.53
259.77	4.84
260.15	5.3
260.531	4.79
260.911	4.82
261.292	4.78
261.672	4.61
262.052	4.78
262.432	4.56
262.813	4.74
263.193	4.71
263.573	5.15
263.953	4.28
264.333	4.63
264.713	5.25
265.093	4.96
265.473	4.56
265.853	4.19
266.233	3.97
266.612	3.49
266.992	3.75
267.372	4.56
267.752	4.99
268.131	4.18
268.511	4.59
268.89	4.94
269.27	4.12
269.649	4.2
270.029	4.45
270.408	4.15
270.787	3.67
271.167	4.91
271.546	4.73
271.925	4.65
272.304	4.45
272.683	4.45
273.062	4.18
273.441	3.62
273.82	4.5
274.199	4.41
274.578	4.3
274.957	4.45
275.336	4.75
275.715	4.71
276.093	4.02
276.472	4.38
276.851	4.42
277.229	4.17
277.608	3.89
277.986	4.77
278.365	4.87
278.743	4.16
279.122	4.2
279.5	4.54
279.878	4.94
280.257	4.22
280.635	4.9
281.013	4.08
281.391	4.31
281.769	4.72
282.147	4.24
282.525	4.48
282.903	4.26
283.281	4.57
283.659	4.73
284.037	4.24
284.415	4.27
284.792	4.36
285.17	4.5
285.548	4
285.925	4.22
286.303	4.54
286.68	4.24
287.058	4.31
287.435	3.93
287.813	4.4
288.19	4
288.567	4.49
288.945	4.07
289.322	4.24
289.699	4.72
290.076	4
290.453	4.24
290.83	4.34
291.207	4.26
291.584	4.4
291.961	4.57
292.338	3.9
292.715	4.41
293.092	4.96
293.469	4.6
293.845	4.23
294.222	4.8
294.599	4.09
294.975	4.1
295.352	4.76
295.728	4.43
296.105	4.4
296.481	4.51
296.858	4.71
297.234	4.53
297.61	4.32
297.986	4.99
298.363	4.65
298.739	4.69
299.115	4.62
299.491	5.36
299.867	4.49
300.243	4.62
300.619	4.56
300.995	4.93
301.371	5.04
301.746	5.02
302.122	4.65
302.498	4.64
302.874	5.36
303.249	4.62
303.625	4.77
304	5.02
304.376	4.71
304.751	4.65
305.127	4.8
305.502	5.03
305.878	5.08
306.253	4.81
306.628	5.27
307.003	4.88
307.378	4.56
307.754	4.93
308.129	4.79
308.504	5.17
308.879	4.82
309.254	5.52
309.629	5.28
310.003	4.57
310.378	5.35
310.753	5.44
311.128	4.92
311.502	5.31
311.877	5.35
312.252	5.16
312.626	5.53
313.001	5.11
313.375	5.45
313.75	5.35
314.124	5.39
314.498	5.87
314.873	5.3
315.247	5.15
315.621	5.21
315.995	5.04
316.369	5.27
316.743	4.9
317.117	5.25
317.491	5.42
317.865	5.06
318.239	5.81
318.613	5.47
318.987	5.07
319.361	5.67
319.734	5.22
320.108	5.79
320.482	5.82
320.855	5.42
321.229	5.57
321.602	5.53
321.976	4.76
322.349	5.95
322.723	5.19
323.096	5.26
323.469	5.31
323.843	5.03
324.216	5.48
324.589	5.7
324.962	5.44
325.335	5.63
325.708	5.66
326.081	5.53
326.454	5.61
326.827	5.11
327.2	5.17
327.573	6.03
327.945	5.14
328.318	5.19
328.691	5.57
329.063	4.92
329.436	5.24
329.809	5.71
330.181	5.92
330.553	5.79
330.926	6.54
331.298	5.13
331.671	5.47
332.043	5.23
332.415	5.17
332.787	5.53
333.159	5.16
333.532	5.5
333.904	6.13
334.276	5.63
334.648	5.33
335.02	5.23
335.391	5.48
335.763	5.73
336.135	5.87
336.507	5.48
336.879	5.51
337.25	5.54
337.622	5.99
337.993	5.52
338.365	5.79
338.736	5.84
339.108	5.72
339.479	5.26
339.851	5.99
340.222	5.77
340.593	5.11
340.964	5.38
341.336	5.38
341.707	5.58
342.078	5.44
342.449	5.25
342.82	5.5
343.191	5.45
343.562	5.85
343.933	5.32
344.303	5.66
344.674	5.45
345.045	5.61
345.416	5.59
345.786	5.69
346.157	5.56
346.527	5.31
346.898	5.48
347.268	5.91
347.639	5.47
348.009	5.4
348.38	5.54
348.75	5.59
349.12	5.4
349.49	5.78
349.861	6.1
350.231	5.3
350.601	5.81
350.971	5.35
351.341	5.3
351.711	5.42
352.081	5.3
352.45	5.22
352.82	5.1
353.19	5.48
353.56	5.51
353.929	5.51
354.299	5.82
354.669	5.43
355.038	5.64
355.408	5.39
355.777	5.7
356.147	5.73
356.516	5.31
356.885	5.42
357.254	5.26
357.624	5.46
357.993	5.66
358.362	5.76
358.731	5.75
359.1	5.52
359.469	5.72
359.838	5.57
360.207	5.56
360.576	5.78
360.945	6.01
361.314	5.6
361.682	5.16
362.051	5.52
362.42	5.65
362.788	6.03
363.157	5.4
363.525	5.74
363.894	5.32
364.262	5.54
364.631	5.81
364.999	5.58
365.367	5.5
365.735	5.69
366.104	5.41
366.472	5.51
366.84	5.57
367.208	5.97
367.576	5.86
367.944	5.56
368.312	5.62
368.68	5.67
369.048	5.54
369.416	5.53
369.783	5.69
370.151	5.69
370.519	6.22
370.886	5.71
371.254	5.9
371.621	5.91
371.989	6
372.356	5.64
372.724	5.54
373.091	5.7
373.458	5.67
373.826	6.03
374.193	5.77
374.56	5.73
374.927	5.52
375.294	5.76
375.661	5.88
376.028	5.85
376.395	5.75
376.762	5.51
377.129	5.39
377.496	5.87
377.863	5.92
378.229	5.81
378.596	6.02
378.963	5.92
379.329	5.8
379.696	5.55
380.062	5.83
380.429	5.44
380.795	6.07
381.161	5.67
381.528	5.3
381.894	5.71
382.26	5.68
382.626	6.03
382.993	5.84
383.359	5.58
383.725	5.51
384.091	5.81
384.457	5.64
384.823	5.52
385.188	5.81
385.554	6
385.92	5.63
386.286	5.69
386.651	5.64
387.017	5.89
387.383	5.53
387.748	5.95
388.114	5.73
388.479	5.8
388.845	5.57
389.21	5.81
389.575	5.96
389.94	5.73
390.306	5.75
390.671	5.71
391.036	5.53
391.401	5.67
391.766	5.58
392.131	5.93
392.496	5.75
392.861	5.8
393.226	5.58
393.591	5.82
393.956	5.91
394.32	5.8
394.685	5.6
395.05	5.8
395.414	5.68
395.779	5.93
396.143	5.62
396.508	5.53
396.872	5.67
397.236	5.84
397.601	5.66
397.965	5.59
398.329	5.67
398.694	5.49
399.058	5.72
399.422	5.66
399.786	5.78
400.15	5.61
400.514	5.69
400.878	5.53
401.242	5.76
401.605	5.78
401.969	5.63
402.333	5.58
402.697	5.98
403.06	5.47
403.424	5.99
403.787	5.82
404.151	5.62
404.514	5.53
404.878	5.65
405.241	5.64
405.604	5.65
405.968	5.65
406.331	5.73
406.694	5.55
407.057	5.51
407.42	5.54
407.783	5.75
408.146	5.51
408.509	5.74
408.872	5.68
409.235	5.98
409.598	5.6
409.961	5.83
410.323	5.48
410.686	5.47
411.049	5.67
411.411	5.51
411.774	5.49
412.136	5.63
412.499	5.75
412.861	5.38
413.223	5.4
413.586	5.66
413.948	5.67
414.31	5.89
414.672	5.63
415.035	5.78
415.397	5.5
415.759	5.4
416.121	5.87
416.483	5.41
416.845	5.6
417.206	5.55
417.568	5.6
417.93	5.58
418.292	5.55
418.653	5.41
419.015	5.54
419.377	5.52
419.738	5.7
420.1	5.66
420.461	5.55
420.822	5.66
421.184	5.62
421.545	5.62
421.906	5.58
422.267	5.58
422.629	5.52
422.99	5.52
423.351	5.56
423.712	5.68
424.073	5.69
424.434	5.75
424.795	5.66
425.155	5.52
425.516	5.56
425.877	5.68
426.238	5.64
426.598	5.7
426.959	5.73
427.32	5.64
427.68	5.78
428.041	5.87
428.401	5.71
428.761	6.04
429.122	5.95
429.482	5.88
429.842	5.87
430.202	5.96
430.563	6
430.923	5.91
431.283	6.13
431.643	6.19
432.003	6
432.363	6.18
432.722	6.06
433.082	5.92
433.442	6.21
433.802	6.06
434.161	5.97
434.521	5.94
434.881	6.06
435.24	6.01
435.6	5.98
435.959	6.06
436.319	6.02
436.678	6.22
437.037	5.98
437.396	6.04
437.756	6.01
438.115	5.99
438.474	5.96
438.833	6.21
439.192	6.1
439.551	6.03
439.91	6.02
440.269	6.07
440.628	6.04
440.987	6.07
441.345	6.11
441.704	5.99
442.063	6.01
442.421	6.07
442.78	6.1
443.138	6.09
443.497	6.1
443.855	6.29
444.214	6.21
444.572	6.36
444.93	6.01
445.288	6.09
445.647	6.04
446.005	6.2
446.363	6.19
446.721	6.2
447.079	6.08
447.437	6.21
447.795	6.14
448.153	6.09
448.51	6.14
448.868	6.15
449.226	6.2
449.584	6.11
449.941	6.15
450.299	6.13
450.656	6.24
451.014	6.33
451.371	6.32
451.729	6.27
452.086	6.24
452.443	6.36
452.801	6.4
453.158	6.4
453.515	6.3
453.872	6.31
454.229	6.23
454.586	6.08
454.943	6.36
455.3	6.36
455.657	6.32
456.014	6.41
456.371	6.39
456.727	6.49
457.084	6.45
457.441	6.43
457.797	6.3
458.154	6.46
458.51	6.49
458.867	6.36
459.223	6.35
459.58	6.41
459.936	6.39
460.292	6.34
460.648	6.19
461.005	6.27
461.361	6.23
461.717	6.15
462.073	6.26
462.429	6.36
462.785	6.54
463.141	6.44
463.496	6.46
463.852	6.5
464.208	6.47
464.564	6.49
464.919	6.36
465.275	6.61
465.631	6.72
465.986	6.54
466.342	6.39
466.697	6.47
467.052	6.61
467.408	6.49
467.763	6.42
468.118	6.36
468.473	6.51
468.829	6.43
469.184	6.7
469.539	6.35
469.894	6.65
470.249	6.64
470.603	6.75
470.958	6.63
471.313	6.66
471.668	6.58
472.023	6.61
472.377	6.57
472.732	6.83
473.086	6.67
473.441	6.56
473.795	6.79
474.15	6.34
474.504	6.7
474.859	6.39
475.213	6.69
475.567	6.57
475.921	6.66
476.275	6.69
476.63	6.69
476.984	6.62
477.338	6.63
477.692	6.55
478.045	6.54
478.399	6.61
478.753	6.59
479.107	6.64
479.461	6.61
479.814	6.74
480.168	6.62
480.521	6.83
480.875	6.6
481.228	6.71
481.582	6.6
481.935	6.76
482.289	6.65
482.642	6.69
482.995	6.59
483.348	6.58
483.701	6.59
484.055	6.52
484.408	6.52
484.761	6.37
485.114	6.29
485.466	6.2
485.819	6.24
486.172	6.33
486.525	6.44
486.878	6.49
487.23	6.51
487.583	6.56
487.936	6.51
488.288	6.44
488.641	6.4
488.993	6.38
489.345	6.43
489.698	6.39
490.05	6.5
490.402	6.51
490.754	6.54
491.107	6.48
491.459	6.61
491.811	6.64
492.163	6.63
492.515	6.53
492.866	6.48
493.218	6.47
493.57	6.58
493.922	6.56
494.274	6.67
494.625	6.78
494.977	6.77
495.328	6.87
495.68	6.73
496.031	6.73
496.383	6.69
496.734	6.72
497.086	6.91
497.437	6.84
497.788	6.88
498.139	6.72
498.49	6.78
498.842	6.73
499.193	6.79
499.544	6.86
499.894	6.8
500.245	6.92
500.596	7.05
500.947	6.9
501.298	6.81
501.648	6.8
501.999	6.95
502.35	6.89
502.7	7.04
503.051	6.81
503.401	6.95
503.752	6.86
504.102	6.81
504.452	6.86
504.803	6.87
505.153	6.88
505.503	6.94
505.853	7.06
506.203	6.96
506.553	6.95
506.903	6.96
507.253	6.94
507.603	6.93
507.953	7.03
508.303	6.88
508.652	6.81
509.002	6.94
509.352	6.88
509.701	6.84
510.051	7.01
510.4	7.02
510.75	6.89
511.099	6.84
511.449	6.98
511.798	6.93
512.147	6.91
512.496	7.06
512.846	7.14
513.195	6.97
513.544	7.1
513.893	7.03
514.242	7.03
514.591	7
514.939	7.04
515.288	7.06
515.637	7.02
515.986	6.98
516.334	7.1
516.683	7.04
517.032	7.08
517.38	7.01
517.729	7.08
518.077	7.04
518.426	7.12
518.774	7.05
519.122	7.08
519.47	7.03
519.819	6.97
520.167	6.95
520.515	6.96
520.863	6.99
521.211	6.9
521.559	7.04
521.907	7.01
522.255	7.14
522.602	7.19
522.95	7.16
523.298	7.19
523.645	7.18
523.993	7.2
524.341	7.21
524.688	7.12
525.036	7.14
525.383	7.18
525.73	7.07
526.078	7.27
526.425	7.17
526.772	7.11
527.119	7.08
527.466	7.15
527.814	7.18
528.161	7.14
528.508	7.22
528.854	7.13
529.201	7.03
529.548	7
529.895	6.85
530.242	6.88
530.588	6.93
530.935	6.95
531.282	6.98
531.628	7.12
531.975	7.15
532.321	7.21
532.667	7.22
533.014	7.26
533.36	7.28
533.706	7.31
534.052	7.27
534.399	7.18
534.745	7.08
535.091	7.03
535.437	7.17
535.783	7.19
536.129	7.27
536.474	7.29
536.82	7.36
537.166	7.29
537.512	7.31
537.857	7.28
538.203	7.26
538.549	7.25
538.894	7.29
539.239	7.34
539.585	7.5
539.93	7.43
540.276	7.41
540.621	7.47
540.966	7.53
541.311	7.51
541.656	7.41
542.001	7.38
542.346	7.26
542.691	7.21
543.036	7.21
543.381	7.32
543.726	7.38
544.071	7.42
544.415	7.41
544.76	7.42
545.105	7.46
545.449	7.55
545.794	7.52
546.138	7.58
546.483	7.66
546.827	7.51
547.171	7.66
547.516	7.68
547.86	7.67
548.204	7.64
548.548	7.62
548.892	7.69
549.236	7.73
549.58	7.76
549.924	7.79
550.268	7.93
550.612	7.94
550.956	7.91
551.3	8.08
551.643	7.9
551.987	7.93
552.33	7.95
552.674	7.87
553.017	7.95
553.361	8.1
553.704	7.92
554.048	7.93
554.391	7.93
554.734	7.82
555.077	7.93
555.42	7.91
555.764	8.09
556.107	8.15
556.45	8.22
556.793	8.1
557.135	8.22
557.478	7.99
557.821	8.15
558.164	8.13
558.507	8.14
558.849	8.34
559.192	8.19
559.534	8.05
559.877	8.21
560.219	8.12
560.562	8.11
560.904	8.32
561.246	8.18
561.589	8.5
561.931	8.3
562.273	8.24
562.615	8.35
562.957	8.13
563.299	8.38
563.641	8.41
563.983	8.14
564.325	8.45
564.667	8.46
565.008	8.1
565.35	8.13
565.692	8.33
566.033	8.43
566.375	8.37
566.716	8.38
567.058	8.35
567.399	8.38
567.741	8.29
568.082	8.32
568.423	8.31
568.764	8.55
569.105	8.44
569.447	8.52
569.788	8.51
570.129	8.43
570.47	8.53
570.811	8.29
571.151	8.43
571.492	8.5
571.833	8.61
572.174	8.73
572.514	8.65
572.855	8.7
573.195	8.49
573.536	8.55
573.876	8.57
574.217	8.51
574.557	8.54
574.898	8.71
575.238	8.7
575.578	8.81
575.918	8.74
576.258	8.83
576.598	8.71
576.938	8.71
577.278	8.89
577.618	8.82
577.958	8.86
578.298	8.89
578.638	8.83
578.977	9.1
579.317	9.12
579.657	9.04
579.996	8.85
580.336	9.03
580.675	8.89
581.014	9.07
581.354	8.84
581.693	8.85
582.032	9.17
582.372	9.18
582.711	9.2
583.05	9.14
583.389	9.26
583.728	9.41
584.067	8.98
584.406	9.22
584.745	9.17
585.083	9.11
585.422	9.37
585.761	9.37
586.1	9.37
586.438	9.18
586.777	9.33
587.115	9.53
587.454	9.44
587.792	9.36
588.13	9.3
588.469	9.32
588.807	9.51
589.145	9.39
589.483	9.33
589.821	9.37
590.159	9.57
590.497	9.48
590.835	9.56
591.173	9.67
591.511	9.55
591.849	9.64
592.187	9.44
592.524	9.7
592.862	9.5
593.2	9.74
593.537	9.67
593.875	9.66
594.212	9.87
594.55	9.79
594.887	9.67
595.224	10.01
595.561	9.62
595.899	9.81
596.236	9.89
596.573	9.64
596.91	10.01
597.247	10
597.584	10.04
597.921	9.93
598.258	10.07
598.594	9.71
598.931	9.75
599.268	9.73
599.604	9.92
599.941	9.97
600.277	9.84
600.614	9.92
600.95	10
601.287	10.03
601.623	9.76
601.959	10.39
602.296	10.09
602.632	10.01
602.968	10.12
603.304	10.14
603.64	10.18
603.976	9.8
604.312	10.04
604.648	10.18
604.984	10.41
605.319	10.26
605.655	10.12
605.991	10.15
606.326	10.21
606.662	10.11
606.998	10.45
607.333	10.37
607.668	10.38
608.004	10.52
608.339	10.05
608.674	10.45
609.01	10.54
609.345	10.41
609.68	10.42
610.015	10.35
610.35	10.56
610.685	10.2
611.02	10.52
611.355	10.61
611.689	10.53
612.024	10.63
612.359	10.71
612.694	10.87
613.028	10.8
613.363	10.64
613.697	10.56
614.032	10.71
614.366	10.72
614.7	10.98
615.035	10.68
615.369	11
615.703	11.11
616.037	10.84
616.371	10.89
616.705	10.96
617.039	10.85
617.373	11.01
617.707	10.84
618.041	10.85
618.375	10.22
618.709	11.37
619.042	10.92
619.376	10.8
619.71	11.05
620.043	11.42
620.377	11.41
620.71	10.71
621.043	11.26
621.377	11.1
621.71	11.8
622.043	11.21
622.376	11.63
622.709	11.75
623.043	11.35
623.376	11.31
623.709	11.67
624.041	11.48
624.374	11.19
624.707	11.5
625.04	11.02
625.373	11.64
625.705	11.78
626.038	11.64
626.37	11.35
626.703	11.72
627.035	11.49
627.368	11.72
627.7	11.9
628.032	11.55
628.365	11.86
628.697	12.03
629.029	11.88
629.361	11.98
629.693	11.88
630.025	11.76
630.357	11.78
630.689	11.53
631.021	11.89
631.353	12.1
631.684	11.86
632.016	11.65
632.348	11.95
632.679	11.94
633.011	12.17
633.342	11.99
633.674	11.92
634.005	12.29
634.336	12.08
634.668	12.35
634.999	12.23
635.33	12
635.661	12.11
635.992	12.32
636.323	12.51
636.654	12.22
636.985	11.99
637.316	12.09
637.647	12.2
637.977	12.51
638.308	12.62
638.639	12.19
638.969	12.35
639.3	12.35
639.63	12.46
639.961	12.37
640.291	12.29
640.622	12.82
640.952	12.88
641.282	12.31
641.612	12.46
641.943	12.56
642.273	12.62
642.603	12.7
642.933	12.95
643.263	12.81
643.592	13.04
643.922	13.14
644.252	12.53
644.582	12.75
644.911	12.47
645.241	12.45
645.571	12.86
645.9	13.32
646.23	13.24
646.559	12.81
646.888	13.44
647.218	12.93
647.547	12.88
647.876	13.16
648.205	13.12
648.534	13.04
648.863	13.16
649.192	13.15
649.521	12.99
649.85	13.46
650.179	13.64
650.508	12.99
650.837	13.56
651.165	13.4
651.494	13.28
651.822	13.56
652.151	13.19
652.479	13.43
652.808	13.63
653.136	13.17
653.465	13.34
653.793	13.55
654.121	13.63
654.449	13.62
654.777	13.42
655.105	13.53
655.433	14.02
655.761	13.43
656.089	13.64
656.417	13.94
656.745	13.79
657.073	14.02
657.4	13.43
657.728	13.65
658.056	13.8
658.383	13.67
658.711	13.87
659.038	13.63
659.365	14.38
659.693	14.09
660.02	14.07
660.347	14.42
660.674	13.69
661.001	14.03
661.329	13.64
661.656	13.66
661.982	13.99
662.309	14.18
662.636	13.99
662.963	14.36
663.29	14.38
663.616	13.93
663.943	14.23
664.27	14.53
664.596	14.44
664.923	14.7
665.249	14.79
665.576	14.12
665.902	14.13
666.228	14.9
666.554	14.75
666.881	14.25
667.207	14.85
667.533	14.68
667.859	14.96
668.185	14.62
668.511	14.73
668.837	14.94
669.162	14.6
669.488	14.4
669.814	15.14
670.139	14.32
670.465	14.74
670.791	14.24
671.116	14.46
671.442	14.3
671.767	15.09
672.092	14.66
672.418	14.87
672.743	15.02
673.068	14.86
673.393	15.3
673.718	14.77
674.043	15.17
674.368	15.3
674.693	14.97
675.018	15.5
675.343	15.5
675.667	15.24
675.992	14.78
676.317	14.27
676.641	15.59
676.966	15.96
677.29	15.53
677.615	14.85
677.939	15.77
678.264	15.35
678.588	15.67
678.912	15.42
679.236	15.83
679.56	15.41
679.885	15.04
680.209	15.57
680.532	15.58
680.856	16.5
681.18	16.4
681.504	16.11
681.828	15.97
682.152	15.75
682.475	15.88
682.799	15.37
683.122	15.36
683.446	15.67
683.769	16.65
684.093	15.68
684.416	15.5
684.739	15.69
685.062	16.07
685.386	16.63
685.709	15.91
686.032	15.55
686.355	16.59
686.678	16.66
