Data from 21-7_forehead_Reflection__4__134.txt Node

Date: Thu Dec 15 17:31:06 CST 2022
User: ToomeyLab
Spectrometer: FLMS14357
Trigger mode: 0
Integration Time (sec): 1.000000E-2
Scans to average: 100
Electric dark correction enabled: true
Nonlinearity correction enabled: false
Boxcar width: 0
XAxis mode: Wavelengths
Number of Pixels in Spectrum: 2048
>>>>>Begin Spectral Data<<<<<
189.047	-273.04
189.435	-273.04
189.823	-273.04
190.211	2.13
190.599	128.76
190.987	-35.41
191.375	-11.74
191.763	31.82
192.151	499.36
192.538	-207.72
192.926	150.03
193.314	147.71
193.702	3
194.089	155.12
194.477	7.74
194.864	946.45
195.252	-31.47
195.639	187.68
196.027	-192.02
196.414	-103.22
196.801	27.6
197.189	66.67
197.576	-631.74
197.963	73.69
198.351	-4.75
198.738	-43.08
199.125	-135.97
199.512	32.17
199.899	-62.44
200.286	-34.22
200.673	48.51
201.06	-6.75
201.447	61.08
201.833	24.02
202.22	4.91
202.607	60.34
202.994	10.35
203.38	13.4
203.767	34.64
204.154	16.14
204.54	-9.57
204.927	25.52
205.313	47.07
205.699	17.01
206.086	33.84
206.472	17.88
206.858	16.38
207.245	37.67
207.631	20.37
208.017	20.08
208.403	-146.07
208.789	-14.8
209.175	-50.87
209.561	-120.99
209.947	-11.72
210.333	20.26
210.719	43.61
211.105	17.33
211.491	33.38
211.876	5.38
212.262	28.64
212.648	8.04
213.034	2.19
213.419	9.73
213.805	-2.72
214.19	-14.99
214.576	15.85
214.961	8.38
215.346	-24.34
215.732	-1.17
216.117	8.43
216.502	-12.85
216.888	16.45
217.273	11.44
217.658	-6.47
218.043	16.1
218.428	-19.24
218.813	6.39
219.198	-48.85
219.583	4.07
219.968	-5.19
220.353	-20.62
220.738	-1.45
221.122	-10.65
221.507	-3.76
221.892	-17.47
222.276	-14.09
222.661	8.64
223.046	-8.91
223.43	28.55
223.815	1.97
224.199	-8.02
224.583	4.62
224.968	2.84
225.352	-8.18
225.736	5.97
226.121	1.96
226.505	1.73
226.889	7.6
227.273	-2.46
227.657	0.93
228.041	0.28
228.425	-2.24
228.809	5.09
229.193	4.76
229.577	1.4
229.961	1.76
230.344	2.51
230.728	2.49
231.112	3.2
231.495	0.32
231.879	1.06
232.263	3.37
232.646	2.81
233.03	4.18
233.413	2.47
233.797	1.66
234.18	4.86
234.563	1.34
234.946	1.59
235.33	1.78
235.713	2.44
236.096	3.47
236.479	4.23
236.862	1.01
237.245	3.22
237.628	2.12
238.011	3.25
238.394	1.97
238.777	0.78
239.16	5.01
239.543	2.92
239.925	1.93
240.308	1.71
240.691	3.4
241.073	2.01
241.456	3.52
241.838	2.83
242.221	2.74
242.603	3.37
242.986	2.79
243.368	2.92
243.75	3.01
244.133	3.14
244.515	2.99
244.897	2.36
245.279	2.95
245.661	3.52
246.043	3.57
246.425	3.31
246.807	3.39
247.189	2.56
247.571	2.63
247.953	3.06
248.335	3.03
248.717	3.07
249.098	2.98
249.48	2.88
249.862	3.03
250.243	2.86
250.625	3.56
251.006	3.52
251.388	2.65
251.769	2.21
252.151	3.13
252.532	2.13
252.913	2.66
253.295	2.7
253.676	3.58
254.057	3.04
254.438	3.18
254.819	2.83
255.2	3.96
255.581	3.68
255.962	4.75
256.343	4.05
256.724	4.21
257.105	1.6
257.486	2.62
257.867	3.35
258.247	3.14
258.628	2.78
259.009	2.47
259.389	2.16
259.77	2.6
260.15	3.59
260.531	2.99
260.911	2.93
261.292	3.01
261.672	2.87
262.052	3.08
262.432	2.75
262.813	2.85
263.193	3.4
263.573	2.23
263.953	2.36
264.333	2.86
264.713	3.64
265.093	3.1
265.473	2.47
265.853	3.6
266.233	2.34
266.612	2.48
266.992	2.68
267.372	3.15
267.752	3.1
268.131	3.08
268.511	3.09
268.89	3.7
269.27	2.36
269.649	2.4
270.029	3.06
270.408	2.74
270.787	3.05
271.167	3.02
271.546	3.88
271.925	2.67
272.304	2.76
272.683	2.92
273.062	2.46
273.441	2.65
273.82	3.22
274.199	2.79
274.578	2.87
274.957	2.87
275.336	3.02
275.715	3.05
276.093	2.61
276.472	2.44
276.851	2.98
277.229	3.12
277.608	2.15
277.986	2.9
278.365	3.62
278.743	3.19
279.122	2.95
279.5	2.65
279.878	2.27
280.257	3.81
280.635	2.85
281.013	2.61
281.391	2.92
281.769	2.92
282.147	2.79
282.525	2.84
282.903	2.64
283.281	3.37
283.659	3.01
284.037	2.81
284.415	2.21
284.792	2.78
285.17	2.66
285.548	2.96
285.925	2.81
286.303	3.16
286.68	3.18
287.058	3.12
287.435	2.92
287.813	2.67
288.19	2.41
288.567	2.91
288.945	2.5
289.322	3.2
289.699	2.93
290.076	2.94
290.453	2.83
290.83	3.41
291.207	3.01
291.584	2.94
291.961	3.18
292.338	3.18
292.715	3.21
293.092	3.27
293.469	3.1
293.845	3.24
294.222	3.99
294.599	3.17
294.975	3.67
295.352	3.46
295.728	3.47
296.105	3.35
296.481	3.68
296.858	3.63
297.234	3.04
297.61	3.78
297.986	3.82
298.363	3.44
298.739	4.07
299.115	3.79
299.491	4.2
299.867	3.81
300.243	3.53
300.619	3.76
300.995	3.94
301.371	4.21
301.746	4.56
302.122	3.81
302.498	3.97
302.874	4.5
303.249	4.16
303.625	4.09
304	4.56
304.376	4.84
304.751	4.86
305.127	4.21
305.502	4.72
305.878	4.6
306.253	4.42
306.628	4.46
307.003	4.72
307.378	4.63
307.754	4.44
308.129	4.73
308.504	4.73
308.879	4.94
309.254	5.22
309.629	5.12
310.003	4.83
310.378	5.15
310.753	4.96
311.128	5.12
311.502	4.98
311.877	5.28
312.252	5.55
312.626	5.79
313.001	5.38
313.375	5.5
313.75	5.67
314.124	5.69
314.498	5.71
314.873	5.21
315.247	5.62
315.621	5.75
315.995	5.78
316.369	5.26
316.743	5.81
317.117	5.83
317.491	6.28
317.865	6.14
318.239	6.85
318.613	6.21
318.987	6.11
319.361	6.5
319.734	6.1
320.108	6.69
320.482	6.52
320.855	6.52
321.229	6.12
321.602	6.42
321.976	6.11
322.349	6.37
322.723	6.86
323.096	6.24
323.469	6.72
323.843	6.45
324.216	6.74
324.589	6.72
324.962	6.37
325.335	6.54
325.708	6.86
326.081	7.03
326.454	7.34
326.827	6.95
327.2	6.77
327.573	7.71
327.945	6.68
328.318	6.88
328.691	7.12
329.063	6.93
329.436	7.27
329.809	7.38
330.181	8.36
330.553	7.76
330.926	7.44
331.298	7.28
331.671	7.78
332.043	7.32
332.415	7.86
332.787	7.79
333.159	7.31
333.532	7.58
333.904	7.11
334.276	7.39
334.648	7.47
335.02	7.65
335.391	7.66
335.763	7.75
336.135	7.85
336.507	7.12
336.879	7.96
337.25	7.55
337.622	7.71
337.993	7.74
338.365	7.58
338.736	8.46
339.108	8.11
339.479	7.81
339.851	8.15
340.222	8.19
340.593	7.83
340.964	8.13
341.336	8.17
341.707	8.29
342.078	8.02
342.449	8.04
342.82	7.99
343.191	8.23
343.562	8.43
343.933	8.48
344.303	8.91
344.674	8.42
345.045	8.42
345.416	8.89
345.786	8.35
346.157	8.79
346.527	8.42
346.898	7.59
347.268	8.31
347.639	8.45
348.009	8.48
348.38	8.52
348.75	9.01
349.12	9.06
349.49	8.71
349.861	8.57
350.231	8.75
350.601	8.71
350.971	8.6
351.341	8.71
351.711	9.11
352.081	8.79
352.45	8.82
352.82	8.44
353.19	9.03
353.56	9.05
353.929	9.28
354.299	9.26
354.669	8.97
355.038	9.45
355.408	9.15
355.777	9.01
356.147	9.28
356.516	9.21
356.885	9.19
357.254	9.03
357.624	8.75
357.993	9.23
358.362	9.23
358.731	9.52
359.1	9.38
359.469	9.22
359.838	9.41
360.207	9.31
360.576	9.24
360.945	9.68
361.314	9.32
361.682	9.35
362.051	9.62
362.42	9.6
362.788	9.49
363.157	9.46
363.525	9.55
363.894	9.45
364.262	9.57
364.631	9.94
364.999	9.82
365.367	9.8
365.735	9.74
366.104	9.55
366.472	9.67
366.84	9.97
367.208	10.03
367.576	9.78
367.944	9.71
368.312	9.97
368.68	10.39
369.048	9.95
369.416	9.82
369.783	9.73
370.151	10.35
370.519	10.3
370.886	10.29
371.254	10.44
371.621	10.39
371.989	10.46
372.356	10.2
372.724	10.35
373.091	10.13
373.458	10.18
373.826	10.31
374.193	10.5
374.56	10.59
374.927	10.18
375.294	10.87
375.661	10.63
376.028	10.6
376.395	10.33
376.762	10.39
377.129	10.73
377.496	10.66
377.863	10.68
378.229	10.92
378.596	10.82
378.963	10.97
379.329	10.85
379.696	10.62
380.062	10.9
380.429	10.48
380.795	11.01
381.161	10.61
381.528	10.59
381.894	11.09
382.26	11.13
382.626	11.34
382.993	11.35
383.359	11.21
383.725	10.8
384.091	11.29
384.457	11.08
384.823	11.27
385.188	11.13
385.554	11.61
385.92	11.02
386.286	11.1
386.651	11.17
387.017	11.39
387.383	11.11
387.748	11.44
388.114	11.64
388.479	11.21
388.845	11.22
389.21	11.84
389.575	11.54
389.94	11.7
390.306	11.45
390.671	11.65
391.036	11.34
391.401	11.36
391.766	11.61
392.131	11.88
392.496	11.65
392.861	11.64
393.226	11.27
393.591	11.66
393.956	11.52
394.32	11.83
394.685	11.8
395.05	11.82
395.414	11.72
395.779	11.84
396.143	11.66
396.508	11.62
396.872	11.78
397.236	12.16
397.601	12.04
397.965	12
398.329	12.17
398.694	11.93
399.058	12.13
399.422	12.15
399.786	11.9
400.15	11.98
400.514	12.16
400.878	11.99
401.242	12.26
401.605	12.04
401.969	11.99
402.333	12.25
402.697	12.61
403.06	12.27
403.424	12.49
403.787	12.14
404.151	12.26
404.514	12.51
404.878	12.21
405.241	12.39
405.604	12.19
405.968	12.52
406.331	12.45
406.694	12.36
407.057	12.28
407.42	12.46
407.783	12.71
408.146	12.53
408.509	12.81
408.872	12.46
409.235	12.67
409.598	12.71
409.961	12.82
410.323	12.63
410.686	12.65
411.049	12.8
411.411	12.71
411.774	12.79
412.136	12.94
412.499	12.88
412.861	12.69
413.223	12.84
413.586	12.96
413.948	13.32
414.31	12.9
414.672	13.16
415.035	13.13
415.397	13.01
415.759	12.87
416.121	13.31
416.483	12.97
416.845	13.2
417.206	13.33
417.568	13.07
417.93	13.32
418.292	13.12
418.653	13.13
419.015	13.38
419.377	13.24
419.738	13.3
420.1	13.11
420.461	13.19
420.822	13.24
421.184	13.22
421.545	13.32
421.906	13.41
422.267	13.32
422.629	13.34
422.99	13.38
423.351	13.45
423.712	13.58
424.073	13.63
424.434	13.67
424.795	13.74
425.155	13.59
425.516	13.61
425.877	13.7
426.238	13.69
426.598	13.88
426.959	13.92
427.32	14.02
427.68	14.03
428.041	14.13
428.401	14.18
428.761	14.38
429.122	14.35
429.482	14.34
429.842	14.45
430.202	14.57
430.563	14.45
430.923	14.52
431.283	14.69
431.643	14.67
432.003	14.83
432.363	14.78
432.722	14.78
433.082	14.73
433.442	14.9
433.802	14.75
434.161	14.69
434.521	14.84
434.881	14.75
435.24	14.82
435.6	14.97
435.959	14.94
436.319	15.12
436.678	15.14
437.037	15.24
437.396	15.3
437.756	15.32
438.115	15.29
438.474	15.43
438.833	15.32
439.192	15.48
439.551	15.41
439.91	15.58
440.269	15.51
440.628	15.47
440.987	15.46
441.345	15.66
441.704	15.54
442.063	15.57
442.421	15.62
442.78	15.59
443.138	15.69
443.497	15.81
443.855	16.07
444.214	15.9
444.572	16.15
444.93	16.04
445.288	16.05
445.647	16.02
446.005	16.09
446.363	16.06
446.721	15.98
447.079	15.89
447.437	15.94
447.795	16.01
448.153	16.04
448.51	16.07
448.868	16.03
449.226	16.21
449.584	16.3
449.941	16.3
450.299	16.56
450.656	16.59
451.014	16.64
451.371	16.63
451.729	16.66
452.086	16.81
452.443	16.88
452.801	16.87
453.158	16.91
453.515	16.88
453.872	16.81
454.229	16.85
454.586	16.74
454.943	17.11
455.3	17.17
455.657	17.13
456.014	17.35
456.371	17.21
456.727	17.3
457.084	17.31
457.441	17.3
457.797	17.39
458.154	17.45
458.51	17.4
458.867	17.6
459.223	17.45
459.58	17.46
459.936	17.58
460.292	17.44
460.648	17.34
461.005	17.38
461.361	17.3
461.717	17.36
462.073	17.57
462.429	17.65
462.785	17.78
463.141	17.69
463.496	17.95
463.852	17.93
464.208	18.07
464.564	18.05
464.919	17.96
465.275	18.17
465.631	18.29
465.986	18.19
466.342	18.27
466.697	18.09
467.052	18.35
467.408	18.48
467.763	18.37
468.118	18.25
468.473	18.46
468.829	18.28
469.184	18.61
469.539	18.51
469.894	18.59
470.249	18.78
470.603	18.66
470.958	18.79
471.313	18.68
471.668	18.85
472.023	18.93
472.377	18.79
472.732	18.99
473.086	18.98
473.441	18.93
473.795	19.2
474.15	18.93
474.504	18.93
474.859	19.01
475.213	19.27
475.567	19.1
475.921	19.33
476.275	19.44
476.63	19.3
476.984	19.15
477.338	19.29
477.692	19.37
478.045	19.26
478.399	19.2
478.753	19.25
479.107	19.41
479.461	19.45
479.814	19.38
480.168	19.48
480.521	19.58
480.875	19.62
481.228	19.65
481.582	19.51
481.935	19.71
482.289	19.63
482.642	19.64
482.995	19.43
483.348	19.48
483.701	19.47
484.055	19.4
484.408	19.24
484.761	18.98
485.114	18.89
485.466	18.85
485.819	18.84
486.172	19.02
486.525	19.18
486.878	19.36
487.23	19.44
487.583	19.53
487.936	19.47
488.288	19.52
488.641	19.41
488.993	19.24
489.345	19.31
489.698	19.36
490.05	19.45
490.402	19.74
490.754	19.84
491.107	19.95
491.459	20.09
491.811	20.21
492.163	20.1
492.515	19.98
492.866	19.73
493.218	19.74
493.57	19.83
493.922	19.97
494.274	20.26
494.625	20.54
494.977	20.57
495.328	20.66
495.68	20.78
496.031	20.91
496.383	20.93
496.734	21.03
497.086	21.09
497.437	21.09
497.788	21.13
498.139	21.04
498.49	21.02
498.842	20.97
499.193	21.12
499.544	21.06
499.894	21.14
500.245	21.45
500.596	21.35
500.947	21.32
501.298	21.33
501.648	21.52
501.999	21.73
502.35	21.6
502.7	21.64
503.051	21.57
503.401	21.72
503.752	21.82
504.102	21.86
504.452	21.76
504.803	21.79
505.153	21.96
505.503	21.78
505.853	22.11
506.203	21.94
506.553	21.98
506.903	21.98
507.253	21.91
507.603	22.08
507.953	22.05
508.303	22.13
508.652	22.01
509.002	22.31
509.352	22.14
509.701	21.96
510.051	22.16
510.4	22.17
510.75	22.24
511.099	22.1
511.449	22.24
511.798	22.25
512.147	22.18
512.496	22.36
512.846	22.42
513.195	22.33
513.544	22.41
513.893	22.52
514.242	22.47
514.591	22.66
514.939	22.69
515.288	22.77
515.637	22.75
515.986	22.75
516.334	22.96
516.683	22.87
517.032	22.94
517.38	22.96
517.729	22.79
518.077	23.04
518.426	23.04
518.774	22.84
519.122	22.87
519.47	22.78
519.819	22.85
520.167	22.71
520.515	22.77
520.863	22.86
521.211	22.93
521.559	22.88
521.907	23.15
522.255	23.3
522.602	23.44
522.95	23.58
523.298	23.6
523.645	23.63
523.993	23.57
524.341	23.7
524.688	23.62
525.036	23.66
525.383	23.71
525.73	23.43
526.078	23.79
526.425	23.64
526.772	23.57
527.119	23.38
527.466	23.33
527.814	23.33
528.161	23.49
528.508	23.62
528.854	23.56
529.201	23.49
529.548	23.17
529.895	23
530.242	23.04
530.588	23.16
530.935	23.31
531.282	23.43
531.628	23.54
531.975	23.6
532.321	23.95
532.667	24.03
533.014	24.06
533.36	24.1
533.706	24.04
534.052	24.04
534.399	23.93
534.745	23.66
535.091	23.72
535.437	23.86
535.783	24.04
536.129	24.34
536.474	24.59
536.82	24.62
537.166	24.59
537.512	24.65
537.857	24.45
538.203	24.48
538.549	24.36
538.894	24.44
539.239	24.72
539.585	24.84
539.93	25.1
540.276	24.96
540.621	25.17
540.966	25.1
541.311	25.21
541.656	24.98
542.001	25.04
542.346	24.68
542.691	24.44
543.036	24.48
543.381	24.57
543.726	24.61
544.071	24.89
544.415	25.05
544.76	25.06
545.105	25.18
545.449	25.45
545.794	25.43
546.138	25.46
546.483	25.69
546.827	25.68
547.171	25.75
547.516	25.64
547.86	25.77
548.204	25.79
548.548	25.64
548.892	25.77
549.236	25.86
549.58	26.06
549.924	26.14
550.268	26.48
550.612	26.4
550.956	26.41
551.3	26.55
551.643	26.42
551.987	26.63
552.33	26.82
552.674	26.65
553.017	26.78
553.361	26.87
553.704	26.97
554.048	26.54
554.391	26.8
554.734	26.59
555.077	26.81
555.42	26.69
555.764	26.85
556.107	26.83
556.45	27.07
556.793	27.16
557.135	27.2
557.478	27.18
557.821	27.52
558.164	27.46
558.507	27.32
558.849	27.53
559.192	27.47
559.534	27.41
559.877	27.65
560.219	27.54
560.562	27.62
560.904	27.74
561.246	27.67
561.589	27.94
561.931	27.91
562.273	27.61
562.615	27.71
562.957	27.61
563.299	27.97
563.641	27.82
563.983	27.73
564.325	27.8
564.667	28.13
565.008	28.02
565.35	28.02
565.692	28.25
566.033	28.17
566.375	28.13
566.716	28.12
567.058	28.07
567.399	28.12
567.741	27.89
568.082	28.11
568.423	28.21
568.764	28.25
569.105	28.4
569.447	28.34
569.788	28.31
570.129	28.49
570.47	28.63
570.811	28.53
571.151	28.53
571.492	28.61
571.833	28.67
572.174	28.91
572.514	28.74
572.855	28.73
573.195	28.54
573.536	28.71
573.876	28.58
574.217	28.77
574.557	28.68
574.898	28.93
575.238	28.95
575.578	28.99
575.918	29.23
576.258	29.15
576.598	28.95
576.938	29.01
577.278	29
577.618	29.36
577.958	29.23
578.298	29.46
578.638	29.43
578.977	29.56
579.317	29.57
579.657	29.49
579.996	29.61
580.336	29.64
580.675	30
581.014	29.98
581.354	29.78
581.693	30.11
582.032	30.1
582.372	30.23
582.711	30.3
583.05	30.32
583.389	30.31
583.728	30.26
584.067	30.08
584.406	30.42
584.745	30.36
585.083	30.35
585.422	30.23
585.761	30.47
586.1	30.58
586.438	30.48
586.777	30.53
587.115	30.58
587.454	30.36
587.792	30.68
588.13	30.84
588.469	30.85
588.807	30.76
589.145	30.67
589.483	30.67
589.821	30.67
590.159	31.06
590.497	30.78
590.835	31.02
591.173	31.13
591.511	31.34
591.849	30.98
592.187	30.85
592.524	31.05
592.862	30.96
593.2	31.1
593.537	31.25
593.875	31.24
594.212	31.44
594.55	31.35
594.887	31.78
595.224	31.57
595.561	31.42
595.899	31.47
596.236	31.56
596.573	31.44
596.91	31.73
597.247	31.65
597.584	31.85
597.921	31.5
598.258	31.23
598.594	31.36
598.931	31.24
599.268	31.32
599.604	31.62
599.941	31.84
600.277	31.64
600.614	31.83
600.95	32.32
601.287	31.97
601.623	31.94
601.959	32.35
602.296	32.23
602.632	32.28
602.968	32.66
603.304	32.38
603.64	32.19
603.976	32.3
604.312	32.29
604.648	32.4
604.984	32.17
605.319	32.16
605.655	32.18
605.991	32.01
606.326	32.15
606.662	32.16
606.998	32.45
607.333	32.48
607.668	32.53
608.004	32.61
608.339	32.73
608.674	32.92
609.01	32.85
609.345	33.18
609.68	32.71
610.015	32.8
610.35	32.64
610.685	32.75
611.02	32.7
611.355	32.79
611.689	32.95
612.024	32.68
612.359	33.09
612.694	33.46
613.028	33.28
613.363	32.96
613.697	33.34
614.032	33.2
614.366	33.59
614.7	33.18
615.035	33.58
615.369	33.94
615.703	33.82
616.037	33.4
616.371	33.65
616.705	33.99
617.039	33.75
617.373	33.59
617.707	33.7
618.041	34.21
618.375	33.39
618.709	33.86
619.042	33.92
619.376	33.95
619.71	34.06
620.043	34.01
620.377	33.98
620.71	34.09
621.043	34.31
621.377	34.2
621.71	34.52
622.043	34.54
622.376	34.55
622.709	34.89
623.043	34.44
623.376	34.35
623.709	34.31
624.041	34.76
624.374	34.66
624.707	34.73
625.04	34.53
625.373	34.57
625.705	34.78
626.038	34.94
626.37	34.69
626.703	34.74
627.035	34.87
627.368	34.58
627.7	34.87
628.032	34.55
628.365	34.95
628.697	35.04
629.029	34.75
629.361	35.06
629.693	34.73
630.025	35.6
630.357	35.1
630.689	34.8
631.021	35.67
631.353	35.45
631.684	35.25
632.016	35.11
632.348	34.98
632.679	35.55
633.011	35.77
633.342	35.49
633.674	35.25
634.005	35.49
634.336	35.65
634.668	35.85
634.999	35.42
635.33	35.61
635.661	35.29
635.992	35.48
636.323	36.04
636.654	35.84
636.985	36
637.316	35.94
637.647	35.83
637.977	36.07
638.308	36.01
638.639	35.72
638.969	36.08
639.3	36.04
639.63	36.02
639.961	35.9
640.291	36.36
640.622	36.67
640.952	36.46
641.282	36.13
641.612	36.89
641.943	36.26
642.273	36.11
642.603	36.64
642.933	36.78
643.263	36.8
643.592	37.07
643.922	36.82
644.252	36.61
644.582	37.5
644.911	36.53
645.241	36.77
645.571	37.21
645.9	37.4
646.23	37.49
646.559	36.6
646.888	37.3
647.218	37.03
647.547	36.64
647.876	37.31
648.205	37.11
648.534	37.21
648.863	37.4
649.192	37.25
649.521	37.67
649.85	37.13
650.179	37.79
650.508	37.08
650.837	37.03
651.165	37.25
651.494	37.67
651.822	37.88
652.151	37.61
652.479	37.35
652.808	37.9
653.136	37.39
653.465	37.52
653.793	37.72
654.121	37.86
654.449	37.81
654.777	37.89
655.105	37.76
655.433	38.38
655.761	37.8
656.089	38.13
656.417	38.3
656.745	38.08
657.073	37.71
657.4	38.1
657.728	37.77
658.056	37.85
658.383	38.6
658.711	38.3
659.038	38.7
659.365	38.85
659.693	38.43
660.02	38.57
660.347	38.67
660.674	38.11
661.001	38.22
661.329	38.24
661.656	38.46
661.982	38.34
662.309	38.79
662.636	38.78
662.963	38.91
663.29	38.98
663.616	38.8
663.943	38.94
664.27	38.61
664.596	38.84
664.923	38.82
665.249	38.91
665.576	38.76
665.902	38.9
666.228	39.22
666.554	39.41
666.881	39.04
667.207	39.59
667.533	39.21
667.859	39.57
668.185	39.27
668.511	39.12
668.837	39.36
669.162	39.78
669.488	39.61
669.814	39.33
670.139	39.67
670.465	39.48
670.791	39.45
671.116	39.46
