Data from 21-7_forehead_Reflection__3__133.txt Node

Date: Thu Dec 15 17:30:55 CST 2022
User: ToomeyLab
Spectrometer: FLMS14357
Trigger mode: 0
Integration Time (sec): 1.000000E-2
Scans to average: 100
Electric dark correction enabled: true
Nonlinearity correction enabled: false
Boxcar width: 0
XAxis mode: Wavelengths
Number of Pixels in Spectrum: 2048
>>>>>Begin Spectral Data<<<<<
189.047	171.68
189.435	171.68
189.823	171.68
190.211	-169.9
190.599	60.64
190.987	-97.95
191.375	38.71
191.763	52.16
192.151	-259.84
192.538	65.66
192.926	90.36
193.314	141.1
193.702	114.15
194.089	56.4
194.477	29.6
194.864	-25.81
195.252	88.84
195.639	54.07
196.027	-74.02
196.414	456.53
196.801	138.28
197.189	123.46
197.576	-33.67
197.963	154.04
198.351	1.6
198.738	-45.14
199.125	30.82
199.512	51.55
199.899	-15.91
200.286	17.22
200.673	47.41
201.06	23.43
201.447	44.86
201.833	-11.79
202.22	-3.92
202.607	-6.18
202.994	54.22
203.38	14.3
203.767	10.12
204.154	30.43
204.54	-16.16
204.927	-1.64
205.313	62.75
205.699	34.58
206.086	29.52
206.472	36.44
206.858	-4.45
207.245	-3.74
207.631	-6.55
208.017	47.43
208.403	-94.77
208.789	12.72
209.175	-20.54
209.561	-114.96
209.947	0.69
210.333	67.65
210.719	0.12
211.105	28.67
211.491	52.54
211.876	-3.52
212.262	12.52
212.648	8.55
213.034	36.88
213.419	31.02
213.805	-23.74
214.19	-34.39
214.576	-15.47
214.961	4.86
215.346	4.58
215.732	22.49
216.117	29.14
216.502	-5.7
216.888	26.3
217.273	41
217.658	-11.77
218.043	-20.86
218.428	-31.53
218.813	6.91
219.198	-8.57
219.583	3.56
219.968	9.07
220.353	-18.03
220.738	6.06
221.122	-1.09
221.507	-28.82
221.892	-32.08
222.276	-6.97
222.661	-9.92
223.046	-6.47
223.43	18.27
223.815	11.36
224.199	5.51
224.583	-3.35
224.968	1.23
225.352	-7.47
225.736	7.15
226.121	2.47
226.505	-4.7
226.889	3.29
227.273	-1.5
227.657	5.49
228.041	3.82
228.425	-2.53
228.809	-1.24
229.193	1.12
229.577	1.83
229.961	2.29
230.344	2.72
230.728	2.75
231.112	3.21
231.495	0.45
231.879	3.45
232.263	3.6
232.646	2.07
233.03	4.5
233.413	3.45
233.797	0.72
234.18	4.01
234.563	5.03
234.946	3.69
235.33	2.4
235.713	3.6
236.096	3.19
236.479	4.41
236.862	1.28
237.245	1.68
237.628	2.79
238.011	3.02
238.394	1.87
238.777	3.6
239.16	5.2
239.543	5.23
239.925	2.77
240.308	1.14
240.691	2.06
241.073	1.74
241.456	2.71
241.838	2.99
242.221	3.2
242.603	3.74
242.986	3.26
243.368	3.57
243.75	3.07
244.133	2.9
244.515	3.4
244.897	2.95
245.279	2.76
245.661	3.82
246.043	2.42
246.425	3.05
246.807	3.49
247.189	2.7
247.571	2.86
247.953	3.21
248.335	3.38
248.717	3.03
249.098	3.06
249.48	3.53
249.862	3.13
250.243	3.01
250.625	3.79
251.006	4.34
251.388	3.94
251.769	2.46
252.151	4.36
252.532	3.46
252.913	3.4
253.295	2.8
253.676	3.28
254.057	2.99
254.438	3.62
254.819	3.12
255.2	4.12
255.581	4.53
255.962	3.48
256.343	4.77
256.724	4.53
257.105	3.26
257.486	2.43
257.867	3.09
258.247	3.89
258.628	3.5
259.009	3.3
259.389	2.66
259.77	3.31
260.15	4.01
260.531	2.97
260.911	3.25
261.292	3.21
261.672	3.21
262.052	3.34
262.432	3.3
262.813	3.34
263.193	4.06
263.573	3.43
263.953	2.81
264.333	3.01
264.713	3.21
265.093	3.6
265.473	2.61
265.853	3.62
266.233	3.5
266.612	2.92
266.992	3.52
267.372	3.57
267.752	3.73
268.131	2.94
268.511	2.94
268.89	3.91
269.27	2.47
269.649	2.43
270.029	3.25
270.408	2.58
270.787	3.55
271.167	3.39
271.546	3.41
271.925	3.3
272.304	2.7
272.683	2.64
273.062	3.03
273.441	2.58
273.82	2.75
274.199	2.68
274.578	3.15
274.957	3.18
275.336	3.13
275.715	3.18
276.093	2.77
276.472	2.77
276.851	2.96
277.229	2.91
277.608	2.58
277.986	2.82
278.365	3
278.743	3.2
279.122	3.4
279.5	2.84
279.878	2.67
280.257	3.01
280.635	2.83
281.013	2.44
281.391	2.79
281.769	3.13
282.147	2.82
282.525	2.81
282.903	2.86
283.281	3.34
283.659	3.35
284.037	2.99
284.415	2.2
284.792	2.88
285.17	2.94
285.548	2.86
285.925	2.98
286.303	3.45
286.68	3.18
287.058	3.13
287.435	2.71
287.813	2.99
288.19	3.1
288.567	3.2
288.945	2.94
289.322	3.12
289.699	3.16
290.076	3.51
290.453	3.02
290.83	3.48
291.207	3.49
291.584	3.92
291.961	3.65
292.338	3.04
292.715	3.44
293.092	3.92
293.469	3.51
293.845	3.77
294.222	4.25
294.599	3.43
294.975	3.28
295.352	3.57
295.728	3.6
296.105	3.81
296.481	4.2
296.858	4.19
297.234	3.42
297.61	3.97
297.986	4.28
298.363	4.07
298.739	4.24
299.115	3.99
299.491	4.05
299.867	4.28
300.243	4.26
300.619	3.83
300.995	4.44
301.371	4.61
301.746	4.45
302.122	3.81
302.498	4.68
302.874	4.55
303.249	4.65
303.625	4.62
304	4.89
304.376	5.1
304.751	5.32
305.127	5.1
305.502	5.06
305.878	5.32
306.253	4.86
306.628	5.4
307.003	5.39
307.378	5.02
307.754	5.22
308.129	5.06
308.504	5.63
308.879	5.16
309.254	6
309.629	5.56
310.003	5.41
310.378	5.86
310.753	6.09
311.128	5.74
311.502	6
311.877	6.07
312.252	6.42
312.626	6.37
313.001	5.81
313.375	6.13
313.75	6.32
314.124	6.4
314.498	6.72
314.873	6.17
315.247	6.65
315.621	6.15
315.995	6.49
316.369	6.25
316.743	6.71
317.117	6.71
317.491	7.53
317.865	6.49
318.239	7.47
318.613	7.44
318.987	7.05
319.361	7.01
319.734	6.77
320.108	7.24
320.482	7.57
320.855	7.72
321.229	6.99
321.602	7.79
321.976	7.28
322.349	7.66
322.723	7.96
323.096	7.75
323.469	7.57
323.843	7.39
324.216	7.98
324.589	8.11
324.962	7.62
325.335	7.43
325.708	7.58
326.081	8.1
326.454	8.02
326.827	7.91
327.2	7.55
327.573	8.28
327.945	8.12
328.318	7.98
328.691	7.74
329.063	7.46
329.436	8.31
329.809	8.7
330.181	8.57
330.553	9.07
330.926	8.91
331.298	7.81
331.671	8.43
332.043	8.94
332.415	8.64
332.787	8.68
333.159	8.18
333.532	8.83
333.904	9.24
334.276	9.32
334.648	8.78
335.02	8.71
335.391	8.73
335.763	9.22
336.135	9.16
336.507	8.54
336.879	8.99
337.25	8.88
337.622	9.3
337.993	8.96
338.365	9.13
338.736	9.19
339.108	9.15
339.479	9.12
339.851	9.39
340.222	9.42
340.593	9.45
340.964	9.23
341.336	9.24
341.707	9.31
342.078	9.14
342.449	9.44
342.82	9.67
343.191	9.41
343.562	9.74
343.933	9.26
344.303	9.48
344.674	9.83
345.045	9.67
345.416	9.91
345.786	9.54
346.157	9.69
346.527	9.84
346.898	9.31
347.268	9.77
347.639	9.74
348.009	9.77
348.38	9.7
348.75	9.77
349.12	9.87
349.49	10.02
349.861	10.3
350.231	9.92
350.601	10.22
350.971	9.78
351.341	10.18
351.711	10.44
352.081	9.95
352.45	9.52
352.82	9.74
353.19	10.19
353.56	10.08
353.929	10.45
354.299	10.48
354.669	10.5
355.038	10.5
355.408	10.62
355.777	10.34
356.147	10.55
356.516	10.35
356.885	10.44
357.254	10.21
357.624	10.27
357.993	10.64
358.362	10.87
358.731	10.9
359.1	10.68
359.469	10.98
359.838	10.8
360.207	10.78
360.576	10.85
360.945	10.84
361.314	10.82
361.682	10.57
362.051	10.78
362.42	10.77
362.788	10.89
363.157	10.74
363.525	10.79
363.894	10.9
364.262	10.98
364.631	11.24
364.999	11.31
365.367	11.13
365.735	10.89
366.104	10.98
366.472	11.12
366.84	11.18
367.208	11.45
367.576	11.29
367.944	11.44
368.312	11.18
368.68	11.6
369.048	11.49
369.416	11.33
369.783	11.61
370.151	11.61
370.519	12.3
370.886	11.88
371.254	11.82
371.621	11.76
371.989	11.78
372.356	11.74
372.724	11.81
373.091	11.47
373.458	11.7
373.826	11.87
374.193	11.93
374.56	12.15
374.927	12.11
375.294	12.09
375.661	11.83
376.028	11.88
376.395	12.08
376.762	11.84
377.129	12.15
377.496	12.36
377.863	12.16
378.229	12.31
378.596	12.39
378.963	12.29
379.329	12.46
379.696	12.31
380.062	12.44
380.429	12.28
380.795	12.37
381.161	12.09
381.528	12.2
381.894	12.45
382.26	12.38
382.626	12.52
382.993	12.66
383.359	12.58
383.725	12.58
384.091	12.8
384.457	12.3
384.823	12.63
385.188	12.71
385.554	12.85
385.92	12.44
386.286	12.87
386.651	12.76
387.017	12.89
387.383	12.97
387.748	13.2
388.114	13.02
388.479	12.88
388.845	12.84
389.21	13.12
389.575	13.11
389.94	13.4
390.306	12.83
390.671	13.18
391.036	13
391.401	13.31
391.766	13.21
392.131	13.3
392.496	13.14
392.861	13.26
393.226	12.97
393.591	13.1
393.956	13.55
394.32	13.26
394.685	13.54
395.05	13.39
395.414	13.41
395.779	13.4
396.143	13.26
396.508	13.58
396.872	13.63
397.236	13.8
397.601	13.62
397.965	13.45
398.329	13.38
398.694	13.56
399.058	13.84
399.422	13.55
399.786	13.56
400.15	13.73
400.514	13.8
400.878	13.92
401.242	13.7
401.605	13.72
401.969	13.62
402.333	13.89
402.697	14.14
403.06	13.74
403.424	13.98
403.787	13.92
404.151	13.97
404.514	13.88
404.878	13.9
405.241	13.99
405.604	13.83
405.968	13.91
406.331	14.13
406.694	13.91
407.057	14.09
407.42	14.08
407.783	14.05
408.146	14.09
408.509	14.27
408.872	14.03
409.235	14.3
409.598	14.38
409.961	14.36
410.323	14.17
410.686	14.3
411.049	14.35
411.411	14.44
411.774	14.47
412.136	14.55
412.499	14.55
412.861	14.25
413.223	14.51
413.586	14.54
413.948	14.72
414.31	14.63
414.672	14.63
415.035	14.93
415.397	14.86
415.759	14.55
416.121	15.07
416.483	14.76
416.845	14.78
417.206	15.06
417.568	14.8
417.93	14.86
418.292	14.73
418.653	14.75
419.015	14.91
419.377	14.79
419.738	15.04
420.1	14.88
420.461	14.83
420.822	15.03
421.184	14.9
421.545	14.97
421.906	15.05
422.267	15.04
422.629	15.06
422.99	14.97
423.351	15.18
423.712	15.28
424.073	15.31
424.434	15.52
424.795	15.29
425.155	15.24
425.516	15.38
425.877	15.37
426.238	15.57
426.598	15.58
426.959	15.69
427.32	15.6
427.68	15.88
428.041	15.98
428.401	15.91
428.761	16.19
429.122	16.31
429.482	16.26
429.842	16.13
430.202	16.36
430.563	16.34
430.923	16.36
431.283	16.5
431.643	16.49
432.003	16.51
432.363	16.78
432.722	16.55
433.082	16.6
433.442	16.81
433.802	16.63
434.161	16.62
434.521	16.67
434.881	16.81
435.24	16.74
435.6	16.86
435.959	16.84
436.319	17
436.678	16.99
437.037	17.01
437.396	17.18
437.756	17.29
438.115	17.14
438.474	17.22
438.833	17.25
439.192	17.39
439.551	17.29
439.91	17.35
440.269	17.24
440.628	17.4
440.987	17.4
441.345	17.41
441.704	17.4
442.063	17.51
442.421	17.53
442.78	17.54
443.138	17.59
443.497	17.65
443.855	17.83
444.214	17.58
444.572	18.05
444.93	17.78
445.288	17.9
445.647	17.85
446.005	17.95
446.363	17.96
446.721	18.01
447.079	17.81
447.437	17.97
447.795	17.92
448.153	17.9
448.51	17.99
448.868	17.95
449.226	18.14
449.584	18.15
449.941	18.39
450.299	18.29
450.656	18.26
451.014	18.63
451.371	18.74
451.729	18.65
452.086	18.69
452.443	18.83
452.801	18.7
453.158	18.94
453.515	18.87
453.872	18.88
454.229	18.62
454.586	18.79
454.943	19.08
455.3	19.23
455.657	18.98
456.014	18.97
456.371	19.27
456.727	19.31
457.084	19.35
457.441	19.19
457.797	19.19
458.154	19.43
458.51	19.25
458.867	19.54
459.223	19.51
459.58	19.62
459.936	19.29
460.292	19.51
460.648	19.32
461.005	19.31
461.361	19.2
461.717	19.19
462.073	19.38
462.429	19.45
462.785	19.79
463.141	19.73
463.496	19.94
463.852	19.97
464.208	20.1
464.564	19.98
464.919	20.14
465.275	20
465.631	20.49
465.986	20.05
466.342	20.17
466.697	20.25
467.052	20.39
467.408	20.43
467.763	20.29
468.118	20.43
468.473	20.7
468.829	20.38
469.184	20.61
469.539	20.49
469.894	20.54
470.249	20.82
470.603	20.75
470.958	20.81
471.313	20.57
471.668	20.98
472.023	20.87
472.377	20.74
472.732	21.04
473.086	20.9
473.441	21.07
473.795	21.12
474.15	20.84
474.504	21.08
474.859	21.02
475.213	21.2
475.567	21.26
475.921	21.16
476.275	21.23
476.63	21.53
476.984	21.31
477.338	21.24
477.692	21.31
478.045	21.36
478.399	21.45
478.753	21.34
479.107	21.55
479.461	21.39
479.814	21.47
480.168	21.43
480.521	21.58
480.875	21.53
481.228	21.65
481.582	21.6
481.935	21.68
482.289	21.5
482.642	21.64
482.995	21.51
483.348	21.51
483.701	21.49
484.055	21.44
484.408	21.17
484.761	20.95
485.114	20.87
485.466	20.83
485.819	20.91
486.172	21.07
486.525	21.25
486.878	21.34
487.23	21.52
487.583	21.57
487.936	21.67
488.288	21.56
488.641	21.41
488.993	21.32
489.345	21.47
489.698	21.45
490.05	21.5
490.402	21.77
490.754	21.83
491.107	21.95
491.459	22.19
491.811	22.14
492.163	22.14
492.515	22.06
492.866	21.76
493.218	21.7
493.57	21.89
493.922	22.14
494.274	22.33
494.625	22.55
494.977	22.77
495.328	22.89
495.68	22.9
496.031	23.08
496.383	22.94
496.734	22.99
497.086	23.23
497.437	23.07
497.788	23.22
498.139	23.05
498.49	23.11
498.842	23.12
499.193	23.21
499.544	23.18
499.894	23.23
500.245	23.42
500.596	23.52
500.947	23.51
501.298	23.52
501.648	23.39
501.999	23.75
502.35	23.68
502.7	23.83
503.051	23.8
503.401	23.95
503.752	23.85
504.102	23.94
504.452	23.8
504.803	23.8
505.153	24.1
505.503	23.97
505.853	24.01
506.203	23.99
506.553	23.98
506.903	24.23
507.253	24.21
507.603	24.24
507.953	24.11
508.303	24.3
508.652	24.14
509.002	24.17
509.352	24.2
509.701	24.23
510.051	24.3
510.4	24.4
510.75	24.22
511.099	24.13
511.449	24.25
511.798	24.5
512.147	24.47
512.496	24.6
512.846	24.58
513.195	24.58
513.544	24.53
513.893	24.58
514.242	24.51
514.591	24.63
514.939	24.7
515.288	25
515.637	24.83
515.986	25.02
516.334	25.06
516.683	25.06
517.032	25.13
517.38	25.14
517.729	25.24
518.077	25.21
518.426	25.23
518.774	25.16
519.122	25.09
519.47	25.04
519.819	24.94
520.167	24.92
520.515	25.04
520.863	25.06
521.211	25.19
521.559	25.19
521.907	25.34
522.255	25.5
522.602	25.52
522.95	25.66
523.298	25.59
523.645	25.81
523.993	25.85
524.341	25.83
524.688	25.86
525.036	25.85
525.383	25.8
525.73	25.81
526.078	25.98
526.425	25.72
526.772	25.61
527.119	25.65
527.466	25.57
527.814	25.65
528.161	25.72
528.508	25.82
528.854	25.7
529.201	25.61
529.548	25.45
529.895	25.16
530.242	25.25
530.588	25.39
530.935	25.58
531.282	25.59
531.628	25.83
531.975	25.85
532.321	26.02
532.667	26.31
533.014	26.36
533.36	26.31
533.706	26.4
534.052	26.31
534.399	26.18
534.745	25.96
535.091	25.99
535.437	26.16
535.783	26.27
536.129	26.43
536.474	26.62
536.82	26.8
537.166	26.68
537.512	26.83
537.857	26.65
538.203	26.72
538.549	26.65
538.894	26.72
539.239	26.95
539.585	27.1
539.93	27.25
540.276	27.22
540.621	27.49
540.966	27.42
541.311	27.27
541.656	27.32
542.001	27.1
542.346	26.86
542.691	26.62
543.036	26.79
543.381	26.81
543.726	26.91
544.071	27.08
544.415	27.23
544.76	27.24
545.105	27.33
545.449	27.43
545.794	27.6
546.138	27.73
546.483	27.85
546.827	27.82
547.171	27.93
547.516	27.95
547.86	28.03
548.204	28.07
548.548	27.9
548.892	27.96
549.236	28.08
549.58	28.25
549.924	28.27
550.268	28.48
550.612	28.63
550.956	28.59
551.3	28.87
551.643	28.81
551.987	28.96
552.33	29.1
552.674	28.93
553.017	29
553.361	29.11
553.704	29.1
554.048	29.04
554.391	29.03
554.734	28.93
555.077	29.21
555.42	29.02
555.764	29.22
556.107	29.56
556.45	29.32
556.793	29.62
557.135	29.59
557.478	29.39
557.821	29.6
558.164	29.6
558.507	29.46
558.849	29.83
559.192	29.87
559.534	29.8
559.877	29.79
560.219	29.68
560.562	29.74
560.904	30.2
561.246	29.97
561.589	30.04
561.931	29.95
562.273	29.86
562.615	30.02
562.957	30.02
563.299	30.18
563.641	30.19
563.983	29.85
564.325	30.21
564.667	30.21
565.008	30.41
565.35	30.16
565.692	30.37
566.033	30.28
566.375	30.45
566.716	30.55
567.058	30.55
567.399	30.6
567.741	30.34
568.082	30.3
568.423	30.24
568.764	30.45
569.105	30.57
569.447	30.56
569.788	30.71
570.129	30.77
570.47	30.74
570.811	30.78
571.151	31.07
571.492	31
571.833	30.9
572.174	31.09
572.514	31.14
572.855	31.08
573.195	30.99
573.536	31.22
573.876	30.97
574.217	31.08
574.557	31.05
574.898	31.15
575.238	31.19
575.578	31.1
575.918	31.28
576.258	31.3
576.598	31.16
576.938	31.48
577.278	31.45
577.618	31.58
577.958	31.49
578.298	31.56
578.638	31.62
578.977	31.85
579.317	31.7
579.657	31.99
579.996	32.23
580.336	32.1
580.675	31.76
581.014	32.34
581.354	32.04
581.693	32.27
582.032	32.79
582.372	32.35
582.711	32.7
583.05	32.58
583.389	32.62
583.728	32.62
584.067	32.42
584.406	32.7
584.745	32.44
585.083	32.66
585.422	32.91
585.761	32.7
586.1	33.1
586.438	32.86
586.777	32.79
587.115	32.98
587.454	32.9
587.792	33.11
588.13	33.1
588.469	33.03
588.807	33.17
589.145	32.88
589.483	33.16
589.821	33.15
590.159	33.32
590.497	33.1
590.835	33.1
591.173	33.2
591.511	33.39
591.849	33.56
592.187	32.98
592.524	33.38
592.862	33.21
593.2	33.48
593.537	33.72
593.875	33.33
594.212	33.69
594.55	33.5
594.887	33.96
595.224	34.05
595.561	33.64
595.899	33.84
596.236	33.79
596.573	33.62
596.91	34.12
597.247	34.01
597.584	33.82
597.921	33.89
598.258	33.6
598.594	33.81
598.931	33.58
599.268	33.66
599.604	33.96
599.941	34.02
600.277	34.1
600.614	34.11
600.95	34.22
601.287	34.26
601.623	34.06
601.959	34.4
602.296	34.47
602.632	34.38
602.968	34.35
603.304	34.68
603.64	34.6
603.976	34.6
604.312	34.62
604.648	34.48
604.984	34.58
605.319	34.28
605.655	34.44
605.991	34.67
606.326	34.35
606.662	34.55
606.998	34.68
607.333	34.61
607.668	34.77
608.004	34.78
608.339	34.92
608.674	35.14
609.01	35.48
609.345	34.99
609.68	35.17
610.015	35.44
610.35	35.27
610.685	34.91
611.02	34.9
611.355	35.02
611.689	35.21
612.024	35.13
612.359	35.2
612.694	35.55
613.028	35.35
613.363	35.51
613.697	35.61
614.032	35.43
614.366	35.74
614.7	35.37
615.035	35.5
615.369	35.64
615.703	36.04
616.037	35.97
616.371	35.83
616.705	36.24
617.039	36.08
617.373	35.98
617.707	35.92
618.041	36.06
618.375	35.57
618.709	36.01
619.042	36.11
619.376	36.22
619.71	36.2
620.043	36.08
620.377	36.43
620.71	36.04
621.043	36.71
621.377	36.13
621.71	36.73
622.043	36.7
622.376	36.73
622.709	36.3
623.043	36.31
623.376	36.52
623.709	36.51
624.041	36.87
624.374	36.46
624.707	37.02
625.04	36.64
625.373	36.92
625.705	36.89
626.038	37.13
626.37	36.8
626.703	36.9
627.035	36.89
627.368	36.78
627.7	36.92
628.032	36.81
628.365	37.03
628.697	37.01
629.029	37
629.361	36.92
629.693	37.34
630.025	37.42
630.357	37.04
630.689	36.82
631.021	37.18
631.353	37.13
631.684	37.19
632.016	36.95
632.348	37.17
632.679	37.65
633.011	37.31
633.342	37.39
633.674	37.51
634.005	37.64
634.336	37.51
634.668	37.95
634.999	37.45
635.33	37.88
635.661	37.63
635.992	37.48
636.323	37.92
636.654	37.63
636.985	37.69
637.316	37.47
637.647	37.81
637.977	37.92
638.308	37.98
638.639	37.68
638.969	37.88
639.3	38.27
639.63	38.26
639.961	37.93
640.291	38.04
640.622	38.57
640.952	38.37
641.282	38.19
641.612	38.5
641.943	38.26
642.273	38.43
642.603	38.56
642.933	38.63
643.263	38.1
643.592	38.37
643.922	38.65
644.252	38.51
644.582	39.23
644.911	38.83
645.241	38.58
645.571	39.18
645.9	39.38
646.23	39.12
646.559	39.05
646.888	39.19
647.218	39.26
647.547	39.5
647.876	38.94
648.205	39.28
648.534	38.86
648.863	39
649.192	39.31
649.521	38.94
649.85	39.86
650.179	39.67
650.508	39.18
650.837	39.85
651.165	39.25
651.494	39.34
651.822	39.63
652.151	39.12
652.479	39.39
652.808	39.84
653.136	39.28
653.465	39.72
653.793	39.5
654.121	39.98
654.449	39.81
654.777	39.79
655.105	40.18
655.433	40.23
655.761	39.92
656.089	39.92
656.417	39.84
656.745	40.65
657.073	39.85
657.4	39.98
657.728	39.36
658.056	40.25
658.383	40.05
658.711	40.17
659.038	40.37
659.365	40.2
659.693	40.22
660.02	40.21
660.347	40.09
660.674	39.88
661.001	39.91
661.329	40.17
661.656	40
661.982	40.12
662.309	40.42
662.636	40.51
662.963	40.84
663.29	40.62
663.616	39.98
663.943	40.24
664.27	40.31
664.596	40.69
664.923	41
665.249	40.68
665.576	41.22
665.902	40.27
666.228	41.41
666.554	40.82
666.881	40.54
667.207	41.64
667.533	41.06
667.859	41.03
668.185	41.2
668.511	41.5
668.837	41.57
669.162	41.5
669.488	40.87
669.814	40.63
670.139	41.37
670.465	41.36
670.791	41.63
671.116	41.21
671.442	41.08
671.767	41.41
