Data from 21-7_crown_Reflection__3__128.txt Node

Date: Thu Dec 15 17:29:36 CST 2022
User: ToomeyLab
Spectrometer: FLMS14357
Trigger mode: 0
Integration Time (sec): 1.000000E-2
Scans to average: 100
Electric dark correction enabled: true
Nonlinearity correction enabled: false
Boxcar width: 0
XAxis mode: Wavelengths
Number of Pixels in Spectrum: 2048
>>>>>Begin Spectral Data<<<<<
189.047	-212.68
189.435	-212.68
189.823	-212.68
190.211	-97.94
190.599	45.82
190.987	347.17
191.375	7.09
191.763	27.24
192.151	373.92
192.538	16.37
192.926	330.76
193.314	78.19
193.702	-130.25
194.089	37.74
194.477	129.22
194.864	-140.86
195.252	21.88
195.639	93.83
196.027	-35.19
196.414	174.42
196.801	63.8
197.189	73.73
197.576	-493.4
197.963	227.44
198.351	8.26
198.738	-22.81
199.125	-109.91
199.512	70.51
199.899	-73.19
200.286	-68.91
200.673	35.83
201.06	6.42
201.447	39.64
201.833	-3.45
202.22	0.14
202.607	-154.93
202.994	-8.44
203.38	2.25
203.767	0.4
204.154	25.58
204.54	5.72
204.927	3.17
205.313	18.82
205.699	-5.88
206.086	23.28
206.472	4.67
206.858	-2.5
207.245	29.4
207.631	8.09
208.017	40.68
208.403	-151.87
208.789	10.53
209.175	-6.52
209.561	-133.84
209.947	11.96
210.333	13.04
210.719	12.12
211.105	18.82
211.491	-45.77
211.876	-25.61
212.262	-25.85
212.648	-1.29
213.034	-7.79
213.419	-17.12
213.805	-53.4
214.19	-27.31
214.576	-7.17
214.961	-5.73
215.346	-58.14
215.732	4.21
216.117	-16.55
216.502	-17.62
216.888	-10.48
217.273	-1.13
217.658	-35.44
218.043	-17.62
218.428	-17.71
218.813	0.95
219.198	-61.88
219.583	-9.28
219.968	-18.31
220.353	-20.26
220.738	-0.87
221.122	-2.87
221.507	4.23
221.892	-32.66
222.276	-47.48
222.661	-8.03
223.046	-16.51
223.43	10.79
223.815	2.34
224.199	10.41
224.583	-5.35
224.968	-19.51
225.352	-4.51
225.736	4.37
226.121	-8.08
226.505	-7.07
226.889	0.34
227.273	-8.62
227.657	-0.34
228.041	0.68
228.425	1.35
228.809	-0.04
229.193	4.01
229.577	3.72
229.961	1.7
230.344	4.49
230.728	4.69
231.112	4.7
231.495	2.55
231.879	3.52
232.263	4.01
232.646	2.68
233.03	4.48
233.413	3.96
233.797	1.64
234.18	4.1
234.563	3.34
234.946	-0.65
235.33	1.27
235.713	3.96
236.096	4.69
236.479	4.42
236.862	3.11
237.245	1.68
237.628	3.1
238.011	3.63
238.394	2.88
238.777	3.69
239.16	3.26
239.543	4.5
239.925	2.36
240.308	2.45
240.691	3.51
241.073	3.47
241.456	4.36
241.838	2.63
242.221	3.92
242.603	4.21
242.986	3.78
243.368	4.35
243.75	4.41
244.133	4.52
244.515	3.93
244.897	3.63
245.279	3.41
245.661	3.96
246.043	4.55
246.425	3.25
246.807	3.03
247.189	3.39
247.571	3.78
247.953	4.03
248.335	4.12
248.717	3.99
249.098	3.76
249.48	3.84
249.862	4.1
250.243	3.91
250.625	4.22
251.006	4.02
251.388	3.37
251.769	2.87
252.151	4.69
252.532	2.2
252.913	3.53
253.295	3.41
253.676	3.41
254.057	3.79
254.438	3.37
254.819	3.87
255.2	4.11
255.581	4.7
255.962	4.27
256.343	2.88
256.724	3.29
257.105	3.51
257.486	2.48
257.867	3.43
258.247	4.44
258.628	4.56
259.009	3.54
259.389	3.43
259.77	3.51
260.15	4.03
260.531	3.81
260.911	3.5
261.292	3.69
261.672	3.6
262.052	3.53
262.432	3.36
262.813	3.27
263.193	3.13
263.573	3.08
263.953	3.28
264.333	3.4
264.713	3.83
265.093	4.18
265.473	3.34
265.853	2.44
266.233	3.13
266.612	2.74
266.992	2.94
267.372	3.79
267.752	3.23
268.131	3.15
268.511	3.57
268.89	3.37
269.27	3.51
269.649	2.89
270.029	3.32
270.408	3.19
270.787	3.76
271.167	3.4
271.546	3.53
271.925	3.66
272.304	2.86
272.683	3.14
273.062	3.49
273.441	3.24
273.82	3.22
274.199	3.3
274.578	3.45
274.957	3.38
275.336	3.62
275.715	3.58
276.093	2.78
276.472	2.49
276.851	2.79
277.229	2.8
277.608	2.36
277.986	3.34
278.365	3.22
278.743	3.08
279.122	3.1
279.5	3.29
279.878	2.67
280.257	3.19
280.635	3.66
281.013	2.84
281.391	2.53
281.769	3.52
282.147	3.09
282.525	2.35
282.903	2.67
283.281	3.36
283.659	3.15
284.037	2.85
284.415	2.32
284.792	3.37
285.17	3.14
285.548	3.02
285.925	3.21
286.303	3.59
286.68	3.26
287.058	3.3
287.435	2.92
287.813	3.02
288.19	3.06
288.567	3.42
288.945	2.78
289.322	3.07
289.699	3.18
290.076	2.79
290.453	2.8
290.83	3.1
291.207	2.98
291.584	3.24
291.961	3.45
292.338	2.99
292.715	2.87
293.092	3.39
293.469	3.25
293.845	3.24
294.222	3.78
294.599	2.67
294.975	2.38
295.352	3.29
295.728	3.02
296.105	2.94
296.481	3.15
296.858	3.28
297.234	2.88
297.61	2.97
297.986	3.61
298.363	3.56
298.739	3.48
299.115	3.4
299.491	3.59
299.867	2.97
300.243	3.13
300.619	3.03
300.995	3.17
301.371	3.5
301.746	3.32
302.122	2.99
302.498	2.87
302.874	3.47
303.249	3.14
303.625	2.73
304	3.48
304.376	3.33
304.751	3.49
305.127	3.59
305.502	3.55
305.878	3.63
306.253	2.9
306.628	3.16
307.003	3.46
307.378	3.34
307.754	3.33
308.129	3.1
308.504	3.11
308.879	3.47
309.254	3.81
309.629	3.77
310.003	3.22
310.378	3.99
310.753	3.47
311.128	3.28
311.502	3.55
311.877	3.14
312.252	3.24
312.626	3.66
313.001	3.71
313.375	3.55
313.75	3.46
314.124	3.89
314.498	3.8
314.873	3.25
315.247	3.23
315.621	3.99
315.995	3.58
316.369	3.24
316.743	3.75
317.117	3.49
317.491	3.52
317.865	3.58
318.239	4.11
318.613	3.66
318.987	3.82
319.361	3.52
319.734	3.8
320.108	3.19
320.482	3.93
320.855	3.78
321.229	3.43
321.602	3.66
321.976	2.96
322.349	4.16
322.723	3.91
323.096	3.45
323.469	3.25
323.843	3.48
324.216	3.43
324.589	4.16
324.962	3.67
325.335	3.47
325.708	3.51
326.081	3.24
326.454	3.35
326.827	3.94
327.2	3.12
327.573	3.84
327.945	3.3
328.318	3.51
328.691	3.73
329.063	3.73
329.436	3.15
329.809	3.83
330.181	4.33
330.553	3.52
330.926	3.97
331.298	3.19
331.671	3.61
332.043	4.03
332.415	4.09
332.787	3.48
333.159	3.32
333.532	3.29
333.904	3.68
334.276	3.8
334.648	3.33
335.02	3.42
335.391	3.33
335.763	3.6
336.135	4.07
336.507	3.34
336.879	4.13
337.25	3.64
337.622	3.62
337.993	3.96
338.365	3.29
338.736	3.47
339.108	3.55
339.479	3.96
339.851	4
340.222	3.75
340.593	3.43
340.964	3.63
341.336	3.28
341.707	3.86
342.078	3.62
342.449	3.6
342.82	3.88
343.191	3.9
343.562	4.05
343.933	3.56
344.303	4.2
344.674	3.67
345.045	3.92
345.416	4.1
345.786	3.49
346.157	3.8
346.527	3.62
346.898	3.11
347.268	3.58
347.639	3.55
348.009	3.88
348.38	3.59
348.75	3.88
349.12	3.54
349.49	3.75
349.861	3.91
350.231	3.83
350.601	3.85
350.971	3.41
351.341	3.88
351.711	3.57
352.081	3.56
352.45	3.31
352.82	3.69
353.19	3.96
353.56	4.16
353.929	4.16
354.299	3.74
354.669	4.21
355.038	4.03
355.408	3.51
355.777	4.05
356.147	3.94
356.516	3.59
356.885	3.53
357.254	3.84
357.624	3.54
357.993	3.94
358.362	3.95
358.731	4.15
359.1	3.79
359.469	4.07
359.838	3.79
360.207	3.69
360.576	3.87
360.945	3.8
361.314	3.78
361.682	3.63
362.051	3.75
362.42	3.75
362.788	4.18
363.157	3.45
363.525	3.84
363.894	3.79
364.262	3.78
364.631	4.05
364.999	3.99
365.367	3.86
365.735	3.75
366.104	3.92
366.472	3.66
366.84	3.74
367.208	4.07
367.576	3.74
367.944	3.89
368.312	3.97
368.68	3.99
369.048	3.9
369.416	3.69
369.783	3.83
370.151	4.24
370.519	4.38
370.886	3.83
371.254	4.01
371.621	3.81
371.989	4.14
372.356	3.73
372.724	3.52
373.091	3.66
373.458	3.9
373.826	4.21
374.193	3.98
374.56	3.9
374.927	3.85
375.294	3.78
375.661	4
376.028	3.87
376.395	4.19
376.762	3.9
377.129	3.8
377.496	4.15
377.863	4.07
378.229	4.3
378.596	4.3
378.963	3.95
379.329	3.78
379.696	3.72
380.062	3.95
380.429	3.85
380.795	4.04
381.161	3.65
381.528	3.75
381.894	3.86
382.26	4.16
382.626	3.97
382.993	4.32
383.359	3.86
383.725	3.78
384.091	3.98
384.457	3.81
384.823	4.05
385.188	4.06
385.554	4.11
385.92	3.87
386.286	3.87
386.651	3.74
387.017	4.29
387.383	3.87
387.748	4.27
388.114	4.05
388.479	3.88
388.845	3.95
389.21	4.18
389.575	4.14
389.94	4.06
390.306	4.13
390.671	4.21
391.036	4.01
391.401	4.2
391.766	4.02
392.131	4.33
392.496	4.23
392.861	4.23
393.226	3.93
393.591	4.18
393.956	4.16
394.32	4.33
394.685	4.41
395.05	4.12
395.414	3.99
395.779	4.25
396.143	3.91
396.508	4.02
396.872	4.13
397.236	4.4
397.601	4.17
397.965	4
398.329	4.16
398.694	3.94
399.058	4.21
399.422	4.33
399.786	3.99
400.15	4.18
400.514	4.2
400.878	4.14
401.242	4.28
401.605	4.08
401.969	4.03
402.333	4.04
402.697	4.48
403.06	4.11
403.424	4.3
403.787	4.23
404.151	4.3
404.514	4.3
404.878	3.95
405.241	4.06
405.604	4.11
405.968	4.1
406.331	4.24
406.694	4.28
407.057	4.04
407.42	4.14
407.783	4.37
408.146	4.2
408.509	4.18
408.872	4
409.235	4.43
409.598	4.17
409.961	4.31
410.323	4.11
410.686	4.11
411.049	4.15
411.411	3.93
411.774	4.01
412.136	4.17
412.499	4.35
412.861	3.93
413.223	4.03
413.586	4.22
413.948	4.2
414.31	4.17
414.672	4.08
415.035	4.42
415.397	3.94
415.759	3.86
416.121	4.28
416.483	4.22
416.845	4.24
417.206	4.08
417.568	4.18
417.93	4.45
418.292	4.1
418.653	3.92
419.015	4.07
419.377	4.06
419.738	4.24
420.1	4.15
420.461	4.06
420.822	4.16
421.184	4.04
421.545	4.1
421.906	4.1
422.267	4.08
422.629	4.05
422.99	4.07
423.351	4.16
423.712	4.09
424.073	4.1
424.434	4.25
424.795	4.05
425.155	4.13
425.516	4.11
425.877	4.06
426.238	4.18
426.598	4.12
426.959	4.2
427.32	4.12
427.68	4.2
428.041	4.26
428.401	4.19
428.761	4.32
429.122	4.23
429.482	4.27
429.842	4.35
430.202	4.2
430.563	4.3
430.923	4.26
431.283	4.41
431.643	4.46
432.003	4.35
432.363	4.34
432.722	4.12
433.082	4.21
433.442	4.35
433.802	4.35
434.161	4.23
434.521	4.29
434.881	4.3
435.24	4.26
435.6	4.29
435.959	4.26
436.319	4.27
436.678	4.36
437.037	4.19
437.396	4.32
437.756	4.24
438.115	4.26
438.474	4.32
438.833	4.39
439.192	4.26
439.551	4.33
439.91	4.37
440.269	4.24
440.628	4.18
440.987	4.35
441.345	4.31
441.704	4.28
442.063	4.23
442.421	4.3
442.78	4.28
443.138	4.19
443.497	4.32
443.855	4.45
444.214	4.21
444.572	4.29
444.93	4.24
445.288	4.39
445.647	4.12
446.005	4.24
446.363	4.27
446.721	4.3
447.079	4.08
447.437	4.3
447.795	4.25
448.153	4.28
448.51	4.26
448.868	4.21
449.226	4.35
449.584	4.27
449.941	4.31
450.299	4.23
450.656	4.4
451.014	4.45
451.371	4.39
451.729	4.39
452.086	4.38
452.443	4.44
452.801	4.35
453.158	4.57
453.515	4.24
453.872	4.41
454.229	4.25
454.586	4.18
454.943	4.39
455.3	4.42
455.657	4.32
456.014	4.31
456.371	4.48
456.727	4.53
457.084	4.59
457.441	4.48
457.797	4.35
458.154	4.35
458.51	4.54
458.867	4.32
459.223	4.23
459.58	4.43
459.936	4.45
460.292	4.21
460.648	4.25
461.005	4.29
461.361	4.31
461.717	4.4
462.073	4.37
462.429	4.43
462.785	4.48
463.141	4.37
463.496	4.44
463.852	4.43
464.208	4.51
464.564	4.32
464.919	4.38
465.275	4.4
465.631	4.59
465.986	4.56
466.342	4.46
466.697	4.43
467.052	4.61
467.408	4.52
467.763	4.43
468.118	4.2
468.473	4.53
468.829	4.41
469.184	4.44
469.539	4.3
469.894	4.39
470.249	4.42
470.603	4.56
470.958	4.5
471.313	4.5
471.668	4.49
472.023	4.45
472.377	4.41
472.732	4.6
473.086	4.36
473.441	4.46
473.795	4.65
474.15	4.52
474.504	4.49
474.859	4.24
475.213	4.57
475.567	4.48
475.921	4.52
476.275	4.57
476.63	4.54
476.984	4.34
477.338	4.6
477.692	4.54
478.045	4.49
478.399	4.55
478.753	4.43
479.107	4.47
479.461	4.46
479.814	4.5
480.168	4.41
480.521	4.56
480.875	4.46
481.228	4.61
481.582	4.47
481.935	4.64
482.289	4.4
482.642	4.59
482.995	4.38
483.348	4.42
483.701	4.39
484.055	4.41
484.408	4.41
484.761	4.3
485.114	4.21
485.466	4.17
485.819	4.2
486.172	4.27
486.525	4.35
486.878	4.37
487.23	4.4
487.583	4.36
487.936	4.35
488.288	4.38
488.641	4.28
488.993	4.27
489.345	4.28
489.698	4.27
490.05	4.39
490.402	4.36
490.754	4.38
491.107	4.36
491.459	4.56
491.811	4.5
492.163	4.44
492.515	4.4
492.866	4.28
493.218	4.3
493.57	4.37
493.922	4.42
494.274	4.51
494.625	4.64
494.977	4.57
495.328	4.63
495.68	4.51
496.031	4.52
496.383	4.43
496.734	4.64
497.086	4.63
497.437	4.58
497.788	4.64
498.139	4.56
498.49	4.57
498.842	4.6
499.193	4.45
499.544	4.48
499.894	4.49
500.245	4.58
500.596	4.59
500.947	4.5
501.298	4.55
501.648	4.6
501.999	4.72
502.35	4.51
502.7	4.8
503.051	4.58
503.401	4.65
503.752	4.5
504.102	4.58
504.452	4.62
504.803	4.56
505.153	4.66
505.503	4.58
505.853	4.7
506.203	4.57
506.553	4.62
506.903	4.52
507.253	4.66
507.603	4.66
507.953	4.6
508.303	4.56
508.652	4.51
509.002	4.69
509.352	4.62
509.701	4.56
510.051	4.64
510.4	4.68
510.75	4.53
511.099	4.56
511.449	4.64
511.798	4.53
512.147	4.54
512.496	4.6
512.846	4.62
513.195	4.64
513.544	4.71
513.893	4.63
514.242	4.58
514.591	4.57
514.939	4.57
515.288	4.74
515.637	4.66
515.986	4.68
516.334	4.68
516.683	4.65
517.032	4.62
517.38	4.59
517.729	4.63
518.077	4.69
518.426	4.7
518.774	4.63
519.122	4.6
519.47	4.56
519.819	4.53
520.167	4.53
520.515	4.58
520.863	4.55
521.211	4.58
521.559	4.62
521.907	4.54
522.255	4.61
522.602	4.6
522.95	4.74
523.298	4.6
523.645	4.7
523.993	4.73
524.341	4.7
524.688	4.53
525.036	4.6
525.383	4.7
525.73	4.6
526.078	4.66
526.425	4.62
526.772	4.59
527.119	4.64
527.466	4.58
527.814	4.53
528.161	4.58
528.508	4.65
528.854	4.59
529.201	4.51
529.548	4.48
529.895	4.38
530.242	4.36
530.588	4.4
530.935	4.43
531.282	4.51
531.628	4.56
531.975	4.52
532.321	4.59
532.667	4.62
533.014	4.71
533.36	4.61
533.706	4.66
534.052	4.58
534.399	4.53
534.745	4.49
535.091	4.46
535.437	4.56
535.783	4.59
536.129	4.6
536.474	4.68
536.82	4.73
537.166	4.63
537.512	4.59
537.857	4.62
538.203	4.59
538.549	4.51
538.894	4.58
539.239	4.71
539.585	4.66
539.93	4.84
540.276	4.66
540.621	4.79
540.966	4.67
541.311	4.7
541.656	4.53
542.001	4.67
542.346	4.56
542.691	4.46
543.036	4.46
543.381	4.54
543.726	4.58
544.071	4.61
544.415	4.66
544.76	4.58
545.105	4.58
545.449	4.63
545.794	4.64
546.138	4.66
546.483	4.75
546.827	4.74
547.171	4.68
547.516	4.77
547.86	4.63
548.204	4.7
548.548	4.68
548.892	4.7
549.236	4.58
549.58	4.77
549.924	4.8
550.268	4.79
550.612	4.78
550.956	4.84
551.3	4.88
551.643	4.72
551.987	4.87
552.33	4.84
552.674	4.83
553.017	4.9
553.361	4.87
553.704	4.87
554.048	4.77
554.391	4.89
554.734	4.65
555.077	4.84
555.42	4.81
555.764	4.75
556.107	4.7
556.45	4.78
556.793	4.86
557.135	4.79
557.478	4.78
557.821	4.83
558.164	4.89
558.507	4.78
558.849	4.87
559.192	4.72
559.534	4.75
559.877	4.71
560.219	4.87
560.562	4.68
560.904	5.04
561.246	4.79
561.589	5.11
561.931	4.88
562.273	4.72
562.615	4.72
562.957	4.75
563.299	4.9
563.641	4.78
563.983	4.57
564.325	4.94
564.667	4.75
565.008	4.86
565.35	4.66
565.692	4.63
566.033	4.81
566.375	4.74
566.716	4.9
567.058	4.76
567.399	4.9
567.741	4.76
568.082	4.94
568.423	4.81
568.764	4.91
569.105	4.81
569.447	4.79
569.788	4.83
570.129	4.78
570.47	4.75
570.811	4.78
571.151	4.84
571.492	4.91
571.833	4.7
572.174	4.84
572.514	4.77
572.855	4.93
573.195	4.68
573.536	4.89
573.876	4.7
574.217	4.83
574.557	4.93
574.898	4.76
575.238	4.85
575.578	4.9
575.918	5.04
576.258	5.09
576.598	4.72
576.938	4.8
577.278	4.86
577.618	4.86
577.958	4.96
578.298	4.9
578.638	4.85
578.977	4.89
579.317	4.96
579.657	5
579.996	5.05
580.336	4.82
580.675	4.9
581.014	4.87
581.354	4.68
581.693	5.06
582.032	5.14
582.372	4.94
582.711	4.92
583.05	4.91
583.389	5
583.728	5.12
584.067	4.9
584.406	4.98
584.745	4.82
585.083	4.95
585.422	5.2
585.761	5.01
586.1	4.99
586.438	4.98
586.777	4.96
587.115	4.82
587.454	5.06
587.792	5.07
588.13	4.9
588.469	4.95
588.807	5.23
589.145	5.12
589.483	4.68
589.821	4.85
590.159	4.9
590.497	4.93
590.835	4.87
591.173	5.14
591.511	5.08
591.849	4.89
592.187	4.86
592.524	5.08
592.862	4.89
593.2	5.22
593.537	4.96
593.875	5.17
594.212	5.04
594.55	4.89
594.887	5.2
595.224	5
595.561	4.98
595.899	4.99
596.236	5.06
596.573	4.82
596.91	4.96
597.247	5.15
597.584	5.15
597.921	4.95
598.258	4.94
598.594	4.94
598.931	4.76
599.268	4.71
599.604	4.97
599.941	5.13
600.277	4.95
600.614	5.02
600.95	5.08
601.287	4.87
601.623	4.73
601.959	5.27
602.296	5.03
602.632	4.94
602.968	4.94
603.304	5.04
603.64	4.93
603.976	4.87
604.312	4.83
604.648	4.97
604.984	4.83
605.319	5.05
605.655	5
605.991	4.86
606.326	4.93
606.662	4.9
606.998	5.09
607.333	5.05
607.668	4.92
608.004	5
608.339	4.88
608.674	5.03
609.01	5.49
609.345	5.11
609.68	4.93
610.015	5.21
610.35	5.27
610.685	4.7
611.02	4.93
611.355	4.85
611.689	5.08
612.024	5.22
612.359	5.22
612.694	5.07
613.028	4.97
613.363	5
613.697	5.15
614.032	5.15
614.366	4.73
614.7	5.03
615.035	4.92
615.369	5.2
615.703	5.33
616.037	5.34
616.371	5.08
616.705	5.24
617.039	5.07
617.373	5.27
617.707	5.24
618.041	4.95
618.375	4.57
618.709	5.22
619.042	5.11
619.376	5.04
619.71	5.03
620.043	5.43
620.377	5.16
620.71	5
621.043	5.37
621.377	5.09
621.71	5.79
622.043	5.39
622.376	5.13
622.709	5.37
623.043	4.98
623.376	5.22
623.709	5.4
624.041	4.93
624.374	5
624.707	5.13
625.04	4.9
625.373	5.2
625.705	5.37
626.038	5.44
626.37	5.21
626.703	5.16
627.035	5.24
627.368	5.37
627.7	5.3
628.032	5.18
628.365	5.22
628.697	5.54
629.029	5.26
629.361	5.36
629.693	5.1
630.025	5.09
630.357	5.3
630.689	5.09
631.021	5.22
631.353	5.21
631.684	5.28
632.016	4.86
632.348	4.9
632.679	5.39
633.011	5.15
633.342	5.45
633.674	4.82
634.005	5.36
634.336	5.77
634.668	5.18
634.999	5.07
635.33	4.97
635.661	5.2
635.992	5.33
636.323	5.17
636.654	5.08
636.985	5.23
637.316	5.17
637.647	5.49
637.977	5.03
638.308	5.49
638.639	5.24
638.969	5.04
639.3	5.14
639.63	5.31
639.961	5.25
640.291	5.39
640.622	5.49
640.952	5.55
641.282	5.1
641.612	5.42
641.943	4.92
642.273	4.97
642.603	5.31
642.933	5.47
643.263	5.46
643.592	5.71
643.922	5.71
644.252	5.19
644.582	5.54
644.911	5.17
645.241	4.84
645.571	5.53
645.9	5.75
646.23	5.65
646.559	5.15
646.888	5.4
647.218	5.54
647.547	5.57
647.876	5.15
648.205	4.91
648.534	5.39
648.863	5.38
649.192	5.66
649.521	5.43
649.85	5.49
650.179	5.25
650.508	5.03
650.837	5.38
651.165	5.32
651.494	5.48
651.822	5.47
652.151	5.33
652.479	5.24
652.808	5.42
653.136	4.93
653.465	5.3
653.793	5.7
654.121	5.67
654.449	5.04
654.777	5.07
655.105	5.08
655.433	5.28
655.761	5.36
656.089	4.94
656.417	5.48
656.745	6.11
657.073	5.72
657.4	4.9
657.728	4.98
658.056	5.29
658.383	5.27
658.711	5.54
659.038	5.98
659.365	5.42
659.693	5.67
660.02	5.07
660.347	5.23
660.674	5.44
661.001	5.36
661.329	5.33
661.656	5.08
661.982	5.15
662.309	5.26
662.636	5.41
662.963	4.97
663.29	5.21
663.616	5.25
663.943	5.22
664.27	5.5
664.596	5.46
664.923	5.73
665.249	5.79
665.576	5.15
665.902	5.39
666.228	5.64
666.554	5.77
666.881	5.7
667.207	5.57
667.533	5.08
667.859	5.32
668.185	5.59
668.511	6.1
668.837	5.31
669.162	5.61
669.488	5.17
669.814	5.24
670.139	4.94
670.465	5.56
670.791	4.87
671.116	5.37
671.442	4.73
671.767	5.23
672.092	5
672.418	5.33
672.743	5.61
673.068	5.18
673.393	5.39
673.718	5.01
674.043	5.2
674.368	5.24
674.693	5.11
675.018	5.64
675.343	5.63
675.667	5.28
675.992	5.15
676.317	5.16
676.641	6.2
676.966	5.58
677.29	5.37
677.615	5.42
677.939	5.89
678.264	5.76
678.588	5.7
678.912	5.58
679.236	5.59
679.56	5.2
679.885	5.21
680.209	5.55
680.532	6.05
680.856	5.77
681.18	5.7
681.504	5.55
681.828	5.3
682.152	5.3
682.475	5.22
682.799	5.31
683.122	5.55
683.446	5.17
683.769	6.1
684.093	5.68
684.416	5.28
684.739	5.36
685.062	5.54
685.386	5.24
685.709	5.51
686.032	6.13
686.355	5.88
686.678	5.75
687.001	5.88
687.324	5.98
687.646	5.63
687.969	5.73
688.292	5.55
688.614	5.54
688.937	5.55
689.26	6.13
689.582	5.75
689.904	5.28
690.227	6.02
690.549	6.24
690.871	5.3
691.194	5.75
691.516	5.6
691.838	5.51
692.16	5.61
692.482	5.57
692.804	6.09
