Data from 21-7_crown_Reflection__4__129.txt Node

Date: Thu Dec 15 17:29:48 CST 2022
User: ToomeyLab
Spectrometer: FLMS14357
Trigger mode: 0
Integration Time (sec): 1.000000E-2
Scans to average: 100
Electric dark correction enabled: true
Nonlinearity correction enabled: false
Boxcar width: 0
XAxis mode: Wavelengths
Number of Pixels in Spectrum: 2048
>>>>>Begin Spectral Data<<<<<
189.047	-25.29
189.435	-25.29
189.823	-25.29
190.211	33.61
190.599	106.93
190.987	72.88
191.375	-8.97
191.763	-7.85
192.151	372.32
192.538	109.39
192.926	94.51
193.314	106.53
193.702	260.07
194.089	41.63
194.477	143.34
194.864	-683.23
195.252	90.29
195.639	102.48
196.027	-92.9
196.414	1132.2
196.801	133.85
197.189	47.79
197.576	-69.97
197.963	66.9
198.351	8.99
198.738	2.88
199.125	-98.77
199.512	-5.02
199.899	-125.42
200.286	-52.13
200.673	57.69
201.06	5.1
201.447	15.65
201.833	18.21
202.22	-6.37
202.607	-58.76
202.994	8.37
203.38	19.76
203.767	38.94
204.154	28.24
204.54	18.08
204.927	21.11
205.313	22.8
205.699	18.55
206.086	25.91
206.472	39.29
206.858	28.81
207.245	40.79
207.631	-3.97
208.017	44.77
208.403	-110.33
208.789	2.79
209.175	-0.22
209.561	-91.48
209.947	12.41
210.333	-16.24
210.719	29.18
211.105	30.87
211.491	25.27
211.876	12.36
212.262	11.49
212.648	23.45
213.034	17.42
213.419	13.04
213.805	-17.44
214.19	-6.96
214.576	-26.43
214.961	17.81
215.346	7.06
215.732	-0.79
216.117	-16.37
216.502	-8.14
216.888	44.14
217.273	-6.12
217.658	32.9
218.043	-14.35
218.428	-4.83
218.813	24.59
219.198	-11.45
219.583	12.12
219.968	9.31
220.353	-6.49
220.738	-8.81
221.122	4.95
221.507	-16.61
221.892	-20.23
222.276	-21.12
222.661	11.59
223.046	-18.63
223.43	22.99
223.815	-1.75
224.199	3.93
224.583	-3.62
224.968	-0.76
225.352	-7.64
225.736	8.97
226.121	13.44
226.505	3.99
226.889	7.2
227.273	3.58
227.657	4.11
228.041	6.72
228.425	5.75
228.809	4.44
229.193	6.75
229.577	5.97
229.961	4.7
230.344	6.63
230.728	7.15
231.112	6.87
231.495	3.97
231.879	7.92
232.263	5.01
232.646	5.75
233.03	7.6
233.413	3.75
233.797	3.84
234.18	6.78
234.563	4.49
234.946	5.08
235.33	5.36
235.713	5.77
236.096	7.32
236.479	6.57
236.862	4.07
237.245	6.68
237.628	6.17
238.011	5.79
238.394	4.59
238.777	6.98
239.16	6.19
239.543	6.23
239.925	5.59
240.308	4.65
240.691	5.33
241.073	4.95
241.456	5.88
241.838	5.41
242.221	5.21
242.603	6.18
242.986	6.4
243.368	6.48
243.75	5.88
244.133	5.69
244.515	5.68
244.897	5.76
245.279	5.5
245.661	6.09
246.043	6.1
246.425	5.87
246.807	5.74
247.189	5.63
247.571	5.15
247.953	5.65
248.335	5.5
248.717	5.85
249.098	5.67
249.48	5.44
249.862	5.85
250.243	5.96
250.625	6.18
251.006	6.5
251.388	5.94
251.769	4.68
252.151	6.37
252.532	4.6
252.913	5.09
253.295	5.2
253.676	5.56
254.057	5.48
254.438	5.48
254.819	5.4
255.2	5.44
255.581	6.5
255.962	6.29
256.343	5.91
256.724	6.38
257.105	4.96
257.486	4.43
257.867	5.36
258.247	5.7
258.628	4.88
259.009	5.41
259.389	4.97
259.77	5.54
260.15	6.43
260.531	5.72
260.911	5.44
261.292	5.4
261.672	5.17
262.052	5.28
262.432	4.96
262.813	5.35
263.193	5.23
263.573	5.53
263.953	4.84
264.333	5.5
264.713	5.09
265.093	4.98
265.473	4.26
265.853	4.96
266.233	4.71
266.612	4.21
266.992	5.68
267.372	5.06
267.752	5.47
268.131	5.36
268.511	5.16
268.89	5.5
269.27	4.39
269.649	5.2
270.029	5.62
270.408	5.04
270.787	5.24
271.167	5.3
271.546	5.78
271.925	5.03
272.304	5.21
272.683	5.24
273.062	5.12
273.441	4.92
273.82	4.8
274.199	4.73
274.578	5.22
274.957	4.95
275.336	5.42
275.715	5.12
276.093	4.38
276.472	4.83
276.851	4.83
277.229	4.9
277.608	4.55
277.986	5.09
278.365	5.45
278.743	4.78
279.122	4.83
279.5	5
279.878	4.37
280.257	4.51
280.635	4.65
281.013	4.56
281.391	4.89
281.769	5.43
282.147	4.99
282.525	4.31
282.903	4.46
283.281	5.1
283.659	4.54
284.037	4.44
284.415	4.41
284.792	4.82
285.17	4.67
285.548	4.62
285.925	4.56
286.303	5
286.68	4.93
287.058	4.96
287.435	4.47
287.813	4.66
288.19	4.54
288.567	4.73
288.945	4.19
289.322	5.07
289.699	5.07
290.076	4.67
290.453	4.45
290.83	5.27
291.207	4.54
291.584	5.09
291.961	4.72
292.338	4.49
292.715	4.47
293.092	4.99
293.469	4.4
293.845	4.73
294.222	5.03
294.599	4.01
294.975	4.19
295.352	4.5
295.728	4.45
296.105	4.48
296.481	5.36
296.858	5.08
297.234	4.35
297.61	4.64
297.986	4.9
298.363	4.62
298.739	4.86
299.115	4.8
299.491	5.1
299.867	4.59
300.243	4.68
300.619	4.18
300.995	4.78
301.371	5.13
301.746	5.35
302.122	4.14
302.498	4.57
302.874	5.36
303.249	4.75
303.625	4.49
304	5.19
304.376	5.62
304.751	4.96
305.127	4.85
305.502	5.08
305.878	5.12
306.253	4.67
306.628	4.98
307.003	4.4
307.378	4.52
307.754	4.88
308.129	4.86
308.504	4.68
308.879	5.28
309.254	5.15
309.629	4.86
310.003	4.67
310.378	5.31
310.753	4.88
311.128	4.84
311.502	4.79
311.877	4.71
312.252	4.94
312.626	5.29
313.001	4.78
313.375	5.16
313.75	5.16
314.124	5.18
314.498	4.92
314.873	4.49
315.247	4.66
315.621	5.04
315.995	5.01
316.369	5.08
316.743	4.57
317.117	4.17
317.491	5.42
317.865	4.69
318.239	5.11
318.613	4.75
318.987	4.48
319.361	5.24
319.734	4.88
320.108	4.76
320.482	5.42
320.855	4.76
321.229	5.19
321.602	5.19
321.976	4.61
322.349	5.4
322.723	5.03
323.096	4.84
323.469	4.69
323.843	4.36
324.216	5.02
324.589	4.93
324.962	4.96
325.335	4.7
325.708	4.99
326.081	5.05
326.454	4.85
326.827	4.63
327.2	4.56
327.573	5.15
327.945	5.03
328.318	4.68
328.691	4.79
329.063	4.25
329.436	4.8
329.809	5.23
330.181	5.7
330.553	5.24
330.926	5.39
331.298	5.32
331.671	5.21
332.043	4.67
332.415	5.22
332.787	5.26
333.159	5.06
333.532	4.8
333.904	5.45
334.276	5.39
334.648	5.01
335.02	4.87
335.391	4.93
335.763	4.93
336.135	5.06
336.507	4.93
336.879	4.88
337.25	4.91
337.622	5.16
337.993	4.74
338.365	5.36
338.736	5.07
339.108	4.83
339.479	4.96
339.851	5.24
340.222	5.29
340.593	5
340.964	5.22
341.336	4.88
341.707	5.32
342.078	4.99
342.449	5.02
342.82	4.95
343.191	5.13
343.562	5.04
343.933	4.8
344.303	5.21
344.674	5.12
345.045	5.22
345.416	5.4
345.786	4.73
346.157	4.98
346.527	4.82
346.898	4.68
347.268	5.16
347.639	4.93
348.009	4.93
348.38	5.04
348.75	5.29
349.12	5.48
349.49	4.9
349.861	4.94
350.231	4.44
350.601	5.11
350.971	4.78
351.341	5.06
351.711	5.11
352.081	5.02
352.45	4.91
352.82	5.05
353.19	5.51
353.56	4.98
353.929	5.3
354.299	5.21
354.669	5.31
355.038	5.31
355.408	4.95
355.777	5.33
356.147	5.2
356.516	4.98
356.885	5
357.254	4.71
357.624	4.82
357.993	5.14
358.362	5.11
358.731	5.44
359.1	5.18
359.469	5.43
359.838	5.4
360.207	5.18
360.576	5.15
360.945	5.18
361.314	5.05
361.682	4.95
362.051	4.85
362.42	5.04
362.788	5.13
363.157	5.15
363.525	5.19
363.894	4.87
364.262	5.22
364.631	5.07
364.999	5.33
365.367	5.23
365.735	5.26
366.104	5.15
366.472	4.92
366.84	5.33
367.208	5.48
367.576	4.81
367.944	5.09
368.312	4.99
368.68	5.5
369.048	5.32
369.416	4.85
369.783	4.81
370.151	5.46
370.519	5.88
370.886	5.24
371.254	5.48
371.621	5.27
371.989	5.52
372.356	5.41
372.724	5.07
373.091	5.36
373.458	5
373.826	5.42
374.193	5.36
374.56	5.04
374.927	5.2
375.294	5.39
375.661	5.7
376.028	5.35
376.395	5.3
376.762	5.37
377.129	5.1
377.496	5.47
377.863	5.27
378.229	5.46
378.596	5.29
378.963	5.25
379.329	5.27
379.696	5.12
380.062	5.32
380.429	5.29
380.795	5.63
381.161	5
381.528	5
381.894	5.17
382.26	5.24
382.626	5.42
382.993	5.56
383.359	5.2
383.725	5.4
384.091	5.34
384.457	5.09
384.823	5.39
385.188	5.26
385.554	5.29
385.92	5.14
386.286	5.3
386.651	5.04
387.017	5.65
387.383	5.33
387.748	5.44
388.114	5.44
388.479	5.29
388.845	5.1
389.21	5.43
389.575	5.35
389.94	5.61
390.306	5.51
390.671	5.43
391.036	5.28
391.401	5.72
391.766	5.34
392.131	5.7
392.496	5.56
392.861	5.4
393.226	5.43
393.591	5.36
393.956	5.55
394.32	5.6
394.685	5.39
395.05	5.54
395.414	5.55
395.779	5.72
396.143	5.44
396.508	5.4
396.872	5.35
397.236	5.79
397.601	5.71
397.965	5.35
398.329	5.86
398.694	5.36
399.058	5.54
399.422	5.38
399.786	5.5
400.15	5.25
400.514	5.44
400.878	5.51
401.242	5.34
401.605	5.38
401.969	5.46
402.333	5.35
402.697	5.67
403.06	5.44
403.424	5.61
403.787	5.52
404.151	5.45
404.514	5.57
404.878	5.45
405.241	5.67
405.604	5.6
405.968	5.48
406.331	5.7
406.694	5.55
407.057	5.47
407.42	5.73
407.783	5.41
408.146	5.55
408.509	5.59
408.872	5.63
409.235	5.66
409.598	5.65
409.961	5.56
410.323	5.58
410.686	5.67
411.049	5.47
411.411	5.55
411.774	5.45
412.136	5.53
412.499	5.7
412.861	5.33
413.223	5.55
413.586	5.74
413.948	5.83
414.31	5.78
414.672	5.73
415.035	5.77
415.397	5.52
415.759	5.4
416.121	5.67
416.483	5.73
416.845	5.57
417.206	5.46
417.568	5.5
417.93	5.63
418.292	5.4
418.653	5.6
419.015	5.64
419.377	5.52
419.738	5.61
420.1	5.61
420.461	5.48
420.822	5.63
421.184	5.41
421.545	5.55
421.906	5.54
422.267	5.4
422.629	5.4
422.99	5.43
423.351	5.5
423.712	5.48
424.073	5.61
424.434	5.59
424.795	5.39
425.155	5.43
425.516	5.48
425.877	5.54
426.238	5.5
426.598	5.55
426.959	5.55
427.32	5.47
427.68	5.52
428.041	5.77
428.401	5.46
428.761	5.69
429.122	5.71
429.482	5.71
429.842	5.63
430.202	5.57
430.563	5.7
430.923	5.76
431.283	5.83
431.643	5.68
432.003	5.77
432.363	5.77
432.722	5.92
433.082	5.59
433.442	5.77
433.802	5.58
434.161	5.69
434.521	5.74
434.881	5.75
435.24	5.68
435.6	5.67
435.959	5.71
436.319	5.76
436.678	5.88
437.037	5.75
437.396	5.62
437.756	5.74
438.115	5.76
438.474	5.64
438.833	5.83
439.192	5.75
439.551	5.7
439.91	5.69
440.269	5.82
440.628	5.6
440.987	5.68
441.345	5.76
441.704	5.67
442.063	5.68
442.421	5.73
442.78	5.74
443.138	5.7
443.497	5.76
443.855	5.89
444.214	5.55
444.572	5.95
444.93	5.72
445.288	5.82
445.647	5.68
446.005	5.67
446.363	5.78
446.721	5.69
447.079	5.72
447.437	5.73
447.795	5.68
448.153	5.61
448.51	5.65
448.868	5.61
449.226	5.76
449.584	5.63
449.941	5.88
450.299	5.72
450.656	5.82
451.014	5.88
451.371	5.96
451.729	5.74
452.086	5.79
452.443	6.1
452.801	5.83
453.158	6
453.515	5.68
453.872	5.8
454.229	5.71
454.586	5.76
454.943	5.97
455.3	5.97
455.657	5.93
456.014	5.87
456.371	5.94
456.727	6.05
457.084	5.96
457.441	6
457.797	5.84
458.154	5.87
458.51	5.99
458.867	5.87
459.223	5.78
459.58	5.96
459.936	5.82
460.292	5.74
460.648	5.81
461.005	5.75
461.361	5.73
461.717	5.71
462.073	5.84
462.429	5.88
462.785	5.98
463.141	5.95
463.496	5.99
463.852	6.06
464.208	6.03
464.564	5.93
464.919	5.86
465.275	5.94
465.631	6.1
465.986	6.03
466.342	6.08
466.697	6.05
467.052	6.2
467.408	6.13
467.763	5.93
468.118	5.98
468.473	6.02
468.829	5.84
469.184	6.12
469.539	5.94
469.894	6.14
470.249	6.03
470.603	6.04
470.958	6.04
471.313	6.05
471.668	5.94
472.023	6.02
472.377	5.98
472.732	6.2
473.086	6.04
473.441	6.08
473.795	6.21
474.15	6.01
474.504	6.06
474.859	5.95
475.213	6.12
475.567	6.11
475.921	6.16
476.275	6.09
476.63	6.05
476.984	5.95
477.338	6.13
477.692	6.01
478.045	6.15
478.399	6.13
478.753	5.98
479.107	6.04
479.461	6.11
479.814	6.07
480.168	6.06
480.521	6.17
480.875	5.96
481.228	6.1
481.582	5.99
481.935	6.29
482.289	5.99
482.642	6.24
482.995	6.02
483.348	5.98
483.701	5.97
484.055	5.83
484.408	5.89
484.761	5.76
485.114	5.65
485.466	5.63
485.819	5.62
486.172	5.72
486.525	5.77
486.878	5.89
487.23	5.92
487.583	5.91
487.936	5.89
488.288	5.85
488.641	5.77
488.993	5.69
489.345	5.73
489.698	5.84
490.05	5.79
490.402	5.87
490.754	5.94
491.107	5.95
491.459	6.03
491.811	5.98
492.163	6.02
492.515	5.86
492.866	5.79
493.218	5.71
493.57	5.89
493.922	5.95
494.274	6.01
494.625	6.11
494.977	6.13
495.328	6.2
495.68	6.03
496.031	6.06
496.383	6.04
496.734	6.02
497.086	6.08
497.437	6.19
497.788	6.07
498.139	5.97
498.49	6.07
498.842	6.15
499.193	5.97
499.544	6.15
499.894	6.02
500.245	6.18
500.596	6.25
500.947	6.15
501.298	5.99
501.648	6.15
501.999	6.36
502.35	6.06
502.7	6.31
503.051	6.29
503.401	6.15
503.752	6.14
504.102	6.21
504.452	6.16
504.803	6.11
505.153	6.24
505.503	6.21
505.853	6.18
506.203	6.19
506.553	6.17
506.903	6.26
507.253	6.13
507.603	6.09
507.953	6.28
508.303	6.23
508.652	6.06
509.002	6.26
509.352	6.17
509.701	6.1
510.051	6.34
510.4	6.24
510.75	6.04
511.099	6.07
511.449	6.24
511.798	6.11
512.147	6.19
512.496	6.23
512.846	6.21
513.195	6.22
513.544	6.15
513.893	6.18
514.242	6.11
514.591	5.98
514.939	6.14
515.288	6.36
515.637	6.13
515.986	6.3
516.334	6.3
516.683	6.16
517.032	6.17
517.38	6.1
517.729	6.24
518.077	6.17
518.426	6.18
518.774	6.08
519.122	6.02
519.47	6.09
519.819	6.08
520.167	6.06
520.515	6.11
520.863	6.11
521.211	6.09
521.559	6.06
521.907	6.19
522.255	6.13
522.602	6.18
522.95	6.25
523.298	6.21
523.645	6.23
523.993	6.26
524.341	6.2
524.688	6.16
525.036	6.27
525.383	6.23
525.73	6.15
526.078	6.18
526.425	6.14
526.772	6.02
527.119	6.16
527.466	6.04
527.814	6.1
528.161	6.19
528.508	6.14
528.854	6.06
529.201	6.06
529.548	5.96
529.895	5.91
530.242	5.85
530.588	5.9
530.935	5.95
531.282	5.95
531.628	6.1
531.975	6.03
532.321	6.13
532.667	6.21
533.014	6.17
533.36	6.14
533.706	6.14
534.052	6.14
534.399	6.01
534.745	5.91
535.091	5.92
535.437	6
535.783	6.05
536.129	6.14
536.474	6.26
536.82	6.18
537.166	6.18
537.512	6.21
537.857	6.07
538.203	6.12
538.549	6.08
538.894	6.16
539.239	6.24
539.585	6.27
539.93	6.32
540.276	6.26
540.621	6.27
540.966	6.25
541.311	6.24
541.656	6.12
542.001	6.19
542.346	6.03
542.691	5.95
543.036	5.97
543.381	5.95
543.726	6.09
544.071	6.07
544.415	6.15
544.76	6.15
545.105	6.17
545.449	6.14
545.794	6.18
546.138	6.23
546.483	6.29
546.827	6.17
547.171	6.25
547.516	6.26
547.86	6.17
548.204	6.23
548.548	6.15
548.892	6.13
549.236	6.19
549.58	6.3
549.924	6.51
550.268	6.39
550.612	6.36
550.956	6.51
551.3	6.53
551.643	6.24
551.987	6.55
552.33	6.51
552.674	6.26
553.017	6.51
553.361	6.55
553.704	6.3
554.048	6.35
554.391	6.4
554.734	6.25
555.077	6.28
555.42	6.3
555.764	6.37
556.107	6.47
556.45	6.24
556.793	6.45
557.135	6.37
557.478	6.3
557.821	6.46
558.164	6.52
558.507	6.27
558.849	6.47
559.192	6.36
559.534	6.33
559.877	6.36
560.219	6.34
560.562	6.45
560.904	6.7
561.246	6.26
561.589	6.54
561.931	6.5
562.273	6.28
562.615	6.34
562.957	6.41
563.299	6.41
563.641	6.32
563.983	6.19
564.325	6.45
564.667	6.38
565.008	6.38
565.35	6.29
565.692	6.15
566.033	6.23
566.375	6.4
566.716	6.27
567.058	6.31
567.399	6.34
567.741	6.33
568.082	6.36
568.423	6.1
568.764	6.38
569.105	6.41
569.447	6.27
569.788	6.34
570.129	6.3
570.47	6.47
570.811	6.21
571.151	6.41
571.492	6.31
571.833	6.27
572.174	6.45
572.514	6.45
572.855	6.36
573.195	6.22
573.536	6.36
573.876	6.23
574.217	6.21
574.557	6.23
574.898	6.28
575.238	6.46
575.578	6.44
575.918	6.35
576.258	6.47
576.598	6.43
576.938	6.28
577.278	6.31
577.618	6.31
577.958	6.38
578.298	6.38
578.638	6.39
578.977	6.38
579.317	6.44
579.657	6.34
579.996	6.39
580.336	6.49
580.675	6.27
581.014	6.6
581.354	6.39
581.693	6.5
582.032	6.7
582.372	6.47
582.711	6.68
583.05	6.26
583.389	6.48
583.728	6.66
584.067	6.37
584.406	6.45
584.745	6.35
585.083	6.27
585.422	6.49
585.761	6.47
586.1	6.61
586.438	6.48
586.777	6.32
587.115	6.55
587.454	6.32
587.792	6.38
588.13	6.4
588.469	6.4
588.807	6.62
589.145	6.53
589.483	6.28
589.821	6.52
590.159	6.59
590.497	6.51
590.835	6.52
591.173	6.68
591.511	6.62
591.849	6.58
592.187	6.45
592.524	6.53
592.862	6.49
593.2	6.34
593.537	6.59
593.875	6.41
594.212	6.56
594.55	6.36
594.887	6.56
595.224	6.51
595.561	6.42
595.899	6.48
596.236	6.48
596.573	6.27
596.91	6.48
597.247	6.68
597.584	6.34
597.921	6.33
598.258	6.61
598.594	6.21
598.931	6.24
599.268	6.17
599.604	6.36
599.941	6.31
600.277	6.36
600.614	6.4
600.95	6.19
601.287	6.26
601.623	6.19
601.959	6.87
602.296	6.51
602.632	6.29
602.968	6.58
603.304	6.43
603.64	6.4
603.976	6.32
604.312	6.51
604.648	6.43
604.984	6.45
605.319	6.42
605.655	6.24
605.991	6.4
606.326	6.49
606.662	6.32
606.998	6.59
607.333	6.39
607.668	6.2
608.004	6.4
608.339	6.22
608.674	6.59
609.01	6.43
609.345	6.41
609.68	6.26
610.015	6.41
610.35	6.37
610.685	6.21
611.02	6.29
611.355	6.37
611.689	6.32
612.024	6.3
612.359	6.39
612.694	6.54
613.028	6.38
613.363	6.53
613.697	6.56
614.032	6.45
614.366	6.48
614.7	6.65
615.035	6.56
615.369	6.54
615.703	6.56
616.037	6.29
616.371	6.45
616.705	6.48
617.039	6.54
617.373	6.74
617.707	6.67
618.041	6.37
618.375	6.24
618.709	6.47
619.042	6.53
619.376	6.2
619.71	6.33
620.043	6.5
620.377	6.42
620.71	6.54
621.043	6.79
621.377	6.61
621.71	6.95
622.043	6.93
622.376	6.55
622.709	7.05
623.043	6.45
623.376	6.36
623.709	6.58
624.041	6.27
624.374	6.4
624.707	6.47
625.04	6.24
625.373	6.66
625.705	6.76
626.038	6.67
626.37	6.25
626.703	6.38
627.035	6.55
627.368	6.7
627.7	6.58
628.032	6.6
628.365	6.57
628.697	6.8
629.029	6.62
629.361	6.63
629.693	6.35
630.025	6.57
630.357	6.85
630.689	6.44
631.021	6.62
631.353	6.71
631.684	6.54
632.016	6.03
632.348	6.33
632.679	6.83
633.011	6.27
633.342	6.26
633.674	6.45
634.005	6.99
634.336	6.77
634.668	6.61
634.999	6.54
635.33	6.58
635.661	6.5
635.992	6.46
636.323	6.53
636.654	6.4
636.985	6.2
637.316	6.48
637.647	6.54
637.977	6.44
638.308	6.98
638.639	6.52
638.969	6.59
639.3	6.46
639.63	6.49
639.961	6.46
640.291	6.47
640.622	7.4
640.952	6.88
641.282	6.25
641.612	6.51
641.943	6.36
642.273	6.37
642.603	6.97
642.933	7.32
643.263	6.6
643.592	6.67
643.922	6.81
644.252	6.64
644.582	6.84
644.911	6.48
645.241	6.19
645.571	6.8
645.9	6.85
646.23	6.72
646.559	6.82
646.888	6.72
647.218	6.65
647.547	6.57
647.876	6.81
648.205	6.53
648.534	6.91
648.863	6.58
649.192	6.61
649.521	6.61
649.85	6.91
650.179	7.1
650.508	6.58
650.837	6.71
651.165	6.96
651.494	7.08
651.822	6.73
652.151	6.21
652.479	6.92
652.808	6.78
653.136	5.97
653.465	6.33
653.793	6.55
654.121	6.5
654.449	6.66
654.777	6.16
655.105	6.41
655.433	6.97
655.761	6.46
656.089	6.88
656.417	7.28
656.745	7.06
657.073	6.49
657.4	6.16
657.728	6.32
658.056	7.01
658.383	6.66
658.711	6.79
659.038	6.9
659.365	6.7
659.693	6.7
660.02	6.49
660.347	6.32
660.674	6.36
661.001	6.73
661.329	6.59
661.656	6.38
661.982	6.57
662.309	6.71
662.636	6.34
662.963	6.77
663.29	6.91
663.616	5.99
663.943	6.9
664.27	6.5
664.596	6.45
664.923	6.64
665.249	6.78
665.576	6.46
665.902	5.79
666.228	7.28
666.554	6.92
666.881	6.33
667.207	6.96
667.533	6.66
667.859	6.47
668.185	6.88
668.511	6.85
668.837	6.98
669.162	7.09
669.488	6.38
669.814	6.87
670.139	6.3
670.465	7.33
670.791	6.41
671.116	6.76
671.442	6.08
671.767	6.71
672.092	6.53
672.418	6.96
672.743	6.49
673.068	6.15
673.393	7.17
673.718	6.06
674.043	6.6
674.368	6.11
674.693	6.85
675.018	7.03
675.343	7.1
675.667	6.5
675.992	6.42
676.317	6.59
676.641	6.85
676.966	6.92
677.29	6.65
677.615	6.57
677.939	7.17
678.264	6.76
678.588	7.4
678.912	6.29
679.236	6.46
679.56	6.2
679.885	6.65
680.209	7.25
680.532	7.2
680.856	6.98
681.18	7.23
681.504	6.92
681.828	6.34
682.152	6.48
682.475	6.28
682.799	6.47
683.122	6.97
683.446	6.18
683.769	7.3
684.093	7.07
684.416	6.72
684.739	6.7
685.062	7.4
685.386	6.59
685.709	7.14
686.032	6.97
686.355	7.24
686.678	6.59
687.001	7.27
687.324	6.9
687.646	6.65
687.969	6.93
688.292	6.98
688.614	7
688.937	6.85
689.26	6.52
689.582	7.4
689.904	7.16
690.227	6.92
690.549	7.78
690.871	6.99
691.194	6.7
691.516	7.05
691.838	7.36
692.16	6.76
692.482	7.26
692.804	7.41
