Data from 21-9_chest_Reflection__2__32.txt Node

Date: Thu Dec 15 16:43:14 CST 2022
User: ToomeyLab
Spectrometer: FLMS14357
Trigger mode: 0
Integration Time (sec): 1.000000E-2
Scans to average: 100
Electric dark correction enabled: true
Nonlinearity correction enabled: false
Boxcar width: 0
XAxis mode: Wavelengths
Number of Pixels in Spectrum: 2048
>>>>>Begin Spectral Data<<<<<
189.047	15.83
189.435	15.83
189.823	15.83
190.211	-25.33
190.599	-30.06
190.987	65.87
191.375	-375.51
191.763	256.99
192.151	62.23
192.538	38.99
192.926	312.14
193.314	78.14
193.702	-14.93
194.089	-191.64
194.477	966.4
194.864	102.76
195.252	201.35
195.639	91.84
196.027	-280.25
196.414	1368.33
196.801	574.09
197.189	183.69
197.576	82.76
197.963	-34.92
198.351	38.5
198.738	4.33
199.125	-25.26
199.512	25.34
199.899	-27.22
200.286	-15.55
200.673	68.44
201.06	70.04
201.447	15.24
201.833	24.46
202.22	32.67
202.607	3.93
202.994	-1.89
203.38	19.31
203.767	2.53
204.154	-3.16
204.54	18.75
204.927	11.88
205.313	7.21
205.699	12.35
206.086	29.72
206.472	0.27
206.858	17.96
207.245	15.84
207.631	4.59
208.017	37.09
208.403	-34.39
208.789	12.56
209.175	-4.88
209.561	-28.19
209.947	-29.12
210.333	20.96
210.719	30.9
211.105	32.49
211.491	13.49
211.876	-19.63
212.262	33.84
212.648	21.97
213.034	28.81
213.419	25.46
213.805	11.05
214.19	-1.83
214.576	-6.7
214.961	45.82
215.346	0.72
215.732	20.17
216.117	19.55
216.502	-3.6
216.888	20.32
217.273	10.8
217.658	1.36
218.043	3.14
218.428	-2.86
218.813	25.08
219.198	-0.89
219.583	7.67
219.968	9.47
220.353	22.12
220.738	7.21
221.122	6.86
221.507	2.62
221.892	-12.45
222.276	-9.92
222.661	-5.32
223.046	1.74
223.43	12.66
223.815	3.29
224.199	2.99
224.583	1.69
224.968	2.78
225.352	-4.81
225.736	13.16
226.121	3.58
226.505	4.54
226.889	4.79
227.273	1.87
227.657	6.79
228.041	3.63
228.425	1.94
228.809	4.14
229.193	4.52
229.577	5.01
229.961	3.74
230.344	5.25
230.728	5.55
231.112	4.66
231.495	3.77
231.879	4.42
232.263	4.69
232.646	4.77
233.03	6.08
233.413	4.19
233.797	4.26
234.18	5.5
234.563	5.86
234.946	4.95
235.33	3.95
235.713	5.41
236.096	5.94
236.479	6.43
236.862	4.34
237.245	4.15
237.628	5.11
238.011	4.67
238.394	5.02
238.777	5.28
239.16	5.1
239.543	5.71
239.925	6.51
240.308	5.96
240.691	4.55
241.073	3.89
241.456	5.12
241.838	4.94
242.221	5.81
242.603	5.98
242.986	4.85
243.368	5.03
243.75	5.03
244.133	5.76
244.515	5.04
244.897	5.02
245.279	5
245.661	4.24
246.043	5.24
246.425	5.74
246.807	5.78
247.189	4.87
247.571	4.77
247.953	4.95
248.335	5.12
248.717	5.32
249.098	5.25
249.48	5.07
249.862	5.36
250.243	5.27
250.625	5.25
251.006	6.01
251.388	5.53
251.769	4.61
252.151	5.42
252.532	4.83
252.913	5.58
253.295	4.8
253.676	5.42
254.057	5.18
254.438	5.57
254.819	4.47
255.2	5.1
255.581	6.57
255.962	5.4
256.343	5.76
256.724	5.37
257.105	4.96
257.486	4.58
257.867	4.34
258.247	5.49
258.628	5.36
259.009	4.63
259.389	4.55
259.77	4.59
260.15	5.53
260.531	4.8
260.911	4.88
261.292	4.99
261.672	4.89
262.052	4.88
262.432	4.67
262.813	4.78
263.193	5.59
263.573	5.61
263.953	4.51
264.333	4.88
264.713	5.06
265.093	5.18
265.473	4.35
265.853	4.79
266.233	4.52
266.612	4.59
266.992	4.81
267.372	4.89
267.752	5.06
268.131	4.84
268.511	4.68
268.89	5.42
269.27	4.27
269.649	4.29
270.029	4.48
270.408	4.21
270.787	4.68
271.167	4.47
271.546	5.19
271.925	4.63
272.304	4.46
272.683	4.3
273.062	4.58
273.441	4.08
273.82	4.88
274.199	4.39
274.578	4.74
274.957	4.33
275.336	4.69
275.715	5.08
276.093	4.36
276.472	3.91
276.851	4.57
277.229	4.8
277.608	3.74
277.986	4.6
278.365	4.48
278.743	4.57
279.122	4.2
279.5	4.36
279.878	4.26
280.257	3.9
280.635	4.48
281.013	4.49
281.391	4.36
281.769	4.74
282.147	4.49
282.525	4.17
282.903	4.23
283.281	4.68
283.659	4.95
284.037	4.22
284.415	4.2
284.792	4.2
285.17	4.04
285.548	4.28
285.925	4.6
286.303	4.54
286.68	4.6
287.058	4.44
287.435	4.4
287.813	4.32
288.19	4.35
288.567	4.17
288.945	4.34
289.322	4.51
289.699	4.54
290.076	4.48
290.453	4.4
290.83	4.62
291.207	4.61
291.584	4.87
291.961	4.82
292.338	4.57
292.715	4.29
293.092	4.73
293.469	4.6
293.845	5.09
294.222	4.96
294.599	4.54
294.975	4.28
295.352	5.05
295.728	4.76
296.105	4.77
296.481	4.94
296.858	4.86
297.234	4.24
297.61	4.87
297.986	5.06
298.363	4.78
298.739	5.24
299.115	4.72
299.491	5.02
299.867	4.93
300.243	4.61
300.619	4.86
300.995	4.96
301.371	5.11
301.746	5.14
302.122	4.65
302.498	4.9
302.874	5.29
303.249	4.99
303.625	4.56
304	5.16
304.376	5.38
304.751	5.33
305.127	5.27
305.502	5.16
305.878	5.24
306.253	4.77
306.628	5.59
307.003	5.04
307.378	5.23
307.754	5.59
308.129	5.03
308.504	5.49
308.879	5.4
309.254	5.75
309.629	5.59
310.003	5.06
310.378	5.76
310.753	5.68
311.128	5.08
311.502	5.42
311.877	5.37
312.252	5.65
312.626	5.95
313.001	5.77
313.375	5.43
313.75	5.6
314.124	5.83
314.498	5.77
314.873	5.19
315.247	5.33
315.621	5.43
315.995	5.54
316.369	5.11
316.743	5.56
317.117	5.92
317.491	5.83
317.865	5.28
318.239	6.27
318.613	5.62
318.987	5.36
319.361	5.74
319.734	5.92
320.108	5.72
320.482	5.81
320.855	5.8
321.229	6.19
321.602	5.77
321.976	5.41
322.349	6.56
322.723	6.18
323.096	6.23
323.469	5.75
323.843	6.04
324.216	5.77
324.589	6.23
324.962	5.61
325.335	6
325.708	5.87
326.081	6.12
326.454	5.96
326.827	5.97
327.2	5.64
327.573	6.15
327.945	5.76
328.318	5.79
328.691	6.17
329.063	5.91
329.436	5.78
329.809	6.39
330.181	6.79
330.553	6.33
330.926	6.65
331.298	5.79
331.671	6.42
332.043	6.69
332.415	6.01
332.787	6.92
333.159	6
333.532	6.76
333.904	6.33
334.276	6.46
334.648	6.09
335.02	6.07
335.391	5.92
335.763	6.46
336.135	5.94
336.507	6.43
336.879	6.39
337.25	6.4
337.622	6.21
337.993	6.22
338.365	6.2
338.736	6.42
339.108	5.81
339.479	6.16
339.851	6.31
340.222	6.72
340.593	6.49
340.964	6.61
341.336	6.22
341.707	6.21
342.078	6.08
342.449	6.09
342.82	6.26
343.191	6.37
343.562	6.34
343.933	6.39
344.303	6.5
344.674	6.19
345.045	6.35
345.416	6.54
345.786	6.57
346.157	6.5
346.527	6.36
346.898	6.24
347.268	6.48
347.639	6.2
348.009	6.2
348.38	6.13
348.75	6.43
349.12	6.16
349.49	6.38
349.861	6.29
350.231	6.36
350.601	6.4
350.971	6.19
351.341	6.78
351.711	6.66
352.081	6.14
352.45	6.36
352.82	6.03
353.19	6.17
353.56	6.4
353.929	6.44
354.299	6.9
354.669	6.5
355.038	6.7
355.408	6.77
355.777	6.73
356.147	6.71
356.516	6.23
356.885	6.51
357.254	6.36
357.624	6.01
357.993	6.36
358.362	6.66
358.731	6.54
359.1	6.43
359.469	6.73
359.838	6.81
360.207	6.57
360.576	6.39
360.945	7.13
361.314	6.49
361.682	6.35
362.051	6.53
362.42	6.66
362.788	6.74
363.157	6.38
363.525	6.56
363.894	6.62
364.262	6.66
364.631	6.61
364.999	6.63
365.367	6.51
365.735	6.6
366.104	6.71
366.472	6.6
366.84	6.63
367.208	6.84
367.576	6.89
367.944	6.66
368.312	6.5
368.68	6.98
369.048	6.73
369.416	6.42
369.783	6.79
370.151	7.19
370.519	6.82
370.886	6.86
371.254	7.01
371.621	6.69
371.989	6.97
372.356	6.74
372.724	6.73
373.091	6.43
373.458	6.74
373.826	7.12
374.193	6.87
374.56	7.06
374.927	6.68
375.294	7.15
375.661	6.78
376.028	6.75
376.395	7
376.762	6.65
377.129	6.7
377.496	6.91
377.863	6.92
378.229	7.05
378.596	7.03
378.963	7
379.329	6.87
379.696	6.75
380.062	6.81
380.429	6.5
380.795	7.22
381.161	6.64
381.528	6.59
381.894	6.77
382.26	6.84
382.626	7.03
382.993	7.31
383.359	6.62
383.725	6.69
384.091	6.97
384.457	6.71
384.823	7.05
385.188	7
385.554	6.69
385.92	6.79
386.286	7.04
386.651	6.78
387.017	7.17
387.383	7.04
387.748	7.22
388.114	6.87
388.479	6.8
388.845	6.7
389.21	7
389.575	7.09
389.94	7.18
390.306	7.16
390.671	6.94
391.036	6.88
391.401	6.96
391.766	7
392.131	7.32
392.496	6.93
392.861	6.78
393.226	7.09
393.591	7.08
393.956	7.08
394.32	7.12
394.685	6.92
395.05	7.16
395.414	7.01
395.779	7.07
396.143	6.95
396.508	7.03
396.872	7
397.236	7.22
397.601	7.19
397.965	7.04
398.329	7.28
398.694	6.69
399.058	7.05
399.422	7.2
399.786	6.99
400.15	7.15
400.514	7.35
400.878	7.11
401.242	6.98
401.605	7.19
401.969	7.14
402.333	7.04
402.697	7.3
403.06	7.15
403.424	7.04
403.787	7.01
404.151	7.2
404.514	7.37
404.878	7.11
405.241	7.21
405.604	6.99
405.968	7.12
406.331	7.16
406.694	6.95
407.057	7.02
407.42	7.06
407.783	7.31
408.146	7.09
408.509	7.35
408.872	7.23
409.235	7.34
409.598	7.37
409.961	7.29
410.323	6.97
410.686	7.29
411.049	7.37
411.411	7.03
411.774	7.08
412.136	7.21
412.499	7.23
412.861	6.9
413.223	7.21
413.586	7.17
413.948	7.24
414.31	7.4
414.672	7.24
415.035	7.37
415.397	7.38
415.759	7.36
416.121	7.52
416.483	7.24
416.845	7.22
417.206	7.23
417.568	7.22
417.93	7.45
418.292	7.14
418.653	7.26
419.015	7.35
419.377	7.15
419.738	7.28
420.1	7.29
420.461	7.13
420.822	7.21
421.184	7.12
421.545	7.31
421.906	7.33
422.267	7.1
422.629	7.05
422.99	7.17
423.351	7.12
423.712	7.31
424.073	7.24
424.434	7.37
424.795	7.15
425.155	7.14
425.516	7.23
425.877	7.24
426.238	7.16
426.598	7.23
426.959	7.21
427.32	7.28
427.68	7.32
428.041	7.28
428.401	7.36
428.761	7.36
429.122	7.4
429.482	7.37
429.842	7.35
430.202	7.6
430.563	7.47
430.923	7.52
431.283	7.44
431.643	7.52
432.003	7.55
432.363	7.69
432.722	7.54
433.082	7.53
433.442	7.41
433.802	7.27
434.161	7.6
434.521	7.39
434.881	7.42
435.24	7.38
435.6	7.62
435.959	7.64
436.319	7.46
436.678	7.51
437.037	7.45
437.396	7.54
437.756	7.43
438.115	7.58
438.474	7.52
438.833	7.49
439.192	7.56
439.551	7.44
439.91	7.62
440.269	7.43
440.628	7.4
440.987	7.57
441.345	7.6
441.704	7.54
442.063	7.44
442.421	7.4
442.78	7.52
443.138	7.57
443.497	7.47
443.855	7.64
444.214	7.46
444.572	7.77
444.93	7.62
445.288	7.63
445.647	7.49
446.005	7.5
446.363	7.74
446.721	7.59
447.079	7.46
447.437	7.51
447.795	7.49
448.153	7.53
448.51	7.51
448.868	7.46
449.226	7.61
449.584	7.49
449.941	7.56
450.299	7.69
450.656	7.69
451.014	7.76
451.371	7.71
451.729	7.78
452.086	7.74
452.443	7.79
452.801	7.71
453.158	7.95
453.515	7.66
453.872	7.73
454.229	7.59
454.586	7.69
454.943	7.88
455.3	7.76
455.657	7.77
456.014	7.74
456.371	7.71
456.727	7.88
457.084	8.03
457.441	7.95
457.797	7.91
458.154	7.85
458.51	7.87
458.867	7.79
459.223	7.75
459.58	7.81
459.936	7.81
460.292	7.6
460.648	7.75
461.005	7.6
461.361	7.63
461.717	7.6
462.073	7.83
462.429	7.71
462.785	7.87
463.141	7.82
463.496	7.85
463.852	7.88
464.208	7.96
464.564	7.85
464.919	7.86
465.275	8.06
465.631	8.03
465.986	8.02
466.342	7.9
466.697	7.91
467.052	8.05
467.408	8
467.763	7.93
468.118	7.79
468.473	7.91
468.829	7.9
469.184	8.16
469.539	7.88
469.894	7.92
470.249	7.98
470.603	8.17
470.958	8.06
471.313	8.07
471.668	7.88
472.023	8.03
472.377	8.09
472.732	8.07
473.086	8.17
473.441	7.99
473.795	8.16
474.15	8.06
474.504	8.13
474.859	7.97
475.213	8.06
475.567	8.05
475.921	8.09
476.275	8.26
476.63	8.23
476.984	8.11
477.338	8.18
477.692	7.97
478.045	8.13
478.399	8.07
478.753	7.98
479.107	8.1
479.461	8.08
479.814	8.07
480.168	8.04
480.521	8.08
480.875	8.1
481.228	8.02
481.582	8.11
481.935	8.23
482.289	8.11
482.642	8.18
482.995	7.99
483.348	7.98
483.701	8.15
484.055	8.02
484.408	7.99
484.761	7.85
485.114	7.69
485.466	7.7
485.819	7.75
486.172	7.75
486.525	7.81
486.878	7.88
487.23	7.94
487.583	7.96
487.936	8.03
488.288	7.93
488.641	7.93
488.993	7.85
489.345	7.9
489.698	7.88
490.05	7.92
490.402	7.95
490.754	7.98
491.107	7.96
491.459	8.05
491.811	8.19
492.163	8.1
492.515	8.08
492.866	7.96
493.218	7.93
493.57	8.02
493.922	8.04
494.274	8.15
494.625	8.27
494.977	8.23
495.328	8.35
495.68	8.37
496.031	8.31
496.383	8.33
496.734	8.3
497.086	8.45
497.437	8.37
497.788	8.35
498.139	8.36
498.49	8.4
498.842	8.46
499.193	8.24
499.544	8.36
499.894	8.42
500.245	8.49
500.596	8.43
500.947	8.51
501.298	8.36
501.648	8.51
501.999	8.51
502.35	8.28
502.7	8.69
503.051	8.52
503.401	8.54
503.752	8.4
504.102	8.49
504.452	8.41
504.803	8.51
505.153	8.45
505.503	8.65
505.853	8.61
506.203	8.59
506.553	8.55
506.903	8.57
507.253	8.55
507.603	8.69
507.953	8.43
508.303	8.76
508.652	8.48
509.002	8.68
509.352	8.69
509.701	8.48
510.051	8.76
510.4	8.72
510.75	8.62
511.099	8.48
511.449	8.63
511.798	8.61
512.147	8.61
512.496	8.76
512.846	8.57
513.195	8.68
513.544	8.69
513.893	8.69
514.242	8.64
514.591	8.62
514.939	8.77
515.288	8.76
515.637	8.65
515.986	8.84
516.334	8.76
516.683	8.74
517.032	8.75
517.38	8.79
517.729	8.69
518.077	8.87
518.426	8.82
518.774	8.78
519.122	8.86
519.47	8.73
519.819	8.69
520.167	8.67
520.515	8.81
520.863	8.76
521.211	8.76
521.559	8.81
521.907	8.84
522.255	8.77
522.602	8.89
522.95	8.96
523.298	8.95
523.645	8.99
523.993	8.84
524.341	9.14
524.688	8.94
525.036	9.06
525.383	8.97
525.73	8.95
526.078	9.01
526.425	8.87
526.772	8.97
527.119	8.91
527.466	8.98
527.814	8.99
528.161	9.02
528.508	9.03
528.854	8.95
529.201	8.82
529.548	8.76
529.895	8.67
530.242	8.74
530.588	8.72
530.935	8.79
531.282	8.73
531.628	8.86
531.975	8.93
532.321	9.02
532.667	9.03
533.014	9.18
533.36	9.12
533.706	9.11
534.052	9.14
534.399	9.04
534.745	9.03
535.091	8.98
535.437	9.07
535.783	9.02
536.129	9.1
536.474	9.18
536.82	9.16
537.166	9.27
537.512	9.19
537.857	9.32
538.203	9.24
538.549	9.19
538.894	9.23
539.239	9.25
539.585	9.41
539.93	9.45
540.276	9.4
540.621	9.5
540.966	9.47
541.311	9.48
541.656	9.38
542.001	9.28
542.346	9.29
542.691	9.14
543.036	9.23
543.381	9.26
543.726	9.34
544.071	9.33
544.415	9.4
544.76	9.45
545.105	9.5
545.449	9.51
545.794	9.5
546.138	9.64
546.483	9.59
546.827	9.62
547.171	9.58
547.516	9.79
547.86	9.84
548.204	9.64
548.548	9.72
548.892	9.71
549.236	9.71
549.58	9.83
549.924	9.87
550.268	9.95
550.612	10.06
550.956	10.1
551.3	10.08
551.643	9.89
551.987	10.11
552.33	10.29
552.674	10.05
553.017	10.06
553.361	10.09
553.704	10.11
554.048	10.03
554.391	10.07
554.734	10.13
555.077	10.19
555.42	10.03
555.764	10.15
556.107	10.3
556.45	10.44
556.793	10.35
557.135	10.33
557.478	10.27
557.821	10.45
558.164	10.31
558.507	10.05
558.849	10.39
559.192	10.49
559.534	10.32
559.877	10.38
560.219	10.43
560.562	10.3
560.904	10.59
561.246	10.36
561.589	10.51
561.931	10.52
562.273	10.58
562.615	10.46
562.957	10.48
563.299	10.65
563.641	10.63
563.983	10.36
564.325	10.76
564.667	10.82
565.008	10.63
565.35	10.65
565.692	10.68
566.033	10.56
566.375	10.53
566.716	10.55
567.058	10.82
567.399	10.73
567.741	10.74
568.082	10.73
568.423	10.62
568.764	10.81
569.105	10.73
569.447	10.7
569.788	10.96
570.129	10.95
570.47	10.97
570.811	10.77
571.151	11.05
571.492	10.81
571.833	10.98
572.174	11.12
572.514	11.17
572.855	11.29
573.195	10.99
573.536	11.05
573.876	10.99
574.217	11
574.557	11
574.898	11.08
575.238	11.23
575.578	11.32
575.918	11.28
576.258	11.5
576.598	11.23
576.938	11.35
577.278	11.29
577.618	11.32
577.958	11.37
578.298	11.27
578.638	11.38
578.977	11.39
579.317	11.44
579.657	11.57
579.996	11.46
580.336	11.67
580.675	11.71
581.014	11.69
581.354	11.46
581.693	11.75
582.032	11.81
582.372	11.83
582.711	11.76
583.05	11.76
583.389	11.94
583.728	11.76
584.067	11.71
584.406	11.77
584.745	11.77
585.083	11.95
585.422	12.2
585.761	12.08
586.1	11.97
586.438	11.88
586.777	12.05
587.115	11.95
587.454	11.94
587.792	12.02
588.13	12.06
588.469	12.06
588.807	12.17
589.145	12.04
589.483	12.05
589.821	12.24
590.159	12.32
590.497	12.26
590.835	12.28
591.173	12.25
591.511	12.41
591.849	12.33
592.187	12.05
592.524	12.43
592.862	12.46
593.2	12.7
593.537	12.35
593.875	12.32
594.212	12.62
594.55	12.64
594.887	12.81
595.224	12.67
595.561	12.58
595.899	12.61
596.236	12.74
596.573	12.67
596.91	12.83
597.247	12.92
597.584	12.63
597.921	12.53
598.258	12.89
598.594	12.8
598.931	12.54
599.268	12.74
599.604	12.85
599.941	12.8
600.277	12.9
600.614	12.77
600.95	12.75
601.287	12.87
601.623	12.97
601.959	13.17
602.296	13.01
602.632	13.18
602.968	13
603.304	13.09
603.64	13.35
603.976	13.03
604.312	12.89
604.648	13.3
604.984	13.27
605.319	13.38
605.655	13.23
605.991	13.17
606.326	13.15
606.662	13.23
606.998	13.15
607.333	13.27
607.668	13.22
608.004	13.3
608.339	13.24
608.674	13.57
609.01	13.86
609.345	13.59
609.68	13.39
610.015	13.52
610.35	13.83
610.685	13.23
611.02	13.45
611.355	13.57
611.689	13.63
612.024	13.63
612.359	13.86
612.694	13.96
613.028	13.49
613.363	13.74
613.697	13.97
614.032	13.75
614.366	13.82
614.7	14.05
615.035	14.14
615.369	14.24
615.703	14.23
616.037	14.31
616.371	14.31
616.705	14.07
617.039	14.4
617.373	14.05
617.707	14.52
618.041	14.02
618.375	13.91
618.709	14.66
619.042	14.32
619.376	14.15
619.71	13.88
620.043	14.77
620.377	14.47
620.71	14.5
621.043	15
621.377	14.51
621.71	14.68
622.043	14.52
622.376	14.49
622.709	14.98
623.043	14.62
623.376	14.43
623.709	14.67
624.041	14.64
624.374	14.92
624.707	14.61
625.04	14.67
625.373	14.94
625.705	14.82
626.038	14.86
626.37	14.97
626.703	15.05
627.035	15.13
627.368	15.4
627.7	15.01
628.032	14.96
628.365	15.2
628.697	15.07
629.029	15.16
629.361	15.37
629.693	15.18
630.025	15.42
630.357	15.63
630.689	15.09
631.021	15.1
631.353	15.6
631.684	15.25
632.016	15.02
632.348	15.31
632.679	15.51
633.011	15.32
633.342	15.33
633.674	15.04
634.005	15.51
634.336	15.4
634.668	15.29
634.999	15.22
635.33	15.45
635.661	15.68
635.992	15.71
636.323	15.97
636.654	15.44
636.985	15.64
637.316	15.6
637.647	15.95
637.977	15.92
638.308	16.39
638.639	15.63
638.969	15.87
639.3	16.01
639.63	15.7
639.961	15.89
640.291	16.17
640.622	16.22
640.952	16.06
641.282	15.72
641.612	16.17
641.943	16.01
642.273	16.13
642.603	16.27
642.933	16.66
643.263	16.37
643.592	16.86
643.922	16.67
644.252	16.45
644.582	16.38
644.911	16.33
645.241	16.4
645.571	16.41
645.9	16.47
646.23	16.72
646.559	16.46
646.888	16.67
647.218	16.32
647.547	16.98
647.876	16.51
648.205	16.41
648.534	16.77
648.863	16.71
649.192	16.45
649.521	17.11
649.85	16.95
650.179	17.11
650.508	17.04
650.837	16.84
651.165	16.63
651.494	16.6
651.822	17.34
652.151	16.65
652.479	17.12
652.808	17.17
653.136	16.65
653.465	16.86
653.793	16.86
654.121	17.25
654.449	17.31
654.777	16.81
655.105	17.34
655.433	17.22
655.761	17.5
656.089	17.54
656.417	18.13
656.745	17.2
657.073	17.21
657.4	17.43
657.728	17.43
658.056	17.41
658.383	17.46
658.711	18.05
659.038	17.95
659.365	17.58
659.693	17.79
660.02	17.54
660.347	17.61
660.674	17.67
661.001	17.69
661.329	17.62
661.656	17.58
661.982	17.86
662.309	17.92
662.636	17.93
662.963	18.16
663.29	18
663.616	17.82
663.943	18.48
664.27	17.88
664.596	17.87
664.923	18.17
665.249	17.91
665.576	18.11
665.902	17.86
666.228	17.83
666.554	18.71
666.881	17.98
667.207	18.32
667.533	18.28
667.859	18.61
668.185	19.18
668.511	19.21
668.837	19.12
669.162	18.55
669.488	18.16
669.814	18.83
670.139	18.52
670.465	19.27
670.791	18.07
671.116	18.51
671.442	18.01
671.767	18.67
672.092	18.66
672.418	18.93
672.743	18.62
673.068	18.51
673.393	19.01
673.718	18.36
674.043	19.26
674.368	18.87
674.693	19.18
675.018	19.33
675.343	19.18
675.667	19.09
675.992	19.36
676.317	18.51
676.641	19.48
676.966	19.03
677.29	18.56
677.615	19.07
677.939	19.72
678.264	18.86
678.588	19.37
678.912	18.97
679.236	18.94
679.56	18.55
679.885	19.5
680.209	19.48
680.532	20.19
680.856	19.64
681.18	20.41
681.504	19.74
681.828	19.63
682.152	19.35
682.475	19.78
682.799	19.23
683.122	19.53
683.446	19.05
