Data from 21-9_chest_Reflection__0__30.txt Node

Date: Thu Dec 15 16:42:42 CST 2022
User: ToomeyLab
Spectrometer: FLMS14357
Trigger mode: 0
Integration Time (sec): 1.000000E-2
Scans to average: 100
Electric dark correction enabled: true
Nonlinearity correction enabled: false
Boxcar width: 0
XAxis mode: Wavelengths
Number of Pixels in Spectrum: 2048
>>>>>Begin Spectral Data<<<<<
189.047	39.25
189.435	39.25
189.823	39.25
190.211	37.02
190.599	96.17
190.987	67.49
191.375	-49.8
191.763	173.09
192.151	-11.08
192.538	146.22
192.926	410.1
193.314	75.06
193.702	230.93
194.089	112.33
194.477	-3835.2
194.864	127.32
195.252	418.43
195.639	46.44
196.027	-45.96
196.414	6.33
196.801	403.32
197.189	-66.54
197.576	78.25
197.963	15.97
198.351	42.12
198.738	18.24
199.125	-6.6
199.512	47.02
199.899	-5.62
200.286	14.07
200.673	31.57
201.06	24.42
201.447	47.27
201.833	73.81
202.22	34.89
202.607	-9.47
202.994	-18.1
203.38	31.8
203.767	24.11
204.154	14.02
204.54	-32.19
204.927	38.9
205.313	51.18
205.699	50.17
206.086	50.97
206.472	44.22
206.858	21.34
207.245	3.29
207.631	15.5
208.017	45.39
208.403	-87.34
208.789	4.12
209.175	13.48
209.561	-52.77
209.947	3.17
210.333	31.16
210.719	20.38
211.105	22.7
211.491	10.03
211.876	26.65
212.262	32.05
212.648	45.35
213.034	45.94
213.419	11.6
213.805	5.5
214.19	1.02
214.576	8.2
214.961	13.99
215.346	6.85
215.732	10.14
216.117	3.92
216.502	25.47
216.888	24.22
217.273	36.61
217.658	-5.85
218.043	-17.42
218.428	0.53
218.813	-0.44
219.198	-7.92
219.583	16.66
219.968	6.04
220.353	8.09
220.738	10.93
221.122	11.56
221.507	13.25
221.892	-2.58
222.276	-8.25
222.661	9.46
223.046	4.06
223.43	18.99
223.815	3.14
224.199	6.12
224.583	5.77
224.968	3.67
225.352	2.84
225.736	11.67
226.121	14.95
226.505	3.21
226.889	4.12
227.273	-1.06
227.657	2.21
228.041	6.1
228.425	0.27
228.809	4.58
229.193	4.04
229.577	3.8
229.961	3.3
230.344	3.52
230.728	3.92
231.112	4.32
231.495	2.57
231.879	4.41
232.263	3.77
232.646	3.46
233.03	4.06
233.413	4.09
233.797	3.17
234.18	4.35
234.563	3.83
234.946	2.55
235.33	4.77
235.713	3.93
236.096	3.66
236.479	4.98
236.862	4.25
237.245	5.16
237.628	6.48
238.011	4.41
238.394	4.01
238.777	5.02
239.16	6.88
239.543	4.61
239.925	4.03
240.308	3.51
240.691	4.8
241.073	4.08
241.456	4.24
241.838	4.91
242.221	3.95
242.603	3.91
242.986	4.25
243.368	4.27
243.75	4.3
244.133	4.7
244.515	4.71
244.897	4.24
245.279	4.08
245.661	4.59
246.043	5.57
246.425	5.33
246.807	4.81
247.189	4.24
247.571	4.65
247.953	4.44
248.335	4.73
248.717	4.52
249.098	4.73
249.48	4.47
249.862	5.13
250.243	4.66
250.625	4.65
251.006	5.24
251.388	5.45
251.769	4.45
252.151	5.22
252.532	4.53
252.913	4.74
253.295	4.98
253.676	4.88
254.057	4.78
254.438	5.37
254.819	4.53
255.2	4.45
255.581	5.97
255.962	4.93
256.343	6.7
256.724	5.31
257.105	5.06
257.486	3.79
257.867	4.81
258.247	5.44
258.628	4.5
259.009	4.63
259.389	3.61
259.77	4.68
260.15	5.23
260.531	4.6
260.911	4.36
261.292	4.58
261.672	4.38
262.052	4.64
262.432	4.49
262.813	4.96
263.193	5.12
263.573	5.16
263.953	4.79
264.333	4.76
264.713	4.7
265.093	4.97
265.473	4.09
265.853	4.53
266.233	4.82
266.612	3.85
266.992	4.71
267.372	5.03
267.752	4.73
268.131	4.09
268.511	4.27
268.89	5.1
269.27	4.31
269.649	4.59
270.029	4.27
270.408	4.54
270.787	4.76
271.167	4.57
271.546	4.95
271.925	4.33
272.304	4.24
272.683	4.44
273.062	4.22
273.441	4.09
273.82	4.55
274.199	4.4
274.578	4.48
274.957	4.31
275.336	4.84
275.715	4.92
276.093	3.8
276.472	3.68
276.851	4.84
277.229	4.24
277.608	3.62
277.986	3.95
278.365	4.36
278.743	4.51
279.122	4.13
279.5	4.12
279.878	4
280.257	4.04
280.635	4.52
281.013	4.08
281.391	4.19
281.769	4.67
282.147	4.21
282.525	4.27
282.903	3.92
283.281	4.85
283.659	4.59
284.037	4.06
284.415	4.03
284.792	4.32
285.17	4.17
285.548	4.13
285.925	4.23
286.303	4.54
286.68	4.33
287.058	4.53
287.435	4.05
287.813	4.28
288.19	4.1
288.567	4.5
288.945	4.24
289.322	4.59
289.699	4.53
290.076	4.29
290.453	4.33
290.83	4.79
291.207	4.54
291.584	4.98
291.961	4.7
292.338	4.84
292.715	4.74
293.092	5.03
293.469	4.71
293.845	4.92
294.222	5.13
294.599	4.88
294.975	4.64
295.352	5.04
295.728	4.92
296.105	5.06
296.481	5.4
296.858	5.48
297.234	4.92
297.61	5.2
297.986	5.71
298.363	5.24
298.739	5.47
299.115	5.22
299.491	5.81
299.867	5.23
300.243	5.13
300.619	5.49
300.995	5.69
301.371	5.6
301.746	5.69
302.122	5.6
302.498	5.54
302.874	6.14
303.249	5.65
303.625	5.28
304	6.2
304.376	6.52
304.751	5.8
305.127	5.61
305.502	5.89
305.878	6.02
306.253	5.69
306.628	5.94
307.003	5.96
307.378	6.16
307.754	5.84
308.129	5.97
308.504	6.4
308.879	6.25
309.254	6.43
309.629	6.61
310.003	6.51
310.378	6.24
310.753	6.22
311.128	5.85
311.502	6.29
311.877	6.56
312.252	6.45
312.626	6.74
313.001	6.52
313.375	6.7
313.75	6.77
314.124	6.43
314.498	7.11
314.873	6.46
315.247	6.4
315.621	6.11
315.995	6.39
316.369	6.36
316.743	6.77
317.117	6.72
317.491	7.05
317.865	6.27
318.239	7.23
318.613	6.2
318.987	6.39
319.361	6.82
319.734	6.53
320.108	7.58
320.482	6.71
320.855	6.59
321.229	7.06
321.602	6.67
321.976	6.71
322.349	7.43
322.723	7.13
323.096	7.3
323.469	6.71
323.843	6.52
324.216	6.5
324.589	7.03
324.962	7.1
325.335	6.89
325.708	6.92
326.081	7.23
326.454	7.06
326.827	6.91
327.2	6.86
327.573	7.65
327.945	7
328.318	6.97
328.691	7.02
329.063	6.86
329.436	6.8
329.809	7.18
330.181	7.63
330.553	7.58
330.926	7.76
331.298	6.99
331.671	6.8
332.043	6.84
332.415	6.87
332.787	7.31
333.159	6.89
333.532	7.3
333.904	7.31
334.276	7.04
334.648	7.07
335.02	7.24
335.391	7.07
335.763	7.29
336.135	7.63
336.507	7.11
336.879	7.24
337.25	7.39
337.622	7.12
337.993	7
338.365	7.38
338.736	7.51
339.108	7.26
339.479	6.93
339.851	7.13
340.222	7.61
340.593	7.07
340.964	7.12
341.336	7.18
341.707	7.04
342.078	6.84
342.449	7.26
342.82	7.11
343.191	7.2
343.562	7.15
343.933	7.08
344.303	7.28
344.674	7.29
345.045	7.38
345.416	7.45
345.786	7.1
346.157	7.66
346.527	7.29
346.898	7.25
347.268	7.39
347.639	7.04
348.009	7.73
348.38	6.92
348.75	7.58
349.12	7.54
349.49	7.59
349.861	7.82
350.231	7.3
350.601	7.66
350.971	7.07
351.341	7.47
351.711	7.52
352.081	7.17
352.45	7.35
352.82	6.96
353.19	7.25
353.56	7.12
353.929	7.33
354.299	7.48
354.669	7.75
355.038	7.41
355.408	7.64
355.777	7.83
356.147	7.56
356.516	7.41
356.885	7.79
357.254	7.43
357.624	7.19
357.993	7.58
358.362	7.5
358.731	7.43
359.1	7.34
359.469	7.49
359.838	7.52
360.207	7.68
360.576	7.63
360.945	7.36
361.314	7.6
361.682	7.27
362.051	7.57
362.42	7.43
362.788	7.66
363.157	7.1
363.525	7.31
363.894	7.25
364.262	7.44
364.631	7.65
364.999	7.49
365.367	7.71
365.735	7.16
366.104	7.51
366.472	7.67
366.84	7.52
367.208	8.03
367.576	7.55
367.944	7.57
368.312	7.42
368.68	7.97
369.048	7.38
369.416	7.27
369.783	7.52
370.151	7.92
370.519	8.01
370.886	7.7
371.254	7.92
371.621	7.81
371.989	7.83
372.356	7.57
372.724	7.64
373.091	7.43
373.458	7.59
373.826	7.88
374.193	7.66
374.56	7.96
374.927	7.59
375.294	8.07
375.661	7.62
376.028	7.67
376.395	7.85
376.762	7.4
377.129	7.56
377.496	7.64
377.863	7.71
378.229	7.92
378.596	7.76
378.963	7.95
379.329	7.96
379.696	7.62
380.062	7.88
380.429	7.56
380.795	7.98
381.161	7.62
381.528	7.48
381.894	7.56
382.26	7.66
382.626	8.11
382.993	8.15
383.359	7.66
383.725	7.67
384.091	7.96
384.457	7.7
384.823	7.86
385.188	8.11
385.554	7.85
385.92	7.6
386.286	7.92
386.651	7.48
387.017	8.06
387.383	7.67
387.748	8.06
388.114	7.87
388.479	7.82
388.845	7.7
389.21	7.91
389.575	8.18
389.94	7.99
390.306	7.96
390.671	7.97
391.036	7.8
391.401	7.85
391.766	7.75
392.131	8.15
392.496	7.85
392.861	7.99
393.226	7.69
393.591	8.13
393.956	7.87
394.32	8.09
394.685	7.84
395.05	8
395.414	7.98
395.779	8.18
396.143	7.9
396.508	7.98
396.872	7.93
397.236	8.11
397.601	8.02
397.965	8.1
398.329	7.96
398.694	7.9
399.058	8.09
399.422	7.94
399.786	7.97
400.15	8.07
400.514	8.09
400.878	8.02
401.242	7.92
401.605	8.1
401.969	7.91
402.333	7.84
402.697	8.25
403.06	8.16
403.424	8.07
403.787	8.06
404.151	8.09
404.514	8
404.878	7.83
405.241	8
405.604	7.96
405.968	7.97
406.331	8.07
406.694	7.91
407.057	7.94
407.42	8
407.783	8.21
408.146	8.06
408.509	8.07
408.872	8.13
409.235	8.36
409.598	8.18
409.961	8.38
410.323	8.2
410.686	8.32
411.049	7.92
411.411	8.11
411.774	8.2
412.136	8.02
412.499	8.35
412.861	7.96
413.223	8.08
413.586	8.41
413.948	8.48
414.31	8.27
414.672	8.14
415.035	8.36
415.397	8.35
415.759	8.1
416.121	8.21
416.483	8.37
416.845	8.15
417.206	8.35
417.568	8.19
417.93	8.16
418.292	8.09
418.653	8.14
419.015	7.99
419.377	8.12
419.738	8.16
420.1	8.21
420.461	7.99
420.822	8.11
421.184	8.12
421.545	8.13
421.906	8.15
422.267	7.94
422.629	8.03
422.99	7.99
423.351	8.03
423.712	8.09
424.073	8.05
424.434	8.22
424.795	8.07
425.155	8.05
425.516	8.04
425.877	8.11
426.238	8.11
426.598	8.17
426.959	8.21
427.32	8.25
427.68	8.26
428.041	8.33
428.401	8.21
428.761	8.38
429.122	8.3
429.482	8.34
429.842	8.27
430.202	8.42
430.563	8.45
430.923	8.44
431.283	8.37
431.643	8.54
432.003	8.46
432.363	8.57
432.722	8.6
433.082	8.5
433.442	8.42
433.802	8.33
434.161	8.47
434.521	8.43
434.881	8.37
435.24	8.39
435.6	8.47
435.959	8.59
436.319	8.41
436.678	8.55
437.037	8.48
437.396	8.6
437.756	8.47
438.115	8.6
438.474	8.57
438.833	8.62
439.192	8.5
439.551	8.3
439.91	8.5
440.269	8.5
440.628	8.47
440.987	8.42
441.345	8.43
441.704	8.49
442.063	8.48
442.421	8.45
442.78	8.41
443.138	8.59
443.497	8.47
443.855	8.55
444.214	8.41
444.572	8.75
444.93	8.5
445.288	8.74
445.647	8.62
446.005	8.53
446.363	8.66
446.721	8.66
447.079	8.42
447.437	8.66
447.795	8.49
448.153	8.51
448.51	8.57
448.868	8.47
449.226	8.58
449.584	8.6
449.941	8.72
450.299	8.6
450.656	8.69
451.014	8.72
451.371	8.79
451.729	8.66
452.086	8.76
452.443	8.84
452.801	8.75
453.158	8.96
453.515	8.56
453.872	8.79
454.229	8.58
454.586	8.64
454.943	8.75
455.3	8.86
455.657	8.77
456.014	8.86
456.371	8.81
456.727	9.05
457.084	8.94
457.441	8.87
457.797	8.93
458.154	8.89
458.51	8.75
458.867	8.8
459.223	9.02
459.58	8.87
459.936	8.79
460.292	8.79
460.648	8.79
461.005	8.78
461.361	8.77
461.717	8.69
462.073	8.86
462.429	9
462.785	9.1
463.141	8.96
463.496	9.06
463.852	9.06
464.208	9.04
464.564	9.07
464.919	9.04
465.275	9
465.631	9.19
465.986	9.16
466.342	8.88
466.697	8.94
467.052	9.09
467.408	9.17
467.763	9.16
468.118	8.86
468.473	9.11
468.829	8.97
469.184	9.29
469.539	8.94
469.894	9.22
470.249	9.22
470.603	9.36
470.958	9.23
471.313	9.28
471.668	9.27
472.023	9.1
472.377	9.22
472.732	9.39
473.086	9.26
473.441	9.18
473.795	9.37
474.15	9.21
474.504	9.21
474.859	9.2
475.213	9.36
475.567	9.19
475.921	9.21
476.275	9.34
476.63	9.37
476.984	9.24
477.338	9.46
477.692	9.26
478.045	9.39
478.399	9.22
478.753	9.37
479.107	9.29
479.461	9.26
479.814	9.31
480.168	9.34
480.521	9.37
480.875	9.49
481.228	9.38
481.582	9.31
481.935	9.45
482.289	9.37
482.642	9.46
482.995	9.34
483.348	9.18
483.701	9.32
484.055	9.25
484.408	9.2
484.761	9.06
485.114	8.84
485.466	8.8
485.819	8.91
486.172	8.98
486.525	9.07
486.878	9.22
487.23	9.19
487.583	9.25
487.936	9.22
488.288	9.12
488.641	9.13
488.993	9.05
489.345	9.08
489.698	9.1
490.05	9.18
490.402	9.22
490.754	9.3
491.107	9.34
491.459	9.48
491.811	9.54
492.163	9.44
492.515	9.27
492.866	9.24
493.218	9.15
493.57	9.25
493.922	9.31
494.274	9.51
494.625	9.59
494.977	9.66
495.328	9.77
495.68	9.77
496.031	9.77
496.383	9.72
496.734	9.63
497.086	9.86
497.437	9.8
497.788	9.72
498.139	9.79
498.49	9.76
498.842	9.8
499.193	9.77
499.544	9.84
499.894	9.72
500.245	9.85
500.596	9.79
500.947	9.76
501.298	9.92
501.648	9.92
501.999	10.05
502.35	9.8
502.7	10.05
503.051	9.85
503.401	9.98
503.752	9.88
504.102	9.82
504.452	9.82
504.803	9.83
505.153	9.96
505.503	9.97
505.853	9.98
506.203	10.08
506.553	9.98
506.903	10.21
507.253	10.04
507.603	10.09
507.953	9.92
508.303	10.07
508.652	10.04
509.002	10.13
509.352	10.2
509.701	9.97
510.051	10.17
510.4	10.08
510.75	10.13
511.099	10.06
511.449	10.22
511.798	10.07
512.147	10.2
512.496	10.25
512.846	10.29
513.195	10.18
513.544	10.18
513.893	10.13
514.242	10.26
514.591	10.24
514.939	10.35
515.288	10.4
515.637	10.35
515.986	10.31
516.334	10.43
516.683	10.45
517.032	10.32
517.38	10.36
517.729	10.49
518.077	10.46
518.426	10.48
518.774	10.45
519.122	10.47
519.47	10.36
519.819	10.32
520.167	10.3
520.515	10.39
520.863	10.33
521.211	10.39
521.559	10.52
521.907	10.56
522.255	10.5
522.602	10.71
522.95	10.71
523.298	10.64
523.645	10.66
523.993	10.66
524.341	10.82
524.688	10.67
525.036	10.67
525.383	10.68
525.73	10.61
526.078	10.82
526.425	10.67
526.772	10.58
527.119	10.62
527.466	10.6
527.814	10.66
528.161	10.71
528.508	10.78
528.854	10.69
529.201	10.54
529.548	10.51
529.895	10.38
530.242	10.35
530.588	10.42
530.935	10.52
531.282	10.58
531.628	10.67
531.975	10.71
532.321	10.83
532.667	10.84
533.014	10.94
533.36	10.92
533.706	10.95
534.052	10.9
534.399	10.83
534.745	10.73
535.091	10.78
535.437	10.82
535.783	10.9
536.129	11
536.474	11.09
536.82	11.18
537.166	11.24
537.512	11.12
537.857	11.1
538.203	11.17
538.549	11.15
538.894	11.15
539.239	11.29
539.585	11.42
539.93	11.36
540.276	11.34
540.621	11.44
540.966	11.51
541.311	11.49
541.656	11.28
542.001	11.36
542.346	11.34
542.691	11.06
543.036	11.07
543.381	11.15
543.726	11.25
544.071	11.31
544.415	11.4
544.76	11.37
545.105	11.41
545.449	11.46
545.794	11.57
546.138	11.59
546.483	11.71
546.827	11.74
547.171	11.68
547.516	11.74
547.86	11.73
548.204	11.72
548.548	11.76
548.892	11.79
549.236	11.77
549.58	11.91
549.924	11.9
550.268	12.12
550.612	12.21
550.956	12.18
551.3	12.2
551.643	12.01
551.987	12.28
552.33	12.14
552.674	12.13
553.017	12.39
553.361	12.3
553.704	12.31
554.048	12.18
554.391	12.39
554.734	12.09
555.077	12.25
555.42	12.33
555.764	12.33
556.107	12.49
556.45	12.65
556.793	12.54
557.135	12.51
557.478	12.49
557.821	12.57
558.164	12.6
558.507	12.5
558.849	12.66
559.192	12.57
559.534	12.73
559.877	12.75
560.219	12.76
560.562	12.6
560.904	12.79
561.246	12.78
561.589	13.04
561.931	12.7
562.273	12.9
562.615	12.74
562.957	12.74
563.299	12.93
563.641	13.12
563.983	12.74
564.325	12.93
564.667	12.99
565.008	12.94
565.35	12.8
565.692	13.09
566.033	13.06
566.375	13.04
566.716	13.01
567.058	13
567.399	13.22
567.741	13.2
568.082	13.08
568.423	13.11
568.764	13.26
569.105	13.14
569.447	13.24
569.788	13.34
570.129	13.28
570.47	13.54
570.811	13.36
571.151	13.43
571.492	13.58
571.833	13.42
572.174	13.48
572.514	13.42
572.855	13.73
573.195	13.32
573.536	13.65
573.876	13.53
574.217	13.55
574.557	13.53
574.898	13.54
575.238	13.65
575.578	13.67
575.918	13.73
576.258	13.88
576.598	13.74
576.938	13.75
577.278	13.77
577.618	13.8
577.958	13.95
578.298	13.96
578.638	13.96
578.977	14.07
579.317	14.02
579.657	14.09
579.996	14.15
580.336	13.92
580.675	14.12
581.014	14.45
581.354	14.29
581.693	14.19
582.032	14.49
582.372	14.3
582.711	14.33
583.05	14.35
583.389	14.54
583.728	14.54
584.067	14.45
584.406	14.65
584.745	14.43
585.083	14.47
585.422	14.73
585.761	14.66
586.1	14.77
586.438	14.72
586.777	14.75
587.115	14.66
587.454	14.49
587.792	14.66
588.13	14.99
588.469	14.75
588.807	14.85
589.145	14.86
589.483	14.74
589.821	14.87
590.159	14.99
590.497	15.03
590.835	15.04
591.173	15.29
591.511	15.09
591.849	15.32
592.187	14.95
592.524	15.08
592.862	15.03
593.2	15.21
593.537	15.14
593.875	15.15
594.212	15.28
594.55	15.25
594.887	15.35
595.224	15.53
595.561	15.45
595.899	15.35
596.236	15.48
596.573	15.46
596.91	15.42
597.247	15.52
597.584	15.56
597.921	15.62
598.258	15.61
598.594	15.38
598.931	15.31
599.268	15.43
599.604	15.6
599.941	15.4
600.277	15.67
600.614	15.87
600.95	15.78
601.287	15.53
601.623	15.66
601.959	16.34
602.296	16.14
602.632	15.92
602.968	15.86
603.304	16.16
603.64	16.04
603.976	16
604.312	15.8
604.648	16.2
604.984	16.24
605.319	15.96
605.655	15.94
605.991	16
606.326	16.04
606.662	16.01
606.998	16.2
607.333	16.13
607.668	16.29
608.004	16.41
608.339	16.41
608.674	16.56
609.01	16.71
609.345	16.49
609.68	16.47
610.015	16.58
610.35	16.69
610.685	15.96
611.02	16.41
611.355	16.47
611.689	16.42
612.024	16.59
612.359	16.61
612.694	16.7
613.028	16.79
613.363	16.67
613.697	16.92
614.032	16.88
614.366	16.94
614.7	17.04
615.035	17.12
615.369	17.17
615.703	16.99
616.037	16.87
616.371	17.06
616.705	17
617.039	17.22
617.373	17.22
617.707	17.28
618.041	17.18
618.375	16.77
618.709	17.23
619.042	17.48
619.376	17.2
619.71	17.27
620.043	17.61
620.377	17.39
620.71	17.13
621.043	17.63
621.377	17.39
621.71	17.7
622.043	17.94
622.376	17.65
622.709	18.44
623.043	17.27
623.376	17.69
623.709	18.08
624.041	17.56
624.374	17.95
624.707	17.93
625.04	17.56
625.373	18.09
625.705	18.29
626.038	17.82
626.37	18.02
626.703	17.98
627.035	18.24
627.368	18.27
627.7	18.12
628.032	17.95
628.365	18.12
628.697	18.12
629.029	18.15
629.361	18.38
629.693	18.47
630.025	18.15
630.357	18.27
630.689	18.47
631.021	18.65
631.353	18.54
631.684	18.4
632.016	18.36
632.348	18.17
632.679	18.39
633.011	18.53
633.342	18.74
633.674	18.38
634.005	18.59
634.336	18.59
634.668	18.72
634.999	18.43
635.33	18.72
635.661	18.6
635.992	18.84
636.323	18.67
636.654	18.85
636.985	18.89
637.316	18.94
637.647	19.12
637.977	18.99
638.308	19.08
638.639	18.71
638.969	18.87
639.3	19.01
639.63	19.06
639.961	18.98
640.291	19.34
640.622	19.25
640.952	19.54
641.282	19.14
641.612	18.94
641.943	19.27
642.273	19.08
642.603	19.7
642.933	19.7
643.263	19.49
643.592	19.72
643.922	19.65
644.252	20.01
644.582	19.42
644.911	19.73
645.241	19.47
645.571	19.46
645.9	20.22
646.23	19.97
646.559	19.46
646.888	19.98
647.218	19.83
647.547	19.59
647.876	19.64
648.205	19.6
648.534	19.5
648.863	19.87
649.192	20.03
649.521	19.84
649.85	20.27
650.179	19.99
650.508	20.09
650.837	20.11
651.165	19.95
651.494	20.19
651.822	20.55
652.151	19.85
652.479	20.38
652.808	20.59
653.136	20.18
653.465	19.92
653.793	20.34
654.121	20.25
654.449	20.21
654.777	20.15
655.105	20.61
655.433	20.58
655.761	20.6
656.089	21.07
656.417	20.77
656.745	20.91
657.073	20.8
657.4	20.62
657.728	20.57
658.056	20.83
658.383	20.43
658.711	20.82
659.038	21.29
659.365	20.94
659.693	20.75
660.02	21.14
660.347	20.57
660.674	20.4
661.001	20.72
661.329	20.51
661.656	20.53
661.982	20.92
662.309	20.81
662.636	20.79
662.963	20.89
663.29	21.76
663.616	20.79
663.943	21.83
664.27	20.91
664.596	21.23
664.923	21.01
665.249	21.55
665.576	21.52
665.902	21.05
666.228	21.82
666.554	22.12
666.881	20.89
667.207	21.7
667.533	21.42
667.859	21.88
668.185	21.58
668.511	22.1
668.837	21.56
669.162	21.73
669.488	21.44
669.814	22.04
670.139	21.75
670.465	21.97
670.791	21.41
671.116	21.69
671.442	21.44
671.767	22.06
672.092	21.71
672.418	21.9
672.743	22.53
673.068	21.86
673.393	22.16
673.718	21.66
674.043	22.24
674.368	22.17
674.693	21.8
675.018	22.4
675.343	22.49
675.667	22.24
675.992	22.4
676.317	21.47
676.641	22.62
676.966	22.63
677.29	21.39
677.615	22.28
677.939	22.56
678.264	22.4
678.588	22.49
678.912	22.76
679.236	22.44
679.56	22.4
679.885	22.59
680.209	22.71
680.532	23.09
680.856	22.88
681.18	22.8
681.504	22.68
