Data from 21-9_crown_Reflection__3__38.txt Node

Date: Thu Dec 15 16:44:59 CST 2022
User: ToomeyLab
Spectrometer: FLMS14357
Trigger mode: 0
Integration Time (sec): 1.000000E-2
Scans to average: 100
Electric dark correction enabled: true
Nonlinearity correction enabled: false
Boxcar width: 0
XAxis mode: Wavelengths
Number of Pixels in Spectrum: 2048
>>>>>Begin Spectral Data<<<<<
189.047	32.9
189.435	32.9
189.823	32.9
190.211	-100.88
190.599	194.75
190.987	24.18
191.375	263.88
191.763	182.73
192.151	182.29
192.538	112.35
192.926	470.19
193.314	56.42
193.702	-79.78
194.089	12.9
194.477	216.4
194.864	111.28
195.252	58.99
195.639	70.27
196.027	-281.43
196.414	1440.05
196.801	169.6
197.189	-69.59
197.576	-1.43
197.963	31.62
198.351	26.95
198.738	-42.68
199.125	-19.58
199.512	5.03
199.899	-11.46
200.286	-13.14
200.673	45.5
201.06	10.61
201.447	-5.66
201.833	60.01
202.22	19.26
202.607	10.6
202.994	3.17
203.38	9.81
203.767	35.72
204.154	15.02
204.54	5.56
204.927	-8.77
205.313	39.23
205.699	20.74
206.086	44.64
206.472	16.2
206.858	-3.19
207.245	-26.32
207.631	-17.1
208.017	43.49
208.403	-53.25
208.789	8.63
209.175	9.63
209.561	-34.64
209.947	-24.69
210.333	-9.13
210.719	44.18
211.105	30.33
211.491	26.88
211.876	-34.02
212.262	1.35
212.648	5.05
213.034	-10.88
213.419	-12.66
213.805	-12.34
214.19	-9.14
214.576	-10.59
214.961	21.29
215.346	3.9
215.732	6.16
216.117	18.74
216.502	-10
216.888	-4.32
217.273	0.46
217.658	-9.49
218.043	8.83
218.428	-10.63
218.813	17.51
219.198	-1.94
219.583	-14.03
219.968	29.65
220.353	-8.51
220.738	0.21
221.122	-1.91
221.507	-2.36
221.892	-13.03
222.276	-20.87
222.661	7.19
223.046	-2.83
223.43	8.84
223.815	10.4
224.199	9.42
224.583	8.13
224.968	-3.77
225.352	-8.41
225.736	12.44
226.121	10.86
226.505	6.79
226.889	5.84
227.273	2.17
227.657	1.59
228.041	5.33
228.425	2.48
228.809	5.23
229.193	6.56
229.577	4.89
229.961	4.77
230.344	5.38
230.728	5.35
231.112	5.04
231.495	4.21
231.879	5.4
232.263	6.66
232.646	4.63
233.03	6.52
233.413	5.75
233.797	4.86
234.18	4.71
234.563	4.54
234.946	4.83
235.33	3.87
235.713	5.73
236.096	4.11
236.479	6.41
236.862	4.68
237.245	4.02
237.628	5.71
238.011	5.65
238.394	5.22
238.777	5.86
239.16	7.05
239.543	6.09
239.925	5.3
240.308	4.18
240.691	3.36
241.073	3.38
241.456	5.14
241.838	4.84
242.221	4.44
242.603	4.56
242.986	4.2
243.368	5.55
243.75	5.16
244.133	5.04
244.515	4.76
244.897	4.23
245.279	4.64
245.661	4.73
246.043	4.73
246.425	5.29
246.807	3.89
247.189	4.76
247.571	4.76
247.953	4.49
248.335	4.7
248.717	4.74
249.098	4.66
249.48	4.38
249.862	4.52
250.243	4.89
250.625	4.79
251.006	5.24
251.388	4.59
251.769	4.28
252.151	5.26
252.532	4.37
252.913	4.36
253.295	4.43
253.676	4.59
254.057	4.76
254.438	4.6
254.819	5.13
255.2	4.36
255.581	5.28
255.962	4.41
256.343	4.77
256.724	4.49
257.105	4.35
257.486	4.4
257.867	4.58
258.247	4.33
258.628	4.24
259.009	4.7
259.389	4.26
259.77	3.71
260.15	4.71
260.531	4.73
260.911	4.31
261.292	4.28
261.672	4.49
262.052	4.48
262.432	4.29
262.813	5.02
263.193	4.7
263.573	4.57
263.953	4.23
264.333	4.05
264.713	4.28
265.093	3.91
265.473	3.77
265.853	4.34
266.233	5.38
266.612	4.09
266.992	4.21
267.372	4.19
267.752	4.75
268.131	4.45
268.511	4.05
268.89	5.02
269.27	3.72
269.649	4.28
270.029	4.16
270.408	3.99
270.787	4.39
271.167	4.66
271.546	4.71
271.925	4.59
272.304	4.39
272.683	3.87
273.062	3.95
273.441	3.93
273.82	4.45
274.199	4.27
274.578	4.31
274.957	4.07
275.336	4.7
275.715	4.83
276.093	4.02
276.472	3.89
276.851	4.14
277.229	4.02
277.608	3.94
277.986	4.37
278.365	4.54
278.743	4.28
279.122	3.64
279.5	3.62
279.878	3.61
280.257	3.82
280.635	4.52
281.013	3.63
281.391	4.26
281.769	4.64
282.147	4.29
282.525	3.79
282.903	3.93
283.281	4.46
283.659	4.11
284.037	3.84
284.415	4.22
284.792	4.11
285.17	4.18
285.548	3.75
285.925	3.98
286.303	4.17
286.68	4.3
287.058	3.93
287.435	3.79
287.813	3.71
288.19	3.63
288.567	3.8
288.945	3.54
289.322	3.86
289.699	4.08
290.076	3.72
290.453	3.5
290.83	3.85
291.207	3.65
291.584	3.87
291.961	3.97
292.338	3.79
292.715	3.48
293.092	4.06
293.469	3.7
293.845	4.32
294.222	4.15
294.599	3.45
294.975	3.26
295.352	3.79
295.728	3.43
296.105	3.23
296.481	3.88
296.858	3.6
297.234	3.31
297.61	3.88
297.986	4.04
298.363	3.82
298.739	3.95
299.115	3.69
299.491	3.89
299.867	3.47
300.243	3.51
300.619	3.55
300.995	3.86
301.371	3.8
301.746	3.84
302.122	3.26
302.498	3.15
302.874	3.76
303.249	3.72
303.625	3.32
304	3.72
304.376	3.73
304.751	3.57
305.127	3.26
305.502	4.06
305.878	3.49
306.253	3.37
306.628	3.48
307.003	3.82
307.378	3.51
307.754	3.83
308.129	3.23
308.504	3.82
308.879	3.44
309.254	3.84
309.629	3.54
310.003	3.36
310.378	3.8
310.753	3.65
311.128	3.45
311.502	3.68
311.877	3.44
312.252	3.76
312.626	3.8
313.001	3.44
313.375	3.51
313.75	3.67
314.124	3.96
314.498	3.77
314.873	3.42
315.247	3.49
315.621	3.34
315.995	3.72
316.369	3.19
316.743	3.34
317.117	3.85
317.491	3.77
317.865	3.18
318.239	3.94
318.613	3.22
318.987	3.33
319.361	3.52
319.734	3.62
320.108	3.87
320.482	3.52
320.855	3.61
321.229	3.58
321.602	3.39
321.976	3.32
322.349	4.1
322.723	3.55
323.096	3.38
323.469	3.27
323.843	3.62
324.216	3.48
324.589	3.57
324.962	2.99
325.335	3.19
325.708	3.12
326.081	3.52
326.454	3.73
326.827	3.67
327.2	2.89
327.573	3.58
327.945	3.27
328.318	3.38
328.691	3.3
329.063	3.12
329.436	2.8
329.809	3.93
330.181	3.94
330.553	3.95
330.926	3.65
331.298	2.95
331.671	3.94
332.043	3.47
332.415	3.77
332.787	3.88
333.159	3.12
333.532	3.57
333.904	3.84
334.276	3.34
334.648	3.21
335.02	3.44
335.391	3.35
335.763	3.02
336.135	3.82
336.507	3.17
336.879	3.53
337.25	3.55
337.622	3.44
337.993	3.27
338.365	3.71
338.736	3.79
339.108	3.6
339.479	3.51
339.851	4.09
340.222	4.09
340.593	3.58
340.964	3.68
341.336	3.31
341.707	3.5
342.078	3.19
342.449	3.63
342.82	3.34
343.191	3.52
343.562	3.83
343.933	3.66
344.303	4.07
344.674	3.48
345.045	3.54
345.416	3.8
345.786	3.42
346.157	3.32
346.527	3.53
346.898	3.3
347.268	3.62
347.639	3.57
348.009	3.49
348.38	3.7
348.75	3.88
349.12	3.56
349.49	3.7
349.861	4.08
350.231	3.28
350.601	3.73
350.971	3.39
351.341	3.87
351.711	3.68
352.081	3.28
352.45	3.62
352.82	3.31
353.19	3.73
353.56	3.83
353.929	3.83
354.299	3.65
354.669	3.42
355.038	3.97
355.408	3.98
355.777	3.73
356.147	3.55
356.516	3.45
356.885	3.81
357.254	3.58
357.624	3.17
357.993	3.71
358.362	3.73
358.731	4.09
359.1	3.58
359.469	3.69
359.838	3.59
360.207	3.64
360.576	3.94
360.945	3.97
361.314	3.62
361.682	3.6
362.051	3.72
362.42	3.67
362.788	3.72
363.157	3.64
363.525	3.66
363.894	3.54
364.262	3.57
364.631	3.83
364.999	3.78
365.367	3.57
365.735	3.2
366.104	3.61
366.472	3.87
366.84	4.05
367.208	3.9
367.576	3.73
367.944	3.93
368.312	3.71
368.68	4.17
369.048	3.89
369.416	3.62
369.783	3.74
370.151	4.11
370.519	4.28
370.886	4
371.254	3.95
371.621	3.77
371.989	4.02
372.356	3.88
372.724	3.98
373.091	3.63
373.458	3.52
373.826	3.91
374.193	3.66
374.56	3.77
374.927	3.74
375.294	4.07
375.661	3.89
376.028	4.26
376.395	3.97
376.762	3.58
377.129	4.07
377.496	4.07
377.863	4.12
378.229	4.11
378.596	4.04
378.963	4.02
379.329	4.11
379.696	3.57
380.062	4.07
380.429	3.54
380.795	4.14
381.161	3.79
381.528	3.71
381.894	3.8
382.26	4.12
382.626	3.99
382.993	4.23
383.359	3.81
383.725	3.8
384.091	3.92
384.457	3.67
384.823	3.82
385.188	4.08
385.554	4.11
385.92	3.98
386.286	4.06
386.651	3.88
387.017	4.13
387.383	3.66
387.748	4.25
388.114	4.23
388.479	3.87
388.845	4.07
389.21	4.28
389.575	4.3
389.94	4.2
390.306	4.26
390.671	3.97
391.036	4.13
391.401	4.14
391.766	4.1
392.131	4.33
392.496	4.17
392.861	4.23
393.226	3.95
393.591	4.12
393.956	4.29
394.32	4.5
394.685	4.2
395.05	4.07
395.414	4.36
395.779	4.35
396.143	4.17
396.508	4
396.872	4.28
397.236	4.54
397.601	4.3
397.965	4.17
398.329	4.09
398.694	4.09
399.058	4.3
399.422	4.13
399.786	4
400.15	4.27
400.514	4.41
400.878	4.22
401.242	4.47
401.605	4.07
401.969	4.27
402.333	4.27
402.697	4.43
403.06	4.48
403.424	4.29
403.787	4.09
404.151	4.4
404.514	4.32
404.878	4.1
405.241	4.27
405.604	4.13
405.968	4.29
406.331	4.51
406.694	4.31
407.057	4.11
407.42	4.28
407.783	4.4
408.146	4.18
408.509	4.52
408.872	4.52
409.235	4.41
409.598	4.51
409.961	4.33
410.323	4.45
410.686	4.35
411.049	4.43
411.411	4.18
411.774	4.41
412.136	4.35
412.499	4.68
412.861	4.15
413.223	4.32
413.586	4.46
413.948	4.51
414.31	4.58
414.672	4.15
415.035	4.62
415.397	4.42
415.759	4.03
416.121	4.63
416.483	4.39
416.845	4.38
417.206	4.39
417.568	4.25
417.93	4.45
418.292	4.17
418.653	4.15
419.015	4.35
419.377	4.26
419.738	4.37
420.1	4.33
420.461	4.31
420.822	4.37
421.184	4.38
421.545	4.35
421.906	4.38
422.267	4.22
422.629	4.27
422.99	4.24
423.351	4.31
423.712	4.38
424.073	4.48
424.434	4.42
424.795	4.21
425.155	4.29
425.516	4.4
425.877	4.31
426.238	4.35
426.598	4.32
426.959	4.47
427.32	4.38
427.68	4.38
428.041	4.39
428.401	4.34
428.761	4.48
429.122	4.38
429.482	4.53
429.842	4.54
430.202	4.43
430.563	4.59
430.923	4.51
431.283	4.5
431.643	4.75
432.003	4.53
432.363	4.71
432.722	4.46
433.082	4.49
433.442	4.57
433.802	4.51
434.161	4.51
434.521	4.53
434.881	4.52
435.24	4.44
435.6	4.57
435.959	4.53
436.319	4.66
436.678	4.53
437.037	4.63
437.396	4.67
437.756	4.4
438.115	4.55
438.474	4.61
438.833	4.42
439.192	4.47
439.551	4.45
439.91	4.61
440.269	4.46
440.628	4.46
440.987	4.58
441.345	4.52
441.704	4.59
442.063	4.48
442.421	4.57
442.78	4.49
443.138	4.55
443.497	4.56
443.855	4.61
444.214	4.39
444.572	4.66
444.93	4.52
445.288	4.58
445.647	4.39
446.005	4.53
446.363	4.54
446.721	4.58
447.079	4.46
447.437	4.51
447.795	4.5
448.153	4.52
448.51	4.53
448.868	4.5
449.226	4.46
449.584	4.52
449.941	4.5
450.299	4.57
450.656	4.56
451.014	4.72
451.371	4.7
451.729	4.58
452.086	4.73
452.443	4.7
452.801	4.62
453.158	4.77
453.515	4.57
453.872	4.62
454.229	4.52
454.586	4.56
454.943	4.6
455.3	4.64
455.657	4.53
456.014	4.66
456.371	4.74
456.727	4.81
457.084	4.82
457.441	4.7
457.797	4.65
458.154	4.59
458.51	4.73
458.867	4.78
459.223	4.52
459.58	4.64
459.936	4.67
460.292	4.51
460.648	4.51
461.005	4.54
461.361	4.54
461.717	4.5
462.073	4.61
462.429	4.65
462.785	4.85
463.141	4.71
463.496	4.75
463.852	4.83
464.208	4.8
464.564	4.73
464.919	4.73
465.275	4.75
465.631	4.87
465.986	4.82
466.342	4.55
466.697	4.6
467.052	4.68
467.408	4.8
467.763	4.61
468.118	4.71
468.473	4.66
468.829	4.56
469.184	4.71
469.539	4.61
469.894	4.83
470.249	4.7
470.603	4.81
470.958	4.82
471.313	4.74
471.668	4.63
472.023	4.69
472.377	4.66
472.732	4.88
473.086	4.71
473.441	4.87
473.795	4.73
474.15	4.62
474.504	4.69
474.859	4.63
475.213	4.8
475.567	4.66
475.921	4.7
476.275	4.85
476.63	4.72
476.984	4.54
477.338	4.89
477.692	4.73
478.045	4.73
478.399	4.75
478.753	4.66
479.107	4.79
479.461	4.64
479.814	4.76
480.168	4.64
480.521	4.76
480.875	4.75
481.228	4.91
481.582	4.79
481.935	4.88
482.289	4.66
482.642	4.79
482.995	4.65
483.348	4.56
483.701	4.65
484.055	4.6
484.408	4.59
484.761	4.44
485.114	4.35
485.466	4.23
485.819	4.27
486.172	4.41
486.525	4.52
486.878	4.6
487.23	4.6
487.583	4.6
487.936	4.57
488.288	4.51
488.641	4.43
488.993	4.38
489.345	4.43
489.698	4.41
490.05	4.43
490.402	4.54
490.754	4.58
491.107	4.61
491.459	4.72
491.811	4.7
492.163	4.65
492.515	4.51
492.866	4.42
493.218	4.4
493.57	4.41
493.922	4.49
494.274	4.71
494.625	4.72
494.977	4.67
495.328	4.82
495.68	4.75
496.031	4.71
496.383	4.69
496.734	4.66
497.086	4.78
497.437	4.68
497.788	4.75
498.139	4.61
498.49	4.69
498.842	4.64
499.193	4.61
499.544	4.63
499.894	4.55
500.245	4.71
500.596	4.71
500.947	4.68
501.298	4.73
501.648	4.78
501.999	4.75
502.35	4.55
502.7	4.86
503.051	4.67
503.401	4.64
503.752	4.79
504.102	4.69
504.452	4.66
504.803	4.61
505.153	4.79
505.503	4.68
505.853	4.74
506.203	4.71
506.553	4.68
506.903	4.72
507.253	4.75
507.603	4.75
507.953	4.78
508.303	4.72
508.652	4.59
509.002	4.86
509.352	4.74
509.701	4.62
510.051	4.79
510.4	4.64
510.75	4.61
511.099	4.6
511.449	4.65
511.798	4.65
512.147	4.58
512.496	4.73
512.846	4.7
513.195	4.68
513.544	4.72
513.893	4.64
514.242	4.58
514.591	4.56
514.939	4.69
515.288	4.74
515.637	4.66
515.986	4.72
516.334	4.75
516.683	4.6
517.032	4.72
517.38	4.65
517.729	4.61
518.077	4.74
518.426	4.76
518.774	4.66
519.122	4.61
519.47	4.48
519.819	4.63
520.167	4.49
520.515	4.62
520.863	4.55
521.211	4.58
521.559	4.58
521.907	4.71
522.255	4.61
522.602	4.71
522.95	4.78
523.298	4.64
523.645	4.66
523.993	4.65
524.341	4.68
524.688	4.55
525.036	4.71
525.383	4.61
525.73	4.59
526.078	4.65
526.425	4.56
526.772	4.54
527.119	4.61
527.466	4.56
527.814	4.63
528.161	4.6
528.508	4.69
528.854	4.54
529.201	4.49
529.548	4.46
529.895	4.33
530.242	4.32
530.588	4.34
530.935	4.44
531.282	4.41
531.628	4.48
531.975	4.52
532.321	4.59
532.667	4.62
533.014	4.59
533.36	4.58
533.706	4.6
534.052	4.59
534.399	4.5
534.745	4.41
535.091	4.42
535.437	4.52
535.783	4.57
536.129	4.55
536.474	4.71
536.82	4.72
537.166	4.56
537.512	4.71
537.857	4.54
538.203	4.46
538.549	4.49
538.894	4.56
539.239	4.69
539.585	4.67
539.93	4.6
540.276	4.62
540.621	4.67
540.966	4.68
541.311	4.59
541.656	4.58
542.001	4.57
542.346	4.43
542.691	4.39
543.036	4.37
543.381	4.37
543.726	4.51
544.071	4.51
544.415	4.53
544.76	4.57
545.105	4.55
545.449	4.6
545.794	4.53
546.138	4.59
546.483	4.67
546.827	4.57
547.171	4.61
547.516	4.63
547.86	4.61
548.204	4.58
548.548	4.59
548.892	4.57
549.236	4.49
549.58	4.7
549.924	4.76
550.268	4.86
550.612	4.77
550.956	4.7
551.3	4.91
551.643	4.67
551.987	4.9
552.33	4.82
552.674	4.82
553.017	4.77
553.361	4.86
553.704	4.73
554.048	4.69
554.391	4.73
554.734	4.58
555.077	4.68
555.42	4.66
555.764	4.77
556.107	4.73
556.45	4.65
556.793	4.82
557.135	4.79
557.478	4.76
557.821	4.66
558.164	4.75
558.507	4.59
558.849	4.76
559.192	4.64
559.534	4.66
559.877	4.68
560.219	4.74
560.562	4.67
560.904	4.86
561.246	4.61
561.589	4.87
561.931	4.76
562.273	4.76
562.615	4.63
562.957	4.59
563.299	4.61
563.641	4.69
563.983	4.71
564.325	4.82
564.667	4.67
565.008	4.64
565.35	4.54
565.692	4.55
566.033	4.62
566.375	4.69
566.716	4.56
567.058	4.63
567.399	4.62
567.741	4.59
568.082	4.59
568.423	4.59
568.764	4.63
569.105	4.54
569.447	4.57
569.788	4.77
570.129	4.57
570.47	4.69
570.811	4.59
571.151	4.51
571.492	4.63
571.833	4.64
572.174	4.67
572.514	4.72
572.855	4.65
573.195	4.49
573.536	4.69
573.876	4.54
574.217	4.5
574.557	4.48
574.898	4.59
575.238	4.75
575.578	4.71
575.918	4.72
576.258	4.75
576.598	4.54
576.938	4.48
577.278	4.56
577.618	4.59
577.958	4.61
578.298	4.77
578.638	4.66
578.977	4.7
579.317	4.78
579.657	4.72
579.996	4.86
580.336	4.78
580.675	4.67
581.014	4.75
581.354	4.52
581.693	4.69
582.032	4.78
582.372	4.56
582.711	4.72
583.05	4.57
583.389	4.71
583.728	4.74
584.067	4.58
584.406	4.77
584.745	4.78
585.083	4.75
585.422	4.95
585.761	4.48
586.1	4.76
586.438	4.66
586.777	4.57
587.115	4.8
587.454	4.57
587.792	4.5
588.13	4.48
588.469	4.6
588.807	4.52
589.145	4.75
589.483	4.41
589.821	4.59
590.159	4.61
590.497	4.65
590.835	4.68
591.173	4.73
591.511	4.92
591.849	4.69
592.187	4.65
592.524	4.81
592.862	4.6
593.2	4.5
593.537	4.38
593.875	4.56
594.212	4.64
594.55	4.81
594.887	4.82
595.224	4.82
595.561	4.47
595.899	4.51
596.236	4.65
596.573	4.56
596.91	4.62
597.247	4.65
597.584	4.81
597.921	4.49
598.258	4.61
598.594	4.6
598.931	4.36
599.268	4.36
599.604	4.5
599.941	4.72
600.277	4.56
600.614	4.58
600.95	4.62
601.287	4.58
601.623	4.53
601.959	4.76
602.296	4.63
602.632	4.74
602.968	4.73
603.304	4.65
603.64	4.56
603.976	4.35
604.312	4.47
604.648	4.53
604.984	4.57
605.319	4.33
605.655	4.46
605.991	4.36
606.326	4.5
606.662	4.24
606.998	4.54
607.333	4.45
607.668	4.31
608.004	4.46
608.339	4.54
608.674	4.72
609.01	4.79
609.345	4.53
609.68	4.57
610.015	4.7
610.35	4.6
610.685	4.16
611.02	4.43
611.355	4.44
611.689	4.48
612.024	4.55
612.359	4.48
612.694	4.42
613.028	4.51
613.363	4.48
613.697	4.51
614.032	4.43
614.366	4.4
614.7	4.47
615.035	4.65
615.369	4.59
615.703	4.84
616.037	4.71
616.371	4.31
616.705	4.45
617.039	4.67
617.373	5
617.707	4.57
618.041	4.57
618.375	4.19
618.709	4.57
619.042	4.42
619.376	4.44
619.71	4.47
620.043	4.7
620.377	4.77
620.71	4.35
621.043	4.82
621.377	4.62
621.71	4.56
622.043	4.61
622.376	4.45
622.709	4.87
623.043	4.1
623.376	4.41
623.709	4.63
624.041	4.54
624.374	4.58
624.707	4.81
625.04	3.94
625.373	4.63
625.705	4.73
626.038	4.64
626.37	4.26
626.703	4.53
627.035	4.63
627.368	4.73
627.7	4.7
628.032	4.16
628.365	4.73
628.697	4.43
629.029	4.55
629.361	4.57
629.693	4.51
630.025	4.61
630.357	4.5
630.689	4.56
631.021	4.61
631.353	4.56
631.684	4.22
632.016	4.03
632.348	4.31
632.679	4.64
633.011	4.49
633.342	4.65
633.674	4.1
634.005	4.76
634.336	4.39
634.668	4.44
634.999	4.35
635.33	4.62
635.661	4.59
635.992	4.55
636.323	4.54
636.654	4.18
636.985	4.44
637.316	4.03
637.647	4.35
637.977	4.15
638.308	4.62
638.639	4.55
638.969	4.2
639.3	4.09
639.63	4.75
639.961	4.67
640.291	4.42
640.622	4.79
640.952	4.65
641.282	4.46
641.612	4.48
641.943	4.24
642.273	4.41
642.603	4.62
642.933	4.77
643.263	4.42
643.592	5.1
643.922	4.83
644.252	4.64
644.582	4.45
644.911	4.45
645.241	4.1
645.571	4.51
645.9	4.55
646.23	4.8
646.559	4.16
646.888	4.67
647.218	4.19
647.547	4.54
647.876	4.41
648.205	4.51
648.534	4.25
648.863	4.28
649.192	4.59
649.521	4.12
649.85	4.61
650.179	4.46
650.508	4.22
650.837	4.58
651.165	4.29
651.494	4.11
651.822	4.52
652.151	4.29
652.479	4.59
652.808	4.47
653.136	4.05
653.465	4.26
653.793	4.42
654.121	4.3
654.449	4.21
654.777	3.86
655.105	3.94
655.433	5
655.761	4.36
656.089	4.56
656.417	4.62
656.745	4.88
657.073	4.11
657.4	4.05
657.728	3.52
658.056	4.69
658.383	4.63
658.711	4.48
659.038	4.86
659.365	4.45
659.693	4.39
660.02	4.33
660.347	4.33
660.674	4.01
661.001	4.1
661.329	4.3
661.656	3.84
661.982	4.51
662.309	4.32
662.636	4.37
662.963	4.31
663.29	4.48
663.616	4.15
663.943	4.51
664.27	4.38
664.596	4.15
664.923	4.38
665.249	4.43
665.576	4.03
665.902	3.7
666.228	4.79
666.554	4.95
666.881	3.97
667.207	4.89
667.533	4.79
667.859	3.99
668.185	4.15
668.511	5.01
668.837	3.78
669.162	4.64
669.488	4.02
669.814	4.38
670.139	3.77
670.465	4.18
670.791	3.85
671.116	3.93
671.442	3.46
671.767	4.44
672.092	4.63
672.418	3.88
672.743	4.32
673.068	3.95
673.393	4.16
673.718	3.63
674.043	4.15
674.368	3.86
674.693	4.3
675.018	4.4
675.343	4.12
675.667	3.78
675.992	4.32
676.317	3.59
676.641	4.84
676.966	4.29
677.29	4.28
677.615	3.48
677.939	4.58
678.264	4.04
678.588	3.99
678.912	4.37
679.236	4.08
679.56	4.04
679.885	4.03
680.209	4.44
680.532	4.91
680.856	4.54
681.18	4.7
681.504	4.22
681.828	3.75
682.152	3.6
682.475	4.21
682.799	3.9
683.122	4.46
683.446	3.04
683.769	5.02
684.093	4.51
684.416	4.35
684.739	3.91
685.062	4.48
685.386	4.61
685.709	4.51
686.032	4.66
686.355	4.43
686.678	4.45
687.001	4.32
687.324	4.67
687.646	4.03
687.969	4.19
688.292	3.33
688.614	4.58
688.937	4.26
689.26	4.41
689.582	4.32
689.904	4.89
690.227	4.53
690.549	4.46
690.871	4.18
691.194	4.26
691.516	3.98
691.838	4.64
692.16	4.08
