Data from 21-9_chest_Reflection__3__33.txt Node

Date: Thu Dec 15 16:43:34 CST 2022
User: ToomeyLab
Spectrometer: FLMS14357
Trigger mode: 0
Integration Time (sec): 1.000000E-2
Scans to average: 100
Electric dark correction enabled: true
Nonlinearity correction enabled: false
Boxcar width: 0
XAxis mode: Wavelengths
Number of Pixels in Spectrum: 2048
>>>>>Begin Spectral Data<<<<<
189.047	25.24
189.435	25.24
189.823	25.24
190.211	10.56
190.599	9.88
190.987	68.73
191.375	-327.35
191.763	64.85
192.151	72.64
192.538	122.23
192.926	130.7
193.314	75.06
193.702	23.29
194.089	19.37
194.477	-1115.2
194.864	85.85
195.252	-99.33
195.639	40.25
196.027	252.17
196.414	1990.05
196.801	20.6
197.189	-21.56
197.576	-4.17
197.963	39.86
198.351	23.15
198.738	-2.29
199.125	-2.89
199.512	34.4
199.899	-19.79
200.286	10.39
200.673	26.54
201.06	-10.36
201.447	36.49
201.833	2.5
202.22	-10.1
202.607	-5.28
202.994	18.87
203.38	9.92
203.767	6.83
204.154	5.38
204.54	17.06
204.927	22.78
205.313	35.83
205.699	3.83
206.086	38.63
206.472	4.65
206.858	-15.21
207.245	5.36
207.631	15.5
208.017	47.03
208.403	-17.62
208.789	16.45
209.175	16.89
209.561	-43.86
209.947	9.65
210.333	2.46
210.719	14.26
211.105	34.55
211.491	23.8
211.876	-6.5
212.262	22.83
212.648	15.02
213.034	-18.39
213.419	4.42
213.805	-22.49
214.19	-11.41
214.576	5.7
214.961	-10.01
215.346	-21.81
215.732	23.99
216.117	4.21
216.502	5.25
216.888	9.2
217.273	26.28
217.658	8.09
218.043	-6.53
218.428	-13.42
218.813	13.97
219.198	-29.51
219.583	7.77
219.968	17.02
220.353	-8.28
220.738	0.65
221.122	8.56
221.507	-0.67
221.892	-12.75
222.276	-14.16
222.661	-7.47
223.046	-8.41
223.43	10.44
223.815	3.71
224.199	1.31
224.583	4.45
224.968	3.39
225.352	-3.46
225.736	8.03
226.121	0.44
226.505	5.92
226.889	2.78
227.273	-1.59
227.657	7.01
228.041	5.64
228.425	3.58
228.809	4.07
229.193	3.22
229.577	2.81
229.961	3.33
230.344	4.09
230.728	3.96
231.112	4.14
231.495	2.25
231.879	3.69
232.263	4.29
232.646	2.26
233.03	4.38
233.413	3.83
233.797	4.25
234.18	5.2
234.563	5.79
234.946	2.71
235.33	3.25
235.713	4.61
236.096	4.23
236.479	4.59
236.862	2.76
237.245	2.88
237.628	4.5
238.011	4.03
238.394	3.46
238.777	3.29
239.16	4.74
239.543	4.72
239.925	3.7
240.308	2.6
240.691	3.16
241.073	2.73
241.456	1.95
241.838	3.58
242.221	4.33
242.603	3.62
242.986	3.93
243.368	3.6
243.75	3.92
244.133	3.83
244.515	3.54
244.897	3.39
245.279	3.63
245.661	3.56
246.043	4.35
246.425	4.12
246.807	3.81
247.189	3.62
247.571	3.49
247.953	3.44
248.335	3.52
248.717	3.62
249.098	3.72
249.48	3.48
249.862	3.86
250.243	3.89
250.625	3.86
251.006	4.56
251.388	3.39
251.769	4.24
252.151	3.96
252.532	3.45
252.913	3.71
253.295	3.34
253.676	3.29
254.057	3.91
254.438	3.47
254.819	4.38
255.2	4.85
255.581	3.96
255.962	3.86
256.343	3.85
256.724	4.24
257.105	4.13
257.486	2.92
257.867	3.82
258.247	3.56
258.628	3.85
259.009	3.27
259.389	3.16
259.77	3.78
260.15	4
260.531	3.55
260.911	3.41
261.292	3.45
261.672	3.49
262.052	3.52
262.432	3.5
262.813	3.82
263.193	3.73
263.573	3.71
263.953	3.42
264.333	3.47
264.713	3.47
265.093	3.25
265.473	3.46
265.853	3.81
266.233	3.59
266.612	3.26
266.992	3.32
267.372	3.16
267.752	3.86
268.131	3.53
268.511	3.5
268.89	3.83
269.27	2.96
269.649	3.28
270.029	3.07
270.408	3.35
270.787	3.27
271.167	3.69
271.546	3.49
271.925	3.65
272.304	3.26
272.683	2.97
273.062	3.58
273.441	3.31
273.82	3.55
274.199	3.21
274.578	3.13
274.957	3.02
275.336	3.67
275.715	3.39
276.093	3.21
276.472	3.27
276.851	3.14
277.229	3.44
277.608	3.04
277.986	3.57
278.365	3.8
278.743	3.3
279.122	3.1
279.5	3.25
279.878	3.27
280.257	3.26
280.635	3.64
281.013	2.64
281.391	2.94
281.769	3.56
282.147	3.59
282.525	3.08
282.903	2.99
283.281	3.81
283.659	3.3
284.037	3.43
284.415	3.23
284.792	3.25
285.17	2.8
285.548	2.92
285.925	3.37
286.303	3.68
286.68	3.15
287.058	3.02
287.435	3.3
287.813	3.28
288.19	2.93
288.567	2.89
288.945	2.91
289.322	3.35
289.699	3.48
290.076	3.45
290.453	3
290.83	3.4
291.207	3.21
291.584	3.5
291.961	3.64
292.338	3.22
292.715	3.35
293.092	3.57
293.469	3.23
293.845	3.56
294.222	3.6
294.599	3.64
294.975	3.01
295.352	3.96
295.728	3.57
296.105	3.49
296.481	3.14
296.858	3.34
297.234	3.15
297.61	3.32
297.986	3.69
298.363	3.42
298.739	3.5
299.115	3.42
299.491	3.57
299.867	3.3
300.243	3.43
300.619	3.22
300.995	3.37
301.371	3.48
301.746	3.91
302.122	2.99
302.498	3.6
302.874	3.73
303.249	3.35
303.625	2.91
304	3.62
304.376	4.05
304.751	3.37
305.127	3.44
305.502	3.76
305.878	3.27
306.253	3.62
306.628	3.65
307.003	2.95
307.378	3.43
307.754	3.54
308.129	3.18
308.504	3.36
308.879	3.94
309.254	3.44
309.629	3.54
310.003	3.57
310.378	3.39
310.753	3.93
311.128	3.41
311.502	3.17
311.877	3.22
312.252	3.71
312.626	3.72
313.001	3.68
313.375	3.54
313.75	3.63
314.124	3.6
314.498	3.83
314.873	3.23
315.247	3.85
315.621	3.46
315.995	3.09
316.369	3.18
316.743	3.76
317.117	2.86
317.491	3.53
317.865	3.23
318.239	3.83
318.613	3.23
318.987	3.02
319.361	3.33
319.734	3.52
320.108	3.58
320.482	3.68
320.855	3.28
321.229	3.44
321.602	3.69
321.976	3.45
322.349	3.99
322.723	3.78
323.096	3.79
323.469	3.18
323.843	3.42
324.216	3.35
324.589	3.5
324.962	3.15
325.335	3.3
325.708	3.43
326.081	3.62
326.454	3.66
326.827	3.16
327.2	2.92
327.573	3.94
327.945	3.49
328.318	3.59
328.691	3.46
329.063	3.63
329.436	3.31
329.809	3.84
330.181	4.14
330.553	3.75
330.926	4.13
331.298	3.45
331.671	3.62
332.043	3.82
332.415	3.74
332.787	3.57
333.159	3.43
333.532	3.43
333.904	4.15
334.276	3.89
334.648	3.45
335.02	3.63
335.391	3.81
335.763	3.68
336.135	3.44
336.507	3.28
336.879	3.52
337.25	3.62
337.622	3.64
337.993	3.59
338.365	3.7
338.736	3.76
339.108	3.4
339.479	3.51
339.851	3.45
340.222	3.79
340.593	3.74
340.964	3.55
341.336	3.83
341.707	3.85
342.078	3.39
342.449	3.2
342.82	3.66
343.191	3.66
343.562	3.88
343.933	3.62
344.303	3.73
344.674	3.51
345.045	3.59
345.416	3.94
345.786	3.81
346.157	3.74
346.527	3.65
346.898	3.61
347.268	3.76
347.639	3.78
348.009	4.09
348.38	3.39
348.75	3.45
349.12	3.66
349.49	3.57
349.861	3.73
350.231	3.88
350.601	3.3
350.971	3.49
351.341	3.9
351.711	3.51
352.081	3.58
352.45	3.75
352.82	3.18
353.19	3.61
353.56	3.54
353.929	3.8
354.299	3.86
354.669	3.69
355.038	3.96
355.408	3.89
355.777	3.63
356.147	3.57
356.516	3.47
356.885	3.58
357.254	3.52
357.624	3.67
357.993	3.81
358.362	3.63
358.731	3.96
359.1	3.55
359.469	3.69
359.838	3.64
360.207	3.87
360.576	3.75
360.945	3.77
361.314	3.74
361.682	3.65
362.051	3.7
362.42	3.8
362.788	3.73
363.157	3.45
363.525	3.86
363.894	3.5
364.262	3.7
364.631	4.04
364.999	3.95
365.367	3.62
365.735	3.53
366.104	3.85
366.472	3.71
366.84	3.6
367.208	3.85
367.576	3.8
367.944	3.82
368.312	3.35
368.68	3.88
369.048	3.88
369.416	3.52
369.783	3.46
370.151	4.01
370.519	3.88
370.886	3.75
371.254	4.02
371.621	3.81
371.989	4.23
372.356	3.65
372.724	3.84
373.091	3.66
373.458	3.6
373.826	3.92
374.193	4.03
374.56	3.8
374.927	3.75
375.294	4.03
375.661	3.86
376.028	3.68
376.395	4.08
376.762	3.58
377.129	3.69
377.496	3.97
377.863	3.82
378.229	3.69
378.596	3.94
378.963	4.06
379.329	3.83
379.696	3.98
380.062	3.73
380.429	3.57
380.795	3.97
381.161	3.32
381.528	3.84
381.894	3.56
382.26	3.91
382.626	3.86
382.993	4.21
383.359	3.73
383.725	3.47
384.091	4.03
384.457	3.59
384.823	3.74
385.188	3.68
385.554	3.85
385.92	3.93
386.286	3.79
386.651	3.58
387.017	4.12
387.383	3.73
387.748	3.81
388.114	3.89
388.479	4.02
388.845	3.73
389.21	3.79
389.575	4.11
389.94	3.97
390.306	4.01
390.671	4.04
391.036	4.05
391.401	3.95
391.766	3.96
392.131	4.25
392.496	3.84
392.861	3.81
393.226	3.62
393.591	4.02
393.956	3.87
394.32	4.09
394.685	3.8
395.05	3.91
395.414	3.79
395.779	3.88
396.143	3.68
396.508	3.96
396.872	3.96
397.236	4.22
397.601	3.84
397.965	3.94
398.329	3.94
398.694	3.69
399.058	4
399.422	3.95
399.786	3.74
400.15	3.8
400.514	4.13
400.878	3.81
401.242	4.1
401.605	3.77
401.969	3.73
402.333	3.92
402.697	4.12
403.06	3.97
403.424	3.99
403.787	3.92
404.151	3.93
404.514	4.06
404.878	4.05
405.241	4.02
405.604	4.14
405.968	3.96
406.331	4.03
406.694	3.83
407.057	3.95
407.42	3.77
407.783	4.01
408.146	4.07
408.509	4.08
408.872	3.92
409.235	3.86
409.598	4.08
409.961	4.04
410.323	3.9
410.686	3.94
411.049	3.9
411.411	4.01
411.774	3.99
412.136	4.07
412.499	4.05
412.861	3.93
413.223	3.91
413.586	4.17
413.948	4.09
414.31	4.19
414.672	4.05
415.035	4.1
415.397	3.89
415.759	3.86
416.121	4.37
416.483	4.01
416.845	4.16
417.206	4.02
417.568	3.79
417.93	4.19
418.292	3.93
418.653	3.81
419.015	3.93
419.377	3.94
419.738	3.97
420.1	3.93
420.461	3.89
420.822	4
421.184	3.98
421.545	3.97
421.906	3.99
422.267	3.86
422.629	3.88
422.99	3.97
423.351	3.84
423.712	3.88
424.073	3.93
424.434	4.08
424.795	3.87
425.155	3.84
425.516	3.94
425.877	3.98
426.238	3.89
426.598	4.01
426.959	4.08
427.32	3.95
427.68	4.09
428.041	4.07
428.401	3.84
428.761	3.97
429.122	4.09
429.482	4.04
429.842	4.02
430.202	4.12
430.563	3.98
430.923	4.16
431.283	4.01
431.643	4.21
432.003	4.18
432.363	4.14
432.722	3.96
433.082	4.17
433.442	4.11
433.802	4.07
434.161	4.13
434.521	4.07
434.881	4.12
435.24	4.11
435.6	4.18
435.959	4.19
436.319	3.97
436.678	4.14
437.037	4.06
437.396	4.22
437.756	4.06
438.115	4.02
438.474	4.09
438.833	4.2
439.192	4.06
439.551	4.08
439.91	4.27
440.269	4.11
440.628	4.06
440.987	4.15
441.345	4.08
441.704	4.01
442.063	4.01
442.421	4.09
442.78	4.01
443.138	4.1
443.497	4.08
443.855	4.17
444.214	4
444.572	4.35
444.93	4.12
445.288	4.2
445.647	4.04
446.005	4.13
446.363	4.17
446.721	4.08
447.079	4
447.437	4.13
447.795	4.24
448.153	4.06
448.51	4.2
448.868	4
449.226	4.1
449.584	4.07
449.941	4.15
450.299	4.1
450.656	4.14
451.014	4.12
451.371	4.29
451.729	4.21
452.086	4.26
452.443	4.28
452.801	4.14
453.158	4.4
453.515	4.16
453.872	4.25
454.229	4.06
454.586	4.1
454.943	4.14
455.3	4.22
455.657	4.18
456.014	4.24
456.371	4.32
456.727	4.35
457.084	4.34
457.441	4.29
457.797	4.22
458.154	4.22
458.51	4.13
458.867	4.34
459.223	4.11
459.58	4.22
459.936	4.13
460.292	4.12
460.648	4.12
461.005	4.15
461.361	4.19
461.717	4.14
462.073	4.17
462.429	4.18
462.785	4.21
463.141	4.34
463.496	4.27
463.852	4.41
464.208	4.15
464.564	4.11
464.919	4.23
465.275	4.17
465.631	4.47
465.986	4.28
466.342	4.26
466.697	4.2
467.052	4.39
467.408	4.39
467.763	4.2
468.118	4.06
468.473	4.24
468.829	4.13
469.184	4.28
469.539	4.16
469.894	4.41
470.249	4.32
470.603	4.43
470.958	4.41
471.313	4.38
471.668	4.23
472.023	4.41
472.377	4.24
472.732	4.4
473.086	4.22
473.441	4.27
473.795	4.46
474.15	4.32
474.504	4.35
474.859	4.19
475.213	4.34
475.567	4.2
475.921	4.48
476.275	4.48
476.63	4.42
476.984	4.35
477.338	4.55
477.692	4.37
478.045	4.39
478.399	4.39
478.753	4.32
479.107	4.4
479.461	4.25
479.814	4.26
480.168	4.41
480.521	4.42
480.875	4.45
481.228	4.35
481.582	4.44
481.935	4.57
482.289	4.42
482.642	4.4
482.995	4.29
483.348	4.25
483.701	4.35
484.055	4.33
484.408	4.3
484.761	4.23
485.114	4.12
485.466	4.14
485.819	4.15
486.172	4.19
486.525	4.2
486.878	4.27
487.23	4.24
487.583	4.3
487.936	4.26
488.288	4.24
488.641	4.28
488.993	4.22
489.345	4.25
489.698	4.25
490.05	4.27
490.402	4.27
490.754	4.31
491.107	4.27
491.459	4.41
491.811	4.38
492.163	4.36
492.515	4.34
492.866	4.28
493.218	4.31
493.57	4.36
493.922	4.3
494.274	4.42
494.625	4.46
494.977	4.43
495.328	4.54
495.68	4.55
496.031	4.44
496.383	4.48
496.734	4.48
497.086	4.63
497.437	4.63
497.788	4.65
498.139	4.51
498.49	4.52
498.842	4.55
499.193	4.49
499.544	4.59
499.894	4.49
500.245	4.63
500.596	4.58
500.947	4.59
501.298	4.53
501.648	4.56
501.999	4.62
502.35	4.49
502.7	4.84
503.051	4.65
503.401	4.69
503.752	4.52
504.102	4.59
504.452	4.53
504.803	4.67
505.153	4.75
505.503	4.74
505.853	4.67
506.203	4.59
506.553	4.67
506.903	4.65
507.253	4.69
507.603	4.69
507.953	4.77
508.303	4.74
508.652	4.5
509.002	4.74
509.352	4.69
509.701	4.58
510.051	4.77
510.4	4.67
510.75	4.7
511.099	4.58
511.449	4.68
511.798	4.67
512.147	4.64
512.496	4.79
512.846	4.67
513.195	4.77
513.544	4.79
513.893	4.63
514.242	4.71
514.591	4.64
514.939	4.68
515.288	4.7
515.637	4.79
515.986	4.76
516.334	4.81
516.683	4.81
517.032	4.71
517.38	4.74
517.729	4.82
518.077	4.78
518.426	4.88
518.774	4.77
519.122	4.79
519.47	4.77
519.819	4.77
520.167	4.74
520.515	4.76
520.863	4.81
521.211	4.72
521.559	4.74
521.907	4.82
522.255	4.74
522.602	4.81
522.95	4.98
523.298	4.9
523.645	4.94
523.993	4.94
524.341	4.98
524.688	4.86
525.036	4.95
525.383	4.87
525.73	4.87
526.078	4.99
526.425	4.84
526.772	4.82
527.119	4.89
527.466	4.97
527.814	4.89
528.161	4.89
528.508	4.96
528.854	4.87
529.201	4.84
529.548	4.83
529.895	4.76
530.242	4.76
530.588	4.78
530.935	4.82
531.282	4.85
531.628	4.86
531.975	4.87
532.321	4.98
532.667	4.98
533.014	5.07
533.36	5
533.706	5.06
534.052	5.11
534.399	4.99
534.745	4.94
535.091	4.95
535.437	4.96
535.783	5.01
536.129	4.98
536.474	5.08
536.82	5.14
537.166	5.11
537.512	5.07
537.857	5.13
538.203	5.03
538.549	5.08
538.894	5.18
539.239	5.21
539.585	5.24
539.93	5.17
540.276	5.26
540.621	5.35
540.966	5.24
541.311	5.26
541.656	5.18
542.001	5.21
542.346	5.2
542.691	5.11
543.036	5.18
543.381	5.19
543.726	5.2
544.071	5.13
544.415	5.27
544.76	5.24
545.105	5.29
545.449	5.29
545.794	5.32
546.138	5.33
546.483	5.31
546.827	5.42
547.171	5.42
547.516	5.52
547.86	5.43
548.204	5.46
548.548	5.54
548.892	5.47
549.236	5.46
549.58	5.56
549.924	5.73
550.268	5.59
550.612	5.68
550.956	5.65
551.3	5.68
551.643	5.58
551.987	5.78
552.33	5.88
552.674	5.64
553.017	5.95
553.361	5.82
553.704	5.71
554.048	5.74
554.391	5.82
554.734	5.66
555.077	5.83
555.42	5.62
555.764	5.74
556.107	5.89
556.45	5.77
556.793	5.95
557.135	5.73
557.478	5.9
557.821	6.03
558.164	5.92
558.507	5.75
558.849	6
559.192	5.98
559.534	5.91
559.877	5.87
560.219	5.92
560.562	6.01
560.904	6.29
561.246	5.96
561.589	6.25
561.931	6.09
562.273	6.16
562.615	5.89
562.957	5.99
563.299	6.27
563.641	6.03
563.983	5.98
564.325	6.13
564.667	6.3
565.008	6.16
565.35	6.1
565.692	6.18
566.033	6.31
566.375	6.2
566.716	6.08
567.058	6.24
567.399	6.31
567.741	6.45
568.082	6.26
568.423	6.08
568.764	6.32
569.105	6.25
569.447	6.35
569.788	6.3
570.129	6.32
570.47	6.52
570.811	6.33
571.151	6.48
571.492	6.53
571.833	6.38
572.174	6.48
572.514	6.48
572.855	6.52
573.195	6.51
573.536	6.49
573.876	6.47
574.217	6.49
574.557	6.4
574.898	6.51
575.238	6.51
575.578	6.69
575.918	6.77
576.258	6.78
576.598	6.55
576.938	6.62
577.278	6.76
577.618	6.84
577.958	6.79
578.298	6.81
578.638	6.78
578.977	6.92
579.317	6.91
579.657	6.89
579.996	6.97
580.336	6.97
580.675	6.87
581.014	7.09
581.354	6.93
581.693	7.04
582.032	6.99
582.372	7.08
582.711	7.2
583.05	7.27
583.389	7.13
583.728	7.28
584.067	7.1
584.406	7.38
584.745	7.03
585.083	7.27
585.422	7.31
585.761	7.1
586.1	7.44
586.438	7.08
586.777	7.24
587.115	7.35
587.454	7.18
587.792	7.47
588.13	7.31
588.469	7.41
588.807	7.43
589.145	7.7
589.483	7.34
589.821	7.56
590.159	7.72
590.497	7.64
590.835	7.57
591.173	7.54
591.511	7.57
591.849	7.68
592.187	7.38
592.524	7.6
592.862	7.72
593.2	7.5
593.537	7.63
593.875	7.53
594.212	7.68
594.55	7.92
594.887	8
595.224	8.05
595.561	7.57
595.899	7.67
596.236	7.91
596.573	7.86
596.91	7.9
597.247	7.94
597.584	8.01
597.921	8.04
598.258	8.01
598.594	7.95
598.931	7.88
599.268	7.9
599.604	7.98
599.941	7.95
600.277	8.05
600.614	8.16
600.95	8.01
601.287	8.09
601.623	8.21
601.959	8.55
602.296	8.13
602.632	8.34
602.968	8.39
603.304	8.3
603.64	8.25
603.976	8.38
604.312	8.3
604.648	8.41
604.984	8.55
605.319	8.35
605.655	8.31
605.991	8.4
606.326	8.35
606.662	8.37
606.998	8.59
607.333	8.57
607.668	8.53
608.004	8.32
608.339	8.5
608.674	8.62
609.01	8.7
609.345	8.48
609.68	8.74
610.015	8.82
610.35	8.76
610.685	8.55
611.02	8.78
611.355	8.69
611.689	8.84
612.024	8.91
612.359	8.91
612.694	9.1
613.028	8.89
613.363	8.72
613.697	8.84
614.032	9.11
614.366	9.05
614.7	9.1
615.035	9.09
615.369	9.32
615.703	9.08
616.037	9.01
616.371	8.86
616.705	8.95
617.039	9.36
617.373	9.16
617.707	9.57
618.041	9.17
618.375	9.13
618.709	9.51
619.042	9.45
619.376	9.15
619.71	9.25
620.043	9.7
620.377	9.42
620.71	9.23
621.043	9.65
621.377	9.76
621.71	9.92
622.043	9.72
622.376	9.61
622.709	10.03
623.043	9.53
623.376	9.5
623.709	9.98
624.041	9.71
624.374	9.86
624.707	9.67
625.04	9.79
625.373	10.05
625.705	10.02
626.038	9.94
626.37	9.57
626.703	10.01
627.035	9.94
627.368	10.27
627.7	10
628.032	9.89
628.365	10.06
628.697	10.31
629.029	10.25
629.361	10.19
629.693	10.15
630.025	10.29
630.357	10.51
630.689	10.47
631.021	10.43
631.353	10.4
631.684	10.54
632.016	10.25
632.348	10.03
632.679	10.55
633.011	10.31
633.342	10.41
633.674	10.05
634.005	10.56
634.336	10.63
634.668	10.42
634.999	10.45
635.33	10.88
635.661	10.73
635.992	10.55
636.323	10.57
636.654	10.75
636.985	10.58
637.316	10.66
637.647	10.8
637.977	10.72
638.308	10.83
638.639	11.05
638.969	10.84
639.3	11.23
639.63	10.92
639.961	10.66
640.291	10.9
640.622	10.96
640.952	11.09
641.282	10.72
641.612	11.09
641.943	10.82
642.273	11.02
642.603	11.41
642.933	11.67
643.263	11.67
643.592	11.74
643.922	11.67
644.252	11.26
644.582	11.73
644.911	11.45
645.241	11.18
645.571	10.85
645.9	11.8
646.23	11.86
646.559	11.54
646.888	12.22
647.218	11.64
647.547	11.5
647.876	11.64
648.205	11.6
648.534	11.71
648.863	11.61
649.192	11.59
649.521	12.12
649.85	12.45
650.179	11.8
650.508	12.25
650.837	12.25
651.165	12.26
651.494	12.18
651.822	12.03
652.151	12.12
652.479	12.02
652.808	12.05
653.136	12.01
653.465	12.1
653.793	12.44
654.121	11.99
654.449	12.39
654.777	11.96
655.105	11.97
655.433	12.3
655.761	12.43
656.089	12.54
656.417	12.86
656.745	12.54
657.073	12.66
657.4	12.67
657.728	12.25
658.056	12.78
658.383	12.52
658.711	12.95
659.038	13.24
659.365	12.77
659.693	12.74
660.02	12.71
660.347	12.97
660.674	12.38
661.001	12.57
661.329	12.55
661.656	12.41
661.982	12.88
662.309	12.92
662.636	12.96
662.963	12.68
663.29	12.86
663.616	12.91
663.943	13.15
664.27	12.58
664.596	13.14
664.923	12.96
665.249	13.33
665.576	13.13
665.902	12.72
666.228	13.33
666.554	13.73
666.881	13.11
667.207	13
667.533	13.38
667.859	13.32
668.185	13.4
668.511	13.89
668.837	13.6
669.162	13.81
669.488	13.13
669.814	14
670.139	13.34
670.465	13.61
670.791	12.84
671.116	13.44
671.442	13.15
671.767	13.45
672.092	13.71
672.418	14.12
672.743	13.71
673.068	13.59
673.393	14.12
673.718	13.83
674.043	13.15
674.368	14.41
674.693	13.81
675.018	14.05
675.343	14.47
675.667	13.83
675.992	14.26
676.317	12.88
676.641	14.41
676.966	14.75
677.29	14.31
677.615	14.52
677.939	14.47
678.264	13.84
678.588	14.43
678.912	14.35
679.236	14.31
679.56	14.23
679.885	14.28
680.209	15.04
680.532	14.66
680.856	14.14
681.18	15.66
681.504	14.7
681.828	14.64
682.152	14.32
682.475	14.62
682.799	14.41
683.122	14.98
683.446	14.62
683.769	14.88
684.093	15.19
684.416	14.77
684.739	15.17
685.062	15.07
685.386	15.25
685.709	14.86
686.032	14.97
686.355	15.32
686.678	15.65
687.001	15.18
687.324	14.66
687.646	15.26
687.969	15.59
688.292	15.49
