Data from 21-9_forehead_Reflection__0__40.txt Node

Date: Thu Dec 15 16:45:46 CST 2022
User: ToomeyLab
Spectrometer: FLMS14357
Trigger mode: 0
Integration Time (sec): 1.000000E-2
Scans to average: 100
Electric dark correction enabled: true
Nonlinearity correction enabled: false
Boxcar width: 0
XAxis mode: Wavelengths
Number of Pixels in Spectrum: 2048
>>>>>Begin Spectral Data<<<<<
189.047	15.2
189.435	15.2
189.823	15.2
190.211	-121.85
190.599	239.14
190.987	6.63
191.375	-765.51
191.763	261.49
192.151	85.25
192.538	104.31
192.926	111.94
193.314	55.44
193.702	191.69
194.089	-253.16
194.477	-962.8
194.864	53.64
195.252	522.36
195.639	114.87
196.027	15.47
196.414	1345.02
196.801	264.62
197.189	61.06
197.576	137.78
197.963	-14.45
198.351	11.6
198.738	51.72
199.125	0.08
199.512	61.94
199.899	-9.13
200.286	0.93
200.673	67.43
201.06	34.24
201.447	34.59
201.833	23.75
202.22	17.52
202.607	8.07
202.994	70.58
203.38	63.02
203.767	53.29
204.154	47.55
204.54	43.5
204.927	14.35
205.313	45.8
205.699	45.24
206.086	41.54
206.472	51.99
206.858	67.11
207.245	55.98
207.631	22.1
208.017	48.65
208.403	33.7
208.789	23.06
209.175	35.95
209.561	-56.15
209.947	33.43
210.333	29.76
210.719	32.98
211.105	23.59
211.491	35.97
211.876	9.16
212.262	41.25
212.648	63.83
213.034	6.75
213.419	14.06
213.805	-3.75
214.19	22.91
214.576	6.48
214.961	45.93
215.346	34.93
215.732	7.38
216.117	32.65
216.502	-8.5
216.888	5.39
217.273	6.21
217.658	18.76
218.043	-2.66
218.428	-1.39
218.813	19.47
219.198	5.19
219.583	2.74
219.968	25.78
220.353	11.29
220.738	14.12
221.122	11
221.507	14.71
221.892	-7.28
222.276	-20.78
222.661	9.67
223.046	4.28
223.43	24.66
223.815	12.9
224.199	14.31
224.583	14.27
224.968	7.76
225.352	7.23
225.736	16.2
226.121	10.46
226.505	12.61
226.889	10.06
227.273	8.01
227.657	7.48
228.041	7.03
228.425	2.78
228.809	7
229.193	4.6
229.577	5.13
229.961	4.16
230.344	4.77
230.728	5.88
231.112	5.01
231.495	4.26
231.879	5.78
232.263	5.93
232.646	5.96
233.03	6.3
233.413	5.17
233.797	5.02
234.18	6.66
234.563	5.84
234.946	5.87
235.33	5
235.713	5.79
236.096	6.2
236.479	5.56
236.862	4.49
237.245	4.21
237.628	6.24
238.011	5.64
238.394	4.79
238.777	6.1
239.16	6.96
239.543	5.94
239.925	6.27
240.308	6.12
240.691	5.79
241.073	5.97
241.456	5.86
241.838	5.08
242.221	5.61
242.603	5.53
242.986	4.88
243.368	5.42
243.75	5.18
244.133	5.5
244.515	4.93
244.897	4.88
245.279	5.22
245.661	5.39
246.043	5.69
246.425	4.66
246.807	4.97
247.189	5.26
247.571	5.11
247.953	4.98
248.335	4.81
248.717	4.81
249.098	5.02
249.48	4.7
249.862	5.25
250.243	5.21
250.625	5.18
251.006	5.63
251.388	5.56
251.769	5.24
252.151	5.97
252.532	4.63
252.913	5.43
253.295	4.91
253.676	4.97
254.057	4.94
254.438	5.45
254.819	4.97
255.2	5.38
255.581	6.99
255.962	6.32
256.343	5.76
256.724	5.59
257.105	5.57
257.486	4.85
257.867	5.31
258.247	4.7
258.628	5.73
259.009	5.24
259.389	4.55
259.77	4.93
260.15	5.69
260.531	4.79
260.911	4.91
261.292	4.91
261.672	4.92
262.052	4.76
262.432	4.84
262.813	4.96
263.193	5.33
263.573	5.1
263.953	5.08
264.333	5.12
264.713	5.54
265.093	4.8
265.473	4.95
265.853	4.96
266.233	5.73
266.612	4.95
266.992	4.64
267.372	5.28
267.752	5.57
268.131	4.95
268.511	4.75
268.89	5.35
269.27	4.36
269.649	4.67
270.029	5.07
270.408	4.59
270.787	5.06
271.167	5.31
271.546	5.58
271.925	5.17
272.304	4.52
272.683	4.8
273.062	4.38
273.441	4.26
273.82	4.78
274.199	4.8
274.578	4.84
274.957	4.93
275.336	5.01
275.715	4.9
276.093	4.73
276.472	4.54
276.851	4.78
277.229	5.14
277.608	4.43
277.986	4.91
278.365	4.84
278.743	4.92
279.122	4.73
279.5	4.79
279.878	4.81
280.257	4.95
280.635	5.27
281.013	4.86
281.391	4.4
281.769	5.1
282.147	4.65
282.525	4.71
282.903	4.66
283.281	4.93
283.659	5
284.037	4.68
284.415	4.64
284.792	4.74
285.17	4.57
285.548	4.61
285.925	4.55
286.303	4.88
286.68	4.61
287.058	4.71
287.435	4.59
287.813	4.47
288.19	4.65
288.567	4.58
288.945	4.59
289.322	5.18
289.699	5.47
290.076	4.81
290.453	4.41
290.83	4.87
291.207	4.62
291.584	4.97
291.961	4.96
292.338	4.73
292.715	4.81
293.092	5.34
293.469	4.75
293.845	5.2
294.222	5.58
294.599	4.72
294.975	4.66
295.352	5.36
295.728	5.09
296.105	5.11
296.481	5.21
296.858	4.63
297.234	5.09
297.61	5.31
297.986	5.46
298.363	5.4
298.739	5.33
299.115	5.46
299.491	5.42
299.867	5.4
300.243	5.43
300.619	5.54
300.995	5.94
301.371	5.71
301.746	5.92
302.122	5.67
302.498	5.76
302.874	5.92
303.249	6.05
303.625	5.74
304	6.19
304.376	6.42
304.751	6.19
305.127	6.42
305.502	6.43
305.878	6.28
306.253	5.98
306.628	6.31
307.003	6.56
307.378	6.4
307.754	7
308.129	6.79
308.504	7.23
308.879	7.01
309.254	6.99
309.629	6.9
310.003	7.03
310.378	7.5
310.753	6.95
311.128	7.17
311.502	7.1
311.877	7.31
312.252	7.57
312.626	7.75
313.001	7.86
313.375	7.97
313.75	7.9
314.124	8.42
314.498	8.33
314.873	8.1
315.247	7.93
315.621	7.8
315.995	8.19
316.369	8.21
316.743	8.54
317.117	8.36
317.491	8.67
317.865	7.99
318.239	9.32
318.613	8.46
318.987	8.84
319.361	8.92
319.734	9.31
320.108	8.91
320.482	9.69
320.855	9.3
321.229	9.41
321.602	9.31
321.976	9.58
322.349	10.13
322.723	9.78
323.096	9.62
323.469	9.72
323.843	9.01
324.216	9.78
324.589	9.8
324.962	10.09
325.335	9.63
325.708	10.13
326.081	9.88
326.454	10.62
326.827	10.66
327.2	10.57
327.573	10.73
327.945	10.39
328.318	10.2
328.691	10.78
329.063	10.77
329.436	10.58
329.809	10.65
330.181	11.01
330.553	11.78
330.926	11.49
331.298	10.95
331.671	11.54
332.043	11.15
332.415	11.42
332.787	11.96
333.159	11.46
333.532	11.63
333.904	11.91
334.276	11.86
334.648	11.6
335.02	11.92
335.391	11.61
335.763	11.66
336.135	11.83
336.507	11.3
336.879	12.16
337.25	12.05
337.622	12.16
337.993	11.9
338.365	12.03
338.736	12.28
339.108	12.23
339.479	12.55
339.851	12.68
340.222	12.69
340.593	12.44
340.964	12.51
341.336	12.66
341.707	12.7
342.078	12.74
342.449	12.64
342.82	12.55
343.191	12.91
343.562	12.95
343.933	12.23
344.303	13.22
344.674	12.84
345.045	13.13
345.416	13.62
345.786	13.01
346.157	12.92
346.527	13.04
346.898	12.7
347.268	13.4
347.639	13.38
348.009	13.34
348.38	13.3
348.75	13.57
349.12	13.44
349.49	13.32
349.861	13.75
350.231	13.96
350.601	14.06
350.971	13.49
351.341	13.57
351.711	13.7
352.081	13.42
352.45	13.58
352.82	13.28
353.19	14.08
353.56	13.74
353.929	14.17
354.299	14.11
354.669	14.28
355.038	14.22
355.408	14.25
355.777	14.31
356.147	14.41
356.516	14.33
356.885	14.28
357.254	14.13
357.624	14.22
357.993	14.61
358.362	14.78
358.731	14.67
359.1	14.45
359.469	14.79
359.838	14.4
360.207	14.77
360.576	14.89
360.945	14.58
361.314	14.71
361.682	14.85
362.051	15.12
362.42	14.85
362.788	14.93
363.157	14.88
363.525	15.2
363.894	15.13
364.262	14.79
364.631	15.28
364.999	15.23
365.367	15.03
365.735	14.98
366.104	15.52
366.472	15.41
366.84	15.54
367.208	16.28
367.576	15.48
367.944	15.53
368.312	15.54
368.68	16.18
369.048	15.7
369.416	15.31
369.783	15.75
370.151	15.94
370.519	16.02
370.886	16.18
371.254	16.57
371.621	15.97
371.989	16.28
372.356	16.28
372.724	16.28
373.091	16.56
373.458	16.17
373.826	16.38
374.193	16.38
374.56	16.37
374.927	16.46
375.294	16.59
375.661	16.85
376.028	16.4
376.395	16.49
376.762	16.46
377.129	16.67
377.496	16.7
377.863	16.49
378.229	17.01
378.596	16.68
378.963	16.77
379.329	16.91
379.696	16.82
380.062	17.08
380.429	16.75
380.795	16.93
381.161	16.59
381.528	17.07
381.894	16.91
382.26	17.41
382.626	17.51
382.993	17.2
383.359	17.03
383.725	16.98
384.091	17.33
384.457	17.21
384.823	17.58
385.188	17.48
385.554	17.21
385.92	17.49
386.286	17.48
386.651	17.28
387.017	17.65
387.383	17.34
387.748	17.66
388.114	17.76
388.479	17.69
388.845	17.53
389.21	18.02
389.575	17.84
389.94	17.66
390.306	17.85
390.671	18.11
391.036	17.84
391.401	17.63
391.766	18.04
392.131	18.01
392.496	17.65
392.861	17.85
393.226	17.81
393.591	17.83
393.956	18
394.32	18.04
394.685	18.13
395.05	18.08
395.414	18.06
395.779	18.14
396.143	18.01
396.508	18.03
396.872	18.09
397.236	18.33
397.601	18.06
397.965	18.34
398.329	18.3
398.694	17.9
399.058	17.89
399.422	18.41
399.786	17.84
400.15	18.33
400.514	18.4
400.878	18.34
401.242	18.32
401.605	18.27
401.969	18.25
402.333	18.09
402.697	18.62
403.06	18.17
403.424	18.27
403.787	18.36
404.151	18.41
404.514	18.48
404.878	18.25
405.241	18.21
405.604	18.16
405.968	18.38
406.331	18.23
406.694	18.28
407.057	18.31
407.42	18.3
407.783	18.33
408.146	18.44
408.509	18.74
408.872	18.24
409.235	18.38
409.598	18.16
409.961	18.67
410.323	18.59
410.686	18.36
411.049	18.76
411.411	18.55
411.774	18.61
412.136	18.47
412.499	18.67
412.861	18.42
413.223	18.35
413.586	18.72
413.948	18.75
414.31	19.03
414.672	18.81
415.035	18.73
415.397	18.79
415.759	18.66
416.121	19.07
416.483	18.96
416.845	19.04
417.206	19.15
417.568	19.11
417.93	19.35
418.292	19.02
418.653	19.12
419.015	19.28
419.377	19.14
419.738	19.34
420.1	19.41
420.461	19.4
420.822	19.53
421.184	19.51
421.545	19.73
421.906	19.54
422.267	19.65
422.629	19.61
422.99	19.6
423.351	19.73
423.712	19.86
424.073	20.05
424.434	20.11
424.795	20.16
425.155	20.24
425.516	20.14
425.877	20.37
426.238	20.45
426.598	20.45
426.959	20.61
427.32	20.69
427.68	20.87
428.041	21.05
428.401	20.96
428.761	21.39
429.122	21.23
429.482	21.39
429.842	21.51
430.202	21.74
430.563	21.75
430.923	21.79
431.283	22.04
431.643	22.2
432.003	22.35
432.363	22.19
432.722	22.3
433.082	22.37
433.442	22.35
433.802	22.74
434.161	22.62
434.521	22.57
434.881	22.68
435.24	22.81
435.6	22.87
435.959	22.93
436.319	22.86
436.678	23.02
437.037	23.02
437.396	23.2
437.756	23.2
438.115	23.39
438.474	23.44
438.833	23.46
439.192	23.58
439.551	23.55
439.91	23.66
440.269	23.81
440.628	23.84
440.987	23.71
441.345	23.82
441.704	23.76
442.063	23.83
442.421	23.96
442.78	24.02
443.138	24.13
443.497	24.22
443.855	24.24
444.214	24.24
444.572	24.62
444.93	24.48
445.288	24.61
445.647	24.52
446.005	24.69
446.363	24.7
446.721	24.7
447.079	24.72
447.437	24.83
447.795	24.85
448.153	24.79
448.51	24.98
448.868	24.88
449.226	25.03
449.584	25.02
449.941	25.36
450.299	25.39
450.656	25.51
451.014	25.73
451.371	25.67
451.729	25.79
452.086	25.84
452.443	26.07
452.801	26.09
453.158	26.22
453.515	26.19
453.872	26.32
454.229	26.05
454.586	26.14
454.943	26.4
455.3	26.34
455.657	26.6
456.014	26.74
456.371	26.84
456.727	26.9
457.084	26.88
457.441	26.91
457.797	27.12
458.154	27.01
458.51	27.13
458.867	27.09
459.223	27.22
459.58	27.19
459.936	27.29
460.292	26.94
460.648	27.25
461.005	27.05
461.361	27.15
461.717	27.13
462.073	27.32
462.429	27.31
462.785	27.56
463.141	27.62
463.496	27.73
463.852	28.01
464.208	28.14
464.564	27.98
464.919	28.1
465.275	28.3
465.631	28.4
465.986	28.51
466.342	28.34
466.697	28.4
467.052	28.43
467.408	28.49
467.763	28.52
468.118	28.53
468.473	28.67
468.829	29.01
469.184	28.88
469.539	28.76
469.894	29.16
470.249	29.03
470.603	29.33
470.958	29.14
471.313	29.22
471.668	29.33
472.023	29.4
472.377	29.37
472.732	29.43
473.086	29.51
473.441	29.3
473.795	29.56
474.15	29.61
474.504	29.41
474.859	29.54
475.213	29.71
475.567	29.5
475.921	29.85
476.275	30.05
476.63	29.74
476.984	29.7
477.338	29.94
477.692	29.91
478.045	30.08
478.399	29.81
478.753	29.88
479.107	30.11
479.461	30.02
479.814	30.28
480.168	30.15
480.521	30.1
480.875	30.26
481.228	30.48
481.582	30.43
481.935	30.44
482.289	30.39
482.642	30.52
482.995	30.39
483.348	30.18
483.701	30.3
484.055	30.12
484.408	29.92
484.761	29.73
485.114	29.7
485.466	29.9
485.819	30.04
486.172	30
486.525	29.89
486.878	30.1
487.23	30.25
487.583	30.41
487.936	30.36
488.288	30.36
488.641	30.34
488.993	30.35
489.345	30.42
489.698	30.57
490.05	30.45
490.402	30.63
490.754	30.83
491.107	30.9
491.459	31.03
491.811	31.11
492.163	31.1
492.515	30.92
492.866	30.91
493.218	30.93
493.57	31.06
493.922	31.13
494.274	31.32
494.625	31.52
494.977	31.54
495.328	31.72
495.68	31.94
496.031	32.2
496.383	32.26
496.734	32.31
497.086	32.37
497.437	32.17
497.788	32.32
498.139	32.16
498.49	32.28
498.842	32.31
499.193	32.27
499.544	32.26
499.894	32.49
500.245	32.6
500.596	32.59
500.947	32.71
501.298	32.74
501.648	32.78
501.999	32.97
502.35	32.91
502.7	33.02
503.051	33.05
503.401	33.28
503.752	33.05
504.102	33.19
504.452	33.12
504.803	33.36
505.153	33.41
505.503	33.31
505.853	33.46
506.203	33.47
506.553	33.55
506.903	33.64
507.253	33.62
507.603	33.8
507.953	33.58
508.303	33.64
508.652	33.71
509.002	33.84
509.352	33.91
509.701	33.78
510.051	33.85
510.4	33.94
510.75	33.7
511.099	33.75
511.449	33.92
511.798	33.73
512.147	33.79
512.496	34.1
512.846	34.02
513.195	33.88
513.544	34.08
513.893	34.13
514.242	34.07
514.591	34.13
514.939	34.23
515.288	34.24
515.637	34.25
515.986	34.35
516.334	34.56
516.683	34.39
517.032	34.48
517.38	34.38
517.729	34.69
518.077	34.43
518.426	34.57
518.774	34.57
519.122	34.41
519.47	34.49
519.819	34.27
520.167	34.48
520.515	34.39
520.863	34.36
521.211	34.55
521.559	34.5
521.907	34.81
522.255	34.77
522.602	34.84
522.95	35.1
523.298	34.99
523.645	35.14
523.993	35.07
524.341	34.9
524.688	35.18
525.036	35.37
525.383	35.17
525.73	35.13
526.078	35.27
526.425	34.93
526.772	34.95
527.119	34.95
527.466	34.95
527.814	35.03
528.161	35.15
528.508	35.07
528.854	34.91
529.201	34.95
529.548	34.73
529.895	34.63
530.242	35.04
530.588	35.07
530.935	34.98
531.282	34.82
531.628	34.97
531.975	35.12
532.321	35.49
532.667	35.43
533.014	35.5
533.36	35.54
533.706	35.64
534.052	35.55
534.399	35.44
534.745	35.41
535.091	35.46
535.437	35.56
535.783	35.6
536.129	35.58
536.474	35.94
536.82	35.97
537.166	36.03
537.512	36.07
537.857	35.97
538.203	36.11
538.549	36.17
538.894	36.18
539.239	36.15
539.585	36.36
539.93	36.65
540.276	36.58
540.621	36.65
540.966	36.65
541.311	36.74
541.656	36.48
542.001	36.41
542.346	36.26
542.691	36.13
543.036	36.19
543.381	36.39
543.726	36.38
544.071	36.42
544.415	36.45
544.76	36.74
545.105	36.86
545.449	36.82
545.794	36.94
546.138	36.97
546.483	37.14
546.827	37.25
547.171	37.26
547.516	37.33
547.86	37.22
548.204	37.44
548.548	37.44
548.892	37.57
549.236	37.44
549.58	37.67
549.924	37.87
550.268	37.98
550.612	38.04
550.956	38.17
551.3	38.13
551.643	38.19
551.987	38.52
552.33	38.49
552.674	38.45
553.017	38.28
553.361	38.56
553.704	38.3
554.048	38.53
554.391	38.63
554.734	38.51
555.077	38.47
555.42	38.49
555.764	38.65
556.107	38.89
556.45	38.78
556.793	39.25
557.135	38.78
557.478	38.95
557.821	39.15
558.164	39.22
558.507	39.08
558.849	39.25
559.192	39.31
559.534	39.23
559.877	39.37
560.219	39.34
560.562	39.45
560.904	39.57
561.246	39.28
561.589	39.56
561.931	39.35
562.273	39.51
562.615	39.52
562.957	39.6
563.299	39.66
563.641	39.83
563.983	39.63
564.325	39.96
564.667	39.63
565.008	39.67
565.35	39.9
565.692	39.87
566.033	39.98
566.375	39.77
566.716	39.8
567.058	39.95
567.399	39.89
567.741	40.1
568.082	39.85
568.423	40.16
568.764	40.09
569.105	40.13
569.447	40.04
569.788	40.44
570.129	40.53
570.47	40.41
570.811	40.31
571.151	40.53
571.492	40.49
571.833	40.6
572.174	40.56
572.514	40.38
572.855	40.69
573.195	40.52
573.536	40.79
573.876	40.65
574.217	40.43
574.557	40.81
574.898	40.76
575.238	40.84
575.578	40.9
575.918	41.16
576.258	40.99
576.598	41.05
576.938	41.05
577.278	41.25
577.618	41.18
577.958	41.13
578.298	41.43
578.638	41.13
578.977	41.41
579.317	41.65
579.657	41.64
579.996	41.77
580.336	41.87
580.675	41.58
581.014	41.78
581.354	41.9
581.693	42.07
582.032	42.25
582.372	42.06
582.711	42.34
583.05	42.19
583.389	42.47
583.728	42.36
584.067	42.27
584.406	42.36
584.745	42.59
585.083	42.51
585.422	42.7
585.761	42.33
586.1	42.64
586.438	42.36
586.777	42.61
587.115	42.64
587.454	42.4
587.792	42.94
588.13	42.92
588.469	42.96
588.807	43.04
589.145	42.9
589.483	42.78
589.821	43.19
590.159	43.19
590.497	43.25
590.835	43.22
591.173	43.22
591.511	43.42
591.849	43.14
592.187	43.04
592.524	43.18
592.862	43.49
593.2	43.34
593.537	43.23
593.875	43.13
594.212	43.45
594.55	43.81
594.887	43.49
595.224	43.36
595.561	43.47
595.899	43.62
596.236	43.72
596.573	43.51
596.91	43.7
597.247	43.37
597.584	43.66
597.921	43.68
598.258	43.64
598.594	43.6
598.931	43.61
599.268	43.69
599.604	43.84
599.941	44.06
600.277	43.82
600.614	44.11
600.95	44.21
601.287	44.03
601.623	44.02
601.959	44.53
602.296	44.24
602.632	44.33
602.968	44.4
603.304	44.8
603.64	44.46
603.976	44.31
604.312	44.35
604.648	44.56
604.984	44.32
605.319	44.59
605.655	44.42
605.991	44.56
606.326	44.68
606.662	44.45
606.998	44.59
607.333	44.77
607.668	44.81
608.004	44.8
608.339	44.59
608.674	44.96
609.01	45.08
609.345	45.05
609.68	45.42
610.015	45.33
610.35	45.38
610.685	45.06
611.02	45.11
611.355	45.18
611.689	45.35
612.024	45.36
612.359	45.46
612.694	45.62
613.028	45.28
613.363	45.34
613.697	45.62
614.032	45.56
614.366	45.83
614.7	46.11
615.035	46.01
615.369	46.08
615.703	46.05
616.037	46.1
616.371	46.28
616.705	46.01
617.039	46.17
617.373	46.31
617.707	46.22
618.041	46.36
618.375	46.4
618.709	46.38
619.042	46.71
619.376	46.79
619.71	46.51
620.043	47.03
620.377	46.5
620.71	46.85
621.043	47
621.377	46.85
621.71	46.97
622.043	46.86
622.376	46.48
622.709	47.38
623.043	46.68
623.376	46.96
623.709	46.97
624.041	46.9
624.374	47.48
624.707	47.12
625.04	46.57
625.373	47.46
625.705	47.32
626.038	47.28
626.37	47.03
626.703	47.17
627.035	47.44
627.368	47.57
627.7	47.34
628.032	47.1
628.365	47.09
628.697	47.39
629.029	47.92
629.361	47.66
629.693	47.59
630.025	47.92
630.357	47.9
630.689	48.1
631.021	48.18
631.353	47.74
631.684	48
632.016	48.01
632.348	47.84
632.679	47.94
633.011	47.79
633.342	47.9
633.674	47.9
634.005	47.98
634.336	48.34
634.668	48.46
634.999	47.99
635.33	48.14
635.661	48.48
635.992	48.32
636.323	48.35
636.654	48.45
636.985	48.68
637.316	48.6
637.647	48.28
637.977	48.12
638.308	48.71
638.639	48.83
638.969	48.82
639.3	48.62
639.63	48.55
639.961	48.65
640.291	49.17
640.622	48.98
640.952	48.92
641.282	49.04
641.612	49.3
641.943	49.35
642.273	49.2
642.603	49.54
642.933	49.26
643.263	49.45
643.592	49.87
643.922	49.7
644.252	49.64
644.582	50.19
644.911	49.63
645.241	49.52
645.571	49.92
645.9	50.2
646.23	49.39
646.559	50.37
646.888	50.04
647.218	49.65
647.547	49.47
647.876	49.67
648.205	50.08
648.534	50
648.863	49.94
649.192	49.65
649.521	50.14
649.85	50.29
650.179	50.6
650.508	50.18
650.837	50.73
651.165	50.34
651.494	50.03
651.822	50.03
652.151	50.11
652.479	50.4
652.808	50.6
653.136	50.62
653.465	50.64
653.793	50.42
654.121	50.72
654.449	50.45
654.777	50.72
655.105	50.48
655.433	50.91
655.761	50.91
656.089	50.73
656.417	50.89
656.745	50.86
657.073	51.46
657.4	50.99
657.728	51.44
658.056	50.91
658.383	50.97
658.711	51.4
659.038	51.87
659.365	50.97
659.693	51.08
660.02	51.64
660.347	51.51
660.674	51.19
661.001	51.02
661.329	51.05
661.656	51.01
661.982	51.22
662.309	51.05
662.636	51.43
662.963	51.57
663.29	51.53
663.616	51.23
663.943	51.92
664.27	51.93
664.596	51.5
664.923	51.62
665.249	52.26
665.576	51.69
665.902	52.08
666.228	51.98
666.554	52.53
666.881	52.39
667.207	52.4
667.533	52.86
667.859	51.99
668.185	52.12
668.511	52.58
668.837	51.87
669.162	52.62
669.488	51.64
669.814	52.79
