Data from 21-9_crown_Reflection__0__35.txt Node

Date: Thu Dec 15 16:44:29 CST 2022
User: ToomeyLab
Spectrometer: FLMS14357
Trigger mode: 0
Integration Time (sec): 1.000000E-2
Scans to average: 100
Electric dark correction enabled: true
Nonlinearity correction enabled: false
Boxcar width: 0
XAxis mode: Wavelengths
Number of Pixels in Spectrum: 2048
>>>>>Begin Spectral Data<<<<<
189.047	13.84
189.435	13.84
189.823	13.84
190.211	-57.95
190.599	248.33
190.987	16.37
191.375	267.96
191.763	156.58
192.151	46.53
192.538	47.54
192.926	316.58
193.314	14.93
193.702	-103.78
194.089	120.74
194.477	-1810.8
194.864	29.17
195.252	201.46
195.639	64.83
196.027	33.85
196.414	467.19
196.801	-382.56
197.189	-4.55
197.576	91.29
197.963	42.3
198.351	48.77
198.738	-25.01
199.125	-30.96
199.512	34.13
199.899	-17.39
200.286	-9.81
200.673	51.42
201.06	4.46
201.447	16.23
201.833	20.97
202.22	33.64
202.607	-31.33
202.994	-5.54
203.38	21.42
203.767	41.22
204.154	17.36
204.54	27.9
204.927	27.4
205.313	26.59
205.699	61.12
206.086	27.61
206.472	48.1
206.858	1.02
207.245	-0.93
207.631	6.25
208.017	31.37
208.403	-59.9
208.789	18.26
209.175	10.79
209.561	-36.36
209.947	14.81
210.333	-13.09
210.719	20.93
211.105	29.1
211.491	13.59
211.876	0.38
212.262	40.9
212.648	24.93
213.034	16.95
213.419	19.31
213.805	-15.94
214.19	16.61
214.576	0.86
214.961	17.51
215.346	-9.26
215.732	19.9
216.117	10.22
216.502	-2.79
216.888	30.25
217.273	-12.27
217.658	4.55
218.043	-1.82
218.428	2.05
218.813	12.3
219.198	-12.3
219.583	1.04
219.968	18.18
220.353	3.37
220.738	13.87
221.122	5.03
221.507	-1.63
221.892	-11.88
222.276	3.16
222.661	6.65
223.046	3.18
223.43	15.39
223.815	4.84
224.199	3.81
224.583	-2.12
224.968	3.88
225.352	5.25
225.736	13.11
226.121	3.34
226.505	5.65
226.889	0.85
227.273	4.77
227.657	3.79
228.041	7.24
228.425	3.17
228.809	0.79
229.193	5.39
229.577	5.72
229.961	4.93
230.344	5.02
230.728	4.77
231.112	5.37
231.495	3.83
231.879	4.64
232.263	4.86
232.646	4.53
233.03	6.33
233.413	6.23
233.797	4.69
234.18	4.13
234.563	5.7
234.946	3.56
235.33	4.38
235.713	5.04
236.096	6.04
236.479	6.39
236.862	4.05
237.245	4.99
237.628	4.68
238.011	3.89
238.394	4.41
238.777	5.57
239.16	5.85
239.543	4.31
239.925	5.38
240.308	4.38
240.691	3.59
241.073	4.57
241.456	4.96
241.838	5.55
242.221	5.11
242.603	4.9
242.986	4.2
243.368	4.69
243.75	4.73
244.133	4.92
244.515	4.89
244.897	4.73
245.279	5
245.661	4.88
246.043	5.42
246.425	4.5
246.807	4.64
247.189	4.53
247.571	4.36
247.953	4.42
248.335	4.47
248.717	4.38
249.098	4.5
249.48	4.52
249.862	4.65
250.243	4.56
250.625	4.65
251.006	4.95
251.388	4.07
251.769	3.83
252.151	5.17
252.532	4.07
252.913	4.08
253.295	4.59
253.676	4.39
254.057	4.35
254.438	4.37
254.819	4.5
255.2	4.19
255.581	5.4
255.962	4.52
256.343	4.63
256.724	4.86
257.105	4.46
257.486	3.16
257.867	3.78
258.247	4.34
258.628	5.29
259.009	4.11
259.389	3.98
259.77	4.1
260.15	4.48
260.531	4.01
260.911	4.21
261.292	4.21
261.672	4.15
262.052	4.18
262.432	4.11
262.813	4.36
263.193	4.14
263.573	3.91
263.953	3.5
264.333	4.51
264.713	4.22
265.093	4.18
265.473	4.42
265.853	4.17
266.233	4.72
266.612	4.21
266.992	3.74
267.372	4.19
267.752	4.61
268.131	4.42
268.511	3.85
268.89	4.5
269.27	3.8
269.649	3.54
270.029	4.05
270.408	3.63
270.787	4.42
271.167	4.66
271.546	4.77
271.925	4.37
272.304	4.23
272.683	4
273.062	3.57
273.441	3.5
273.82	3.77
274.199	4.15
274.578	4.06
274.957	3.94
275.336	4.05
275.715	4
276.093	4
276.472	3.68
276.851	3.85
277.229	3.93
277.608	4.1
277.986	4.06
278.365	4.23
278.743	3.68
279.122	3.71
279.5	3.6
279.878	3.64
280.257	4.31
280.635	3.72
281.013	3.44
281.391	3.84
281.769	4.11
282.147	3.61
282.525	3.9
282.903	3.67
283.281	4.14
283.659	3.89
284.037	3.67
284.415	3.64
284.792	3.79
285.17	3.6
285.548	3.73
285.925	3.42
286.303	4.12
286.68	3.86
287.058	3.71
287.435	3.54
287.813	3.74
288.19	3.54
288.567	3.75
288.945	3.44
289.322	3.95
289.699	4.24
290.076	3.4
290.453	3.04
290.83	4.02
291.207	3.62
291.584	3.67
291.961	3.77
292.338	3.47
292.715	3.59
293.092	3.53
293.469	3.59
293.845	3.2
294.222	3.95
294.599	3.37
294.975	2.74
295.352	3.69
295.728	3.3
296.105	3.41
296.481	3.33
296.858	3.2
297.234	3.15
297.61	3.66
297.986	3.81
298.363	3.58
298.739	3.69
299.115	3.5
299.491	3.82
299.867	3.41
300.243	3.41
300.619	3.23
300.995	3.25
301.371	3.67
301.746	3.72
302.122	3.11
302.498	3.59
302.874	3.58
303.249	3.37
303.625	3.3
304	3.41
304.376	4
304.751	3.38
305.127	3.15
305.502	3.43
305.878	3.8
306.253	2.95
306.628	3.49
307.003	3.13
307.378	3.3
307.754	3.7
308.129	3.45
308.504	3.63
308.879	3.88
309.254	3.42
309.629	3.8
310.003	3.41
310.378	3.55
310.753	3.97
311.128	3.47
311.502	3.44
311.877	3.35
312.252	3.39
312.626	3.82
313.001	3.72
313.375	3.22
313.75	3.54
314.124	3.74
314.498	4.02
314.873	3.26
315.247	3.13
315.621	3
315.995	3.26
316.369	3.04
316.743	2.93
317.117	3.03
317.491	3.44
317.865	2.9
318.239	4.14
318.613	3.37
318.987	2.81
319.361	3.33
319.734	3.36
320.108	3.44
320.482	3.79
320.855	3.23
321.229	3.25
321.602	3.69
321.976	2.85
322.349	3.67
322.723	3.37
323.096	3.27
323.469	3.08
323.843	3.53
324.216	3.81
324.589	3.45
324.962	3.21
325.335	3.05
325.708	3.52
326.081	3.4
326.454	3.04
326.827	3.34
327.2	3.06
327.573	3.71
327.945	3.2
328.318	3.33
328.691	3.24
329.063	3.1
329.436	2.79
329.809	3.63
330.181	3.78
330.553	3.96
330.926	3.65
331.298	3.17
331.671	3.61
332.043	2.72
332.415	3.52
332.787	3.33
333.159	3.45
333.532	3
333.904	3.82
334.276	3.5
334.648	3.24
335.02	3.24
335.391	3.24
335.763	3.06
336.135	3.48
336.507	2.95
336.879	3.19
337.25	3.26
337.622	3.52
337.993	3.06
338.365	3.53
338.736	3.17
339.108	3.53
339.479	2.77
339.851	3.67
340.222	3.81
340.593	3.53
340.964	3.07
341.336	3.08
341.707	3.32
342.078	3.09
342.449	2.88
342.82	3.22
343.191	3.29
343.562	3.27
343.933	2.8
344.303	3.25
344.674	3.33
345.045	3.38
345.416	3.61
345.786	3.07
346.157	3.42
346.527	3.2
346.898	3.02
347.268	3.33
347.639	3.03
348.009	3.41
348.38	2.96
348.75	3.5
349.12	3.54
349.49	3
349.861	3.32
350.231	2.95
350.601	3.28
350.971	3.13
351.341	3.22
351.711	3.39
352.081	2.88
352.45	2.94
352.82	2.98
353.19	3.28
353.56	3.03
353.929	3.58
354.299	3.26
354.669	3.69
355.038	3.63
355.408	3.22
355.777	3.74
356.147	3.19
356.516	2.98
356.885	3.33
357.254	3.14
357.624	2.92
357.993	3.36
358.362	3.44
358.731	3.68
359.1	3.69
359.469	3.61
359.838	3.45
360.207	3.23
360.576	3.56
360.945	3.43
361.314	3.42
361.682	3.32
362.051	3.35
362.42	3.27
362.788	3.42
363.157	3.08
363.525	3.37
363.894	3.23
364.262	3.45
364.631	3.66
364.999	3.26
365.367	3.39
365.735	3.27
366.104	3.41
366.472	3.29
366.84	3.5
367.208	3.81
367.576	3.42
367.944	3.2
368.312	3.46
368.68	3.66
369.048	3.43
369.416	3.09
369.783	3.34
370.151	3.76
370.519	3.72
370.886	3.79
371.254	3.87
371.621	4
371.989	3.81
372.356	3.53
372.724	3.31
373.091	3.28
373.458	3.37
373.826	3.38
374.193	3.34
374.56	3.91
374.927	3.3
375.294	3.73
375.661	3.63
376.028	3.63
376.395	3.59
376.762	3.61
377.129	3.43
377.496	3.73
377.863	3.61
378.229	3.76
378.596	3.54
378.963	3.73
379.329	3.46
379.696	3.37
380.062	3.54
380.429	3.41
380.795	3.54
381.161	3.5
381.528	3.33
381.894	3.64
382.26	3.44
382.626	3.66
382.993	3.95
383.359	3.88
383.725	3.55
384.091	3.75
384.457	3.75
384.823	3.74
385.188	3.88
385.554	3.73
385.92	3.37
386.286	3.6
386.651	3.48
387.017	3.75
387.383	3.65
387.748	3.87
388.114	3.55
388.479	3.65
388.845	3.54
389.21	3.92
389.575	3.99
389.94	3.95
390.306	3.76
390.671	3.7
391.036	3.75
391.401	3.79
391.766	3.68
392.131	3.98
392.496	3.8
392.861	3.66
393.226	3.6
393.591	3.68
393.956	3.78
394.32	3.97
394.685	3.81
395.05	3.95
395.414	3.9
395.779	3.96
396.143	3.59
396.508	3.82
396.872	3.68
397.236	4.01
397.601	3.85
397.965	4.01
398.329	3.76
398.694	3.85
399.058	3.9
399.422	3.74
399.786	3.87
400.15	4.01
400.514	3.8
400.878	3.86
401.242	4.06
401.605	3.85
401.969	3.83
402.333	3.74
402.697	3.95
403.06	3.69
403.424	3.65
403.787	3.94
404.151	3.94
404.514	3.8
404.878	3.78
405.241	3.92
405.604	3.82
405.968	3.88
406.331	4.03
406.694	3.94
407.057	3.86
407.42	3.85
407.783	3.94
408.146	3.91
408.509	4.11
408.872	3.93
409.235	4.2
409.598	3.9
409.961	4.01
410.323	3.94
410.686	4.06
411.049	4.17
411.411	3.99
411.774	4.06
412.136	3.86
412.499	4.21
412.861	3.73
413.223	3.91
413.586	4.02
413.948	4.08
414.31	4.05
414.672	3.88
415.035	4.26
415.397	3.92
415.759	3.9
416.121	4.23
416.483	3.92
416.845	4.04
417.206	4.05
417.568	3.85
417.93	4.12
418.292	3.98
418.653	3.91
419.015	4.02
419.377	3.91
419.738	3.93
420.1	4.01
420.461	3.77
420.822	4.11
421.184	4.03
421.545	4.08
421.906	3.98
422.267	3.96
422.629	3.86
422.99	3.86
423.351	3.84
423.712	3.92
424.073	4.06
424.434	4.04
424.795	3.9
425.155	3.85
425.516	3.88
425.877	4.02
426.238	3.87
426.598	3.96
426.959	4.04
427.32	3.87
427.68	3.95
428.041	4.11
428.401	3.96
428.761	4.15
429.122	4.16
429.482	4
429.842	4.15
430.202	4.12
430.563	3.95
430.923	4.22
431.283	4.08
431.643	4.25
432.003	4.27
432.363	4.23
432.722	3.92
433.082	4.05
433.442	4.14
433.802	4.14
434.161	4.23
434.521	4.21
434.881	4.14
435.24	4.16
435.6	4.17
435.959	4.24
436.319	4.19
436.678	4.11
437.037	4.23
437.396	4.21
437.756	4.07
438.115	4.18
438.474	4.26
438.833	4.3
439.192	4.13
439.551	4.1
439.91	4.14
440.269	4.2
440.628	4.11
440.987	4.2
441.345	4.16
441.704	4.17
442.063	4.12
442.421	4.16
442.78	4.18
443.138	4.17
443.497	4.13
443.855	4.25
444.214	3.96
444.572	4.15
444.93	4.23
445.288	4.21
445.647	4.11
446.005	4.2
446.363	4.13
446.721	4.19
447.079	4.05
447.437	4.18
447.795	4.2
448.153	4.12
448.51	4.21
448.868	4.14
449.226	4.1
449.584	4.27
449.941	4.18
450.299	4.13
450.656	4.1
451.014	4.34
451.371	4.28
451.729	4.25
452.086	4.3
452.443	4.31
452.801	4.2
453.158	4.33
453.515	4.07
453.872	4.31
454.229	4.11
454.586	4.15
454.943	4.2
455.3	4.3
455.657	4.23
456.014	4.08
456.371	4.29
456.727	4.43
457.084	4.39
457.441	4.23
457.797	4.32
458.154	4.37
458.51	4.22
458.867	4.3
459.223	4.28
459.58	4.25
459.936	4.3
460.292	4.21
460.648	4.08
461.005	4.12
461.361	4.1
461.717	4.12
462.073	4.19
462.429	4.27
462.785	4.38
463.141	4.31
463.496	4.41
463.852	4.48
464.208	4.35
464.564	4.26
464.919	4.46
465.275	4.26
465.631	4.42
465.986	4.37
466.342	4.32
466.697	4.25
467.052	4.39
467.408	4.36
467.763	4.29
468.118	4.19
468.473	4.37
468.829	4.17
469.184	4.31
469.539	4.29
469.894	4.32
470.249	4.37
470.603	4.35
470.958	4.41
471.313	4.37
471.668	4.36
472.023	4.43
472.377	4.15
472.732	4.55
473.086	4.22
473.441	4.26
473.795	4.56
474.15	4.36
474.504	4.29
474.859	4.25
475.213	4.53
475.567	4.4
475.921	4.33
476.275	4.44
476.63	4.47
476.984	4.25
477.338	4.5
477.692	4.21
478.045	4.46
478.399	4.28
478.753	4.28
479.107	4.33
479.461	4.32
479.814	4.37
480.168	4.27
480.521	4.41
480.875	4.43
481.228	4.41
481.582	4.38
481.935	4.45
482.289	4.41
482.642	4.37
482.995	4.39
483.348	4.29
483.701	4.28
484.055	4.21
484.408	4.18
484.761	4.09
485.114	3.98
485.466	3.92
485.819	3.95
486.172	4.08
486.525	4.11
486.878	4.22
487.23	4.21
487.583	4.29
487.936	4.24
488.288	4.17
488.641	4.08
488.993	4.05
489.345	4.04
489.698	4.09
490.05	4.1
490.402	4.2
490.754	4.22
491.107	4.19
491.459	4.25
491.811	4.32
492.163	4.26
492.515	4.18
492.866	4.07
493.218	4.04
493.57	4.14
493.922	4.24
494.274	4.3
494.625	4.34
494.977	4.35
495.328	4.37
495.68	4.38
496.031	4.35
496.383	4.35
496.734	4.22
497.086	4.33
497.437	4.41
497.788	4.45
498.139	4.35
498.49	4.35
498.842	4.34
499.193	4.23
499.544	4.38
499.894	4.3
500.245	4.38
500.596	4.37
500.947	4.32
501.298	4.31
501.648	4.47
501.999	4.47
502.35	4.39
502.7	4.45
503.051	4.45
503.401	4.45
503.752	4.38
504.102	4.34
504.452	4.25
504.803	4.44
505.153	4.38
505.503	4.38
505.853	4.49
506.203	4.46
506.553	4.44
506.903	4.47
507.253	4.49
507.603	4.39
507.953	4.48
508.303	4.41
508.652	4.33
509.002	4.4
509.352	4.32
509.701	4.23
510.051	4.43
510.4	4.39
510.75	4.34
511.099	4.26
511.449	4.39
511.798	4.33
512.147	4.32
512.496	4.4
512.846	4.27
513.195	4.34
513.544	4.38
513.893	4.35
514.242	4.37
514.591	4.22
514.939	4.42
515.288	4.35
515.637	4.34
515.986	4.43
516.334	4.3
516.683	4.4
517.032	4.48
517.38	4.34
517.729	4.37
518.077	4.38
518.426	4.47
518.774	4.28
519.122	4.34
519.47	4.27
519.819	4.37
520.167	4.25
520.515	4.23
520.863	4.29
521.211	4.31
521.559	4.32
521.907	4.41
522.255	4.38
522.602	4.44
522.95	4.36
523.298	4.44
523.645	4.43
523.993	4.43
524.341	4.34
524.688	4.38
525.036	4.36
525.383	4.32
525.73	4.39
526.078	4.46
526.425	4.39
526.772	4.26
527.119	4.26
527.466	4.3
527.814	4.27
528.161	4.36
528.508	4.35
528.854	4.28
529.201	4.15
529.548	4.18
529.895	4.07
530.242	4
530.588	4.06
530.935	4.14
531.282	4.22
531.628	4.26
531.975	4.31
532.321	4.36
532.667	4.31
533.014	4.38
533.36	4.34
533.706	4.33
534.052	4.28
534.399	4.24
534.745	4.15
535.091	4.13
535.437	4.21
535.783	4.26
536.129	4.34
536.474	4.43
536.82	4.43
537.166	4.31
537.512	4.38
537.857	4.33
538.203	4.2
538.549	4.2
538.894	4.29
539.239	4.39
539.585	4.42
539.93	4.46
540.276	4.44
540.621	4.53
540.966	4.39
541.311	4.36
541.656	4.35
542.001	4.27
542.346	4.12
542.691	4.1
543.036	4.09
543.381	4.17
543.726	4.26
544.071	4.32
544.415	4.37
544.76	4.23
545.105	4.29
545.449	4.29
545.794	4.4
546.138	4.31
546.483	4.38
546.827	4.34
547.171	4.39
547.516	4.27
547.86	4.4
548.204	4.3
548.548	4.27
548.892	4.42
549.236	4.36
549.58	4.48
549.924	4.51
550.268	4.58
550.612	4.49
550.956	4.64
551.3	4.47
551.643	4.48
551.987	4.56
552.33	4.65
552.674	4.55
553.017	4.56
553.361	4.38
553.704	4.5
554.048	4.48
554.391	4.41
554.734	4.37
555.077	4.41
555.42	4.41
555.764	4.47
556.107	4.6
556.45	4.56
556.793	4.73
557.135	4.61
557.478	4.62
557.821	4.59
558.164	4.46
558.507	4.34
558.849	4.48
559.192	4.47
559.534	4.56
559.877	4.38
560.219	4.59
560.562	4.6
560.904	4.62
561.246	4.43
561.589	4.61
561.931	4.54
562.273	4.46
562.615	4.37
562.957	4.38
563.299	4.45
563.641	4.5
563.983	4.22
564.325	4.49
564.667	4.49
565.008	4.46
565.35	4.54
565.692	4.53
566.033	4.37
566.375	4.57
566.716	4.17
567.058	4.47
567.399	4.42
567.741	4.4
568.082	4.42
568.423	4.34
568.764	4.39
569.105	4.48
569.447	4.38
569.788	4.36
570.129	4.4
570.47	4.47
570.811	4.44
571.151	4.42
571.492	4.46
571.833	4.36
572.174	4.38
572.514	4.55
572.855	4.57
573.195	4.33
573.536	4.49
573.876	4.37
574.217	4.38
574.557	4.46
574.898	4.36
575.238	4.41
575.578	4.55
575.918	4.47
576.258	4.68
576.598	4.42
576.938	4.31
577.278	4.52
577.618	4.47
577.958	4.49
578.298	4.36
578.638	4.57
578.977	4.53
579.317	4.63
579.657	4.5
579.996	4.54
580.336	4.61
580.675	4.41
581.014	4.48
581.354	4.38
581.693	4.61
582.032	4.83
582.372	4.71
582.711	4.53
583.05	4.57
583.389	4.63
583.728	4.58
584.067	4.54
584.406	4.58
584.745	4.45
585.083	4.53
585.422	4.64
585.761	4.51
586.1	4.44
586.438	4.52
586.777	4.69
587.115	4.59
587.454	4.37
587.792	4.63
588.13	4.66
588.469	4.29
588.807	4.48
589.145	4.61
589.483	4.37
589.821	4.54
590.159	4.55
590.497	4.68
590.835	4.5
591.173	4.7
591.511	4.57
591.849	4.59
592.187	4.37
592.524	4.58
592.862	4.38
593.2	4.62
593.537	4.5
593.875	4.53
594.212	4.77
594.55	4.51
594.887	4.69
595.224	4.52
595.561	4.36
595.899	4.65
596.236	4.45
596.573	4.31
596.91	4.34
597.247	4.45
597.584	4.58
597.921	4.44
598.258	4.65
598.594	4.21
598.931	4.2
599.268	4.31
599.604	4.49
599.941	4.68
600.277	4.47
600.614	4.49
600.95	4.27
601.287	4.52
601.623	4.1
601.959	4.66
602.296	4.44
602.632	4.6
602.968	4.63
603.304	4.58
603.64	4.46
603.976	4.06
604.312	4.36
604.648	4.48
604.984	4.53
605.319	4.35
605.655	4.33
605.991	4.29
606.326	4.34
606.662	4.35
606.998	4.55
607.333	4.52
607.668	4.47
608.004	4.23
608.339	4.39
608.674	4.58
609.01	4.69
609.345	4.35
609.68	4.38
610.015	4.65
610.35	4.51
610.685	4.1
611.02	4.18
611.355	4.29
611.689	4.42
612.024	4.47
612.359	4.66
612.694	4.34
613.028	4.26
613.363	4.38
613.697	4.45
614.032	4.44
614.366	4.3
614.7	4.61
615.035	4.61
615.369	4.49
615.703	4.53
616.037	4.66
616.371	4.38
616.705	4.67
617.039	4.47
617.373	4.52
617.707	4.44
618.041	4.34
618.375	4.18
618.709	4.93
619.042	4.44
619.376	4.44
619.71	4.32
620.043	4.47
620.377	4.28
620.71	4.4
621.043	4.69
621.377	4.64
621.71	4.44
622.043	4.58
622.376	4.4
622.709	4.62
623.043	4.57
623.376	4.33
623.709	4.73
624.041	4.53
624.374	4.7
624.707	4.4
625.04	4.42
625.373	4.4
625.705	4.58
626.038	4.6
626.37	4.38
626.703	4.62
627.035	4.41
627.368	4.73
627.7	4.18
628.032	4.32
628.365	4.73
628.697	4.75
629.029	4.61
629.361	4.41
629.693	4.47
630.025	4.39
630.357	4.7
630.689	4.3
631.021	4.47
631.353	4.43
631.684	4.21
632.016	4.03
632.348	4.17
632.679	4.38
633.011	4.36
633.342	4.56
633.674	4.21
634.005	4.37
634.336	4.63
634.668	4.47
634.999	4.07
635.33	4.56
635.661	4.19
635.992	4.53
636.323	4.33
636.654	4.37
636.985	4.42
637.316	4.19
637.647	4.7
637.977	4.4
638.308	4.39
638.639	4.25
638.969	4.48
639.3	4.54
639.63	4.34
639.961	4.23
640.291	4.53
640.622	4.54
640.952	4.72
641.282	4.34
641.612	4.4
641.943	4.1
642.273	4.64
642.603	4.6
642.933	4.91
643.263	4.69
643.592	4.68
643.922	4.72
644.252	4.73
644.582	4.85
644.911	4.43
645.241	3.87
645.571	4.48
645.9	4.74
646.23	4.84
646.559	4.49
646.888	4.78
647.218	4.19
647.547	4.43
647.876	4.48
648.205	4.37
648.534	4.67
648.863	4.21
649.192	4.54
649.521	4.41
649.85	5.06
650.179	4.76
650.508	4.45
650.837	4.84
651.165	4.81
651.494	4.74
651.822	4.82
652.151	4.21
652.479	4.72
652.808	4.46
653.136	3.9
653.465	4.09
653.793	4.64
654.121	4.3
654.449	4.22
654.777	4.12
655.105	4.2
655.433	4.43
655.761	4.19
656.089	4.16
656.417	4.76
656.745	4.98
657.073	4.46
657.4	4.36
657.728	3.75
658.056	4.64
658.383	4.51
658.711	4.56
659.038	4.73
659.365	4.84
659.693	4.42
660.02	3.89
660.347	4.38
660.674	4.49
661.001	4.36
661.329	4.18
661.656	4.31
661.982	4.1
662.309	4.39
662.636	4.58
662.963	4.7
663.29	4.72
663.616	4.25
663.943	4.34
664.27	4.36
664.596	4.17
664.923	4.47
665.249	4.69
665.576	4.59
665.902	4.33
666.228	5.17
666.554	4.9
666.881	3.85
667.207	4.61
667.533	4.12
667.859	4.75
668.185	4.16
668.511	4.7
668.837	4.5
669.162	4.23
669.488	3.73
669.814	4.67
670.139	4.04
670.465	4.61
670.791	3.81
671.116	4.38
671.442	3.97
671.767	4.47
672.092	3.95
672.418	4.5
672.743	4.01
673.068	3.94
673.393	4.7
673.718	3.64
674.043	3.8
674.368	4.93
674.693	4.85
675.018	4.61
675.343	4.98
675.667	4.38
675.992	4.17
676.317	4.41
676.641	4.65
676.966	4.67
677.29	4.28
677.615	4.14
677.939	4.92
678.264	4.29
678.588	4.21
678.912	4.55
679.236	4.04
679.56	4.17
679.885	3.8
680.209	4.18
680.532	5
680.856	4.97
681.18	4.82
681.504	4.65
681.828	4.57
682.152	4.57
682.475	4.31
682.799	3.84
683.122	4.13
683.446	4
683.769	4.53
684.093	4.14
684.416	3.94
684.739	4.62
685.062	4.69
685.386	5.06
685.709	4.41
686.032	4.12
686.355	4.87
686.678	4.94
687.001	4.59
687.324	4.95
687.646	4.46
687.969	4.82
688.292	4.16
688.614	4.92
688.937	4.92
689.26	4.82
689.582	4.41
689.904	4.65
690.227	4.82
690.549	3.91
690.871	3.98
691.194	4.11
691.516	4.24
691.838	4.66
692.16	4.04
692.482	4.46
692.804	5.15
693.126	4.41
