Data from 21-9_crown_Reflection__2__37.txt Node

Date: Thu Dec 15 16:44:50 CST 2022
User: ToomeyLab
Spectrometer: FLMS14357
Trigger mode: 0
Integration Time (sec): 1.000000E-2
Scans to average: 100
Electric dark correction enabled: true
Nonlinearity correction enabled: false
Boxcar width: 0
XAxis mode: Wavelengths
Number of Pixels in Spectrum: 2048
>>>>>Begin Spectral Data<<<<<
189.047	17.03
189.435	17.03
189.823	17.03
190.211	22.87
190.599	97.22
190.987	35.99
191.375	-131.84
191.763	224.57
192.151	-95.19
192.538	102.57
192.926	215.69
193.314	42.84
193.702	-10.22
194.089	237
194.477	-2050.4
194.864	68.99
195.252	-47.42
195.639	30.6
196.027	123.85
196.414	534.39
196.801	1.66
197.189	64.01
197.576	1.23
197.963	-14.88
198.351	16.53
198.738	11
199.125	-8.62
199.512	20.76
199.899	-14.59
200.286	14.25
200.673	22.35
201.06	-20.23
201.447	-1.32
201.833	-40.08
202.22	10.99
202.607	13.98
202.994	28.19
203.38	40.79
203.767	13.98
204.154	24.65
204.54	3.52
204.927	30.65
205.313	24.79
205.699	44.53
206.086	31.96
206.472	11.42
206.858	-3.46
207.245	0.27
207.631	12.64
208.017	44.43
208.403	-30.56
208.789	30.06
209.175	5.29
209.561	-50.89
209.947	15.54
210.333	18.79
210.719	10.7
211.105	22.97
211.491	23.88
211.876	0.34
212.262	20.17
212.648	18.98
213.034	26.44
213.419	35.25
213.805	-9.91
214.19	-3.68
214.576	10.49
214.961	21.28
215.346	-25.18
215.732	10.06
216.117	3.4
216.502	10.92
216.888	15.33
217.273	17.42
217.658	4.44
218.043	8.45
218.428	1.54
218.813	18.22
219.198	-0.99
219.583	2.8
219.968	6.54
220.353	1.81
220.738	7.35
221.122	7.69
221.507	-3.24
221.892	-13.33
222.276	-16.91
222.661	-1.09
223.046	-6.09
223.43	16.72
223.815	1.76
224.199	-1.27
224.583	-2.75
224.968	6.5
225.352	-10.9
225.736	5.45
226.121	0.09
226.505	-0.8
226.889	5.95
227.273	-1.65
227.657	5.09
228.041	5.34
228.425	3.28
228.809	2.03
229.193	5.05
229.577	5.08
229.961	4.26
230.344	5.51
230.728	4.98
231.112	4.43
231.495	2.48
231.879	4.97
232.263	4.35
232.646	4.64
233.03	5.29
233.413	4.43
233.797	4.36
234.18	4.88
234.563	6.39
234.946	2.86
235.33	3.61
235.713	4.92
236.096	5.33
236.479	4.79
236.862	3.95
237.245	4.09
237.628	4.56
238.011	2.46
238.394	3.83
238.777	3.64
239.16	5.29
239.543	4.95
239.925	2.5
240.308	3.12
240.691	5.57
241.073	5.3
241.456	4.14
241.838	4.36
242.221	4.99
242.603	4.24
242.986	4.75
243.368	4.44
243.75	4.28
244.133	4.3
244.515	4.16
244.897	4.04
245.279	3.79
245.661	3.84
246.043	4.88
246.425	4.16
246.807	3.42
247.189	4.25
247.571	4.05
247.953	3.98
248.335	4.09
248.717	4.19
249.098	3.95
249.48	4.06
249.862	4.14
250.243	4.27
250.625	4.18
251.006	4.79
251.388	4.25
251.769	3.11
252.151	4.68
252.532	3.33
252.913	4.67
253.295	3.79
253.676	3.9
254.057	4.12
254.438	3.74
254.819	4.61
255.2	4.63
255.581	5.54
255.962	4.6
256.343	3.9
256.724	4.34
257.105	3.42
257.486	2.35
257.867	3.83
258.247	4.33
258.628	4.3
259.009	3.3
259.389	3.2
259.77	3.69
260.15	4.67
260.531	3.79
260.911	3.81
261.292	3.98
261.672	3.63
262.052	3.76
262.432	3.63
262.813	3.78
263.193	3.65
263.573	3.93
263.953	3.16
264.333	3.65
264.713	4.43
265.093	4.03
265.473	2.93
265.853	3.64
266.233	3.48
266.612	3.74
266.992	3.39
267.372	4.12
267.752	4.06
268.131	3.41
268.511	3.48
268.89	4.22
269.27	3.13
269.649	3.56
270.029	3.43
270.408	3.35
270.787	3.64
271.167	3.56
271.546	3.71
271.925	4.08
272.304	3.51
272.683	3.43
273.062	3.28
273.441	3.35
273.82	3.84
274.199	3.37
274.578	3.31
274.957	3.3
275.336	3.67
275.715	3.9
276.093	2.77
276.472	3.47
276.851	3.45
277.229	3.23
277.608	3
277.986	3.82
278.365	3.9
278.743	3.29
279.122	2.97
279.5	3.55
279.878	3.28
280.257	3.11
280.635	3.31
281.013	3.11
281.391	3.39
281.769	3.42
282.147	3.31
282.525	3.62
282.903	3.27
283.281	3.86
283.659	3.35
284.037	3.56
284.415	3.29
284.792	3.46
285.17	3.58
285.548	3.28
285.925	3.13
286.303	3.57
286.68	3.57
287.058	3.57
287.435	3.24
287.813	3.19
288.19	3.05
288.567	3.11
288.945	3.36
289.322	3.43
289.699	3.28
290.076	3.3
290.453	3.3
290.83	3.45
291.207	2.98
291.584	3.19
291.961	3.17
292.338	3.13
292.715	3.19
293.092	3.48
293.469	3.21
293.845	3.58
294.222	3.88
294.599	3.08
294.975	3.05
295.352	3.46
295.728	3.28
296.105	3.18
296.481	3.3
296.858	2.92
297.234	2.6
297.61	3.06
297.986	3.6
298.363	3.35
298.739	3.47
299.115	3.19
299.491	3.49
299.867	3.31
300.243	3
300.619	3.15
300.995	3.05
301.371	3.35
301.746	3.32
302.122	3.14
302.498	3.27
302.874	3.22
303.249	3.26
303.625	2.83
304	3.32
304.376	3.69
304.751	3.72
305.127	3.41
305.502	3.04
305.878	3.26
306.253	2.99
306.628	3.44
307.003	3.31
307.378	2.82
307.754	3.02
308.129	2.78
308.504	3.12
308.879	3.11
309.254	3.33
309.629	2.97
310.003	3.06
310.378	3.25
310.753	3.26
311.128	3.08
311.502	3
311.877	3.01
312.252	3.63
312.626	3.43
313.001	3.15
313.375	3.43
313.75	2.93
314.124	3.51
314.498	2.95
314.873	2.79
315.247	3.44
315.621	2.78
315.995	3.27
316.369	2.61
316.743	2.87
317.117	3.15
317.491	3.13
317.865	2.86
318.239	3.64
318.613	3.08
318.987	2.94
319.361	3.18
319.734	3.48
320.108	3.25
320.482	3.46
320.855	3.23
321.229	3.55
321.602	3.24
321.976	3.1
322.349	3.44
322.723	3.27
323.096	2.87
323.469	3.3
323.843	2.64
324.216	3.41
324.589	3.32
324.962	3.25
325.335	3.11
325.708	3.08
326.081	3.43
326.454	3.57
326.827	2.87
327.2	2.92
327.573	3.55
327.945	2.67
328.318	3.1
328.691	3.22
329.063	2.99
329.436	2.46
329.809	3.33
330.181	3.94
330.553	3.36
330.926	3.18
331.298	3.13
331.671	3.46
332.043	3.09
332.415	3.39
332.787	3.2
333.159	3.36
333.532	3.15
333.904	3.11
334.276	3.55
334.648	3.1
335.02	2.94
335.391	2.75
335.763	2.81
336.135	2.7
336.507	3.11
336.879	3.09
337.25	2.94
337.622	3.47
337.993	3.14
338.365	3.27
338.736	3.21
339.108	3.22
339.479	3.48
339.851	3.85
340.222	3.78
340.593	3.1
340.964	3.02
341.336	2.91
341.707	3.16
342.078	3.02
342.449	3.3
342.82	3.17
343.191	3.18
343.562	3.25
343.933	3.2
344.303	3.22
344.674	3.2
345.045	2.84
345.416	3.47
345.786	2.86
346.157	3.32
346.527	3.2
346.898	2.98
347.268	3.24
347.639	3.39
348.009	3.21
348.38	3.08
348.75	2.97
349.12	3.62
349.49	3.16
349.861	3.42
350.231	2.98
350.601	3.1
350.971	3.46
351.341	3.48
351.711	2.99
352.081	2.81
352.45	3
352.82	2.79
353.19	3.11
353.56	2.99
353.929	3.35
354.299	3.15
354.669	3.51
355.038	3.57
355.408	3.21
355.777	3.49
356.147	3.16
356.516	3.36
356.885	3.25
357.254	2.98
357.624	2.99
357.993	3.6
358.362	3.33
358.731	3.49
359.1	3.43
359.469	3.28
359.838	3.11
360.207	3.33
360.576	3.63
360.945	3.41
361.314	3.43
361.682	3.25
362.051	3.2
362.42	3.41
362.788	3.41
363.157	3.04
363.525	3.38
363.894	3.09
364.262	3.32
364.631	3.41
364.999	3.12
365.367	3.17
365.735	3.19
366.104	3.56
366.472	3.19
366.84	3.33
367.208	3.31
367.576	3.44
367.944	3.51
368.312	3.2
368.68	3.37
369.048	3.15
369.416	3.29
369.783	3.48
370.151	3.44
370.519	3.67
370.886	3.37
371.254	3.78
371.621	3.6
371.989	3.74
372.356	3.27
372.724	3.48
373.091	3.59
373.458	3.31
373.826	3.37
374.193	3.62
374.56	3.55
374.927	3.12
375.294	3.57
375.661	3.5
376.028	3.44
376.395	3.69
376.762	3.44
377.129	3.44
377.496	3.44
377.863	3.55
378.229	3.67
378.596	3.51
378.963	3.63
379.329	3.52
379.696	3.31
380.062	3.29
380.429	3.09
380.795	3.79
381.161	3.4
381.528	3.2
381.894	3.25
382.26	3.5
382.626	3.43
382.993	3.67
383.359	3.45
383.725	3.27
384.091	3.39
384.457	3.32
384.823	3.35
385.188	3.58
385.554	3.73
385.92	3.37
386.286	3.41
386.651	3.28
387.017	3.68
387.383	3.52
387.748	3.66
388.114	3.6
388.479	3.65
388.845	3.42
389.21	3.77
389.575	3.91
389.94	4.05
390.306	3.54
390.671	3.76
391.036	3.63
391.401	3.57
391.766	3.63
392.131	3.85
392.496	3.56
392.861	3.71
393.226	3.26
393.591	3.71
393.956	3.64
394.32	3.84
394.685	3.53
395.05	3.78
395.414	3.46
395.779	3.77
396.143	3.39
396.508	3.62
396.872	3.47
397.236	3.89
397.601	3.79
397.965	3.72
398.329	3.6
398.694	3.5
399.058	3.71
399.422	3.65
399.786	3.56
400.15	3.57
400.514	3.67
400.878	3.78
401.242	3.8
401.605	3.71
401.969	3.7
402.333	3.57
402.697	3.91
403.06	3.94
403.424	3.86
403.787	3.67
404.151	3.77
404.514	3.86
404.878	3.69
405.241	3.71
405.604	3.57
405.968	3.77
406.331	3.87
406.694	3.81
407.057	3.52
407.42	3.69
407.783	3.72
408.146	3.65
408.509	3.65
408.872	3.7
409.235	3.76
409.598	3.91
409.961	3.78
410.323	3.59
410.686	3.89
411.049	3.73
411.411	3.79
411.774	3.83
412.136	3.79
412.499	4.1
412.861	3.46
413.223	3.79
413.586	3.84
413.948	4.01
414.31	4.03
414.672	3.61
415.035	3.93
415.397	3.81
415.759	3.43
416.121	3.92
416.483	3.85
416.845	3.82
417.206	3.82
417.568	3.66
417.93	3.93
418.292	3.61
418.653	3.59
419.015	3.64
419.377	3.67
419.738	3.8
420.1	3.75
420.461	3.59
420.822	3.73
421.184	3.71
421.545	3.67
421.906	3.79
422.267	3.62
422.629	3.64
422.99	3.66
423.351	3.63
423.712	3.67
424.073	3.81
424.434	3.84
424.795	3.63
425.155	3.62
425.516	3.69
425.877	3.71
426.238	3.7
426.598	3.73
426.959	3.76
427.32	3.7
427.68	3.78
428.041	3.79
428.401	3.64
428.761	3.87
429.122	3.91
429.482	3.83
429.842	3.8
430.202	3.96
430.563	3.83
430.923	3.83
431.283	3.81
431.643	3.88
432.003	3.89
432.363	3.95
432.722	3.91
433.082	3.85
433.442	3.93
433.802	3.85
434.161	3.8
434.521	3.72
434.881	3.94
435.24	3.77
435.6	3.9
435.959	3.86
436.319	3.84
436.678	3.99
437.037	3.88
437.396	3.77
437.756	3.86
438.115	3.86
438.474	3.85
438.833	3.82
439.192	3.76
439.551	3.67
439.91	3.83
440.269	3.89
440.628	3.78
440.987	3.8
441.345	3.92
441.704	3.77
442.063	3.8
442.421	3.79
442.78	3.82
443.138	3.81
443.497	3.95
443.855	3.84
444.214	3.68
444.572	4.01
444.93	3.77
445.288	3.88
445.647	3.73
446.005	3.84
446.363	3.85
446.721	3.82
447.079	3.76
447.437	3.81
447.795	3.83
448.153	3.79
448.51	3.78
448.868	3.73
449.226	3.82
449.584	3.81
449.941	3.94
450.299	3.82
450.656	3.83
451.014	3.96
451.371	4.06
451.729	3.85
452.086	3.87
452.443	3.91
452.801	3.99
453.158	4.04
453.515	3.75
453.872	3.95
454.229	3.79
454.586	3.78
454.943	3.93
455.3	3.94
455.657	3.95
456.014	4.01
456.371	4.05
456.727	4.12
457.084	3.95
457.441	3.9
457.797	3.94
458.154	4.05
458.51	3.72
458.867	3.87
459.223	3.95
459.58	3.88
459.936	3.98
460.292	3.82
460.648	3.88
461.005	3.78
461.361	3.83
461.717	3.8
462.073	3.93
462.429	3.98
462.785	4.05
463.141	3.91
463.496	4.01
463.852	4.08
464.208	4.01
464.564	3.87
464.919	3.9
465.275	4.05
465.631	4.1
465.986	4.05
466.342	4
466.697	3.81
467.052	4.06
467.408	4.11
467.763	3.97
468.118	3.88
468.473	4.11
468.829	3.96
469.184	4.18
469.539	4.01
469.894	3.99
470.249	4.14
470.603	4.15
470.958	4.17
471.313	4.1
471.668	4.15
472.023	3.9
472.377	3.89
472.732	4.11
473.086	3.98
473.441	4.26
473.795	4.24
474.15	4
474.504	3.89
474.859	3.88
475.213	4.04
475.567	3.88
475.921	4.05
476.275	3.98
476.63	4
476.984	3.81
477.338	4.12
477.692	4
478.045	4.01
478.399	4.17
478.753	3.95
479.107	4.06
479.461	3.95
479.814	4
480.168	3.98
480.521	4.18
480.875	4.04
481.228	4.01
481.582	4.03
481.935	4.1
482.289	4.02
482.642	4.05
482.995	4.07
483.348	3.87
483.701	3.94
484.055	3.91
484.408	3.83
484.761	3.82
485.114	3.62
485.466	3.63
485.819	3.64
486.172	3.74
486.525	3.79
486.878	3.91
487.23	3.86
487.583	3.89
487.936	3.88
488.288	3.82
488.641	3.78
488.993	3.73
489.345	3.74
489.698	3.77
490.05	3.77
490.402	3.81
490.754	3.88
491.107	3.84
491.459	4
491.811	3.92
492.163	3.87
492.515	3.69
492.866	3.74
493.218	3.72
493.57	3.81
493.922	3.84
494.274	3.97
494.625	4.02
494.977	4
495.328	4.07
495.68	3.97
496.031	3.96
496.383	4.02
496.734	3.92
497.086	4.04
497.437	4.04
497.788	4.05
498.139	3.89
498.49	4.07
498.842	4
499.193	3.93
499.544	4.01
499.894	3.93
500.245	3.99
500.596	3.98
500.947	3.96
501.298	3.93
501.648	4.03
501.999	4.03
502.35	3.94
502.7	4.21
503.051	4.1
503.401	4.14
503.752	4.01
504.102	3.92
504.452	4.03
504.803	4.06
505.153	4.08
505.503	3.96
505.853	4.05
506.203	4.08
506.553	4.01
506.903	4.05
507.253	3.93
507.603	4.08
507.953	4.01
508.303	4.05
508.652	3.98
509.002	4.05
509.352	4.01
509.701	3.91
510.051	4.03
510.4	4.02
510.75	3.98
511.099	3.92
511.449	3.96
511.798	4.02
512.147	3.97
512.496	4.08
512.846	3.99
513.195	4.04
513.544	4.01
513.893	3.93
514.242	3.92
514.591	3.97
514.939	4.06
515.288	4.13
515.637	4.06
515.986	4.04
516.334	4.1
516.683	4.05
517.032	4.03
517.38	3.93
517.729	3.96
518.077	3.91
518.426	4.04
518.774	3.98
519.122	3.93
519.47	3.96
519.819	3.88
520.167	3.86
520.515	3.99
520.863	3.97
521.211	3.84
521.559	3.86
521.907	4.02
522.255	3.98
522.602	4
522.95	4.09
523.298	4.11
523.645	4.03
523.993	4.07
524.341	4.07
524.688	3.83
525.036	3.98
525.383	3.98
525.73	3.94
526.078	4.02
526.425	3.97
526.772	3.84
527.119	3.92
527.466	4.04
527.814	3.98
528.161	3.98
528.508	4.01
528.854	3.93
529.201	3.83
529.548	3.8
529.895	3.73
530.242	3.7
530.588	3.76
530.935	3.81
531.282	3.85
531.628	3.93
531.975	3.95
532.321	3.93
532.667	3.95
533.014	3.95
533.36	4
533.706	3.97
534.052	4.01
534.399	3.9
534.745	3.83
535.091	3.78
535.437	3.84
535.783	3.92
536.129	3.95
536.474	4
536.82	3.97
537.166	3.96
537.512	4
537.857	3.97
538.203	3.82
538.549	3.92
538.894	3.92
539.239	4.03
539.585	4.08
539.93	4.13
540.276	4.04
540.621	3.99
540.966	4.15
541.311	4.01
541.656	3.93
542.001	3.97
542.346	3.89
542.691	3.85
543.036	3.77
543.381	3.82
543.726	3.91
544.071	3.96
544.415	4
544.76	3.94
545.105	4.03
545.449	4.03
545.794	4
546.138	3.98
546.483	4.08
546.827	3.96
547.171	4
547.516	4.06
547.86	3.96
548.204	4.02
548.548	3.99
548.892	4.04
549.236	3.97
549.58	4.14
549.924	4.17
550.268	4.11
550.612	4.09
550.956	4.26
551.3	4.26
551.643	4.27
551.987	4.27
552.33	4.31
552.674	4.04
553.017	4
553.361	4.16
553.704	3.99
554.048	4.1
554.391	4.24
554.734	4.01
555.077	4.07
555.42	4.12
555.764	3.98
556.107	4.45
556.45	4.2
556.793	4.46
557.135	4.09
557.478	4.17
557.821	4.16
558.164	4.23
558.507	4.1
558.849	4.45
559.192	4.23
559.534	4.19
559.877	4.08
560.219	4.11
560.562	4.16
560.904	4.27
561.246	4.19
561.589	4.15
561.931	4.28
562.273	4.1
562.615	4.17
562.957	4.13
563.299	4.2
563.641	4.21
563.983	4.05
564.325	4.33
564.667	4.32
565.008	4.22
565.35	4.03
565.692	4.23
566.033	4.16
566.375	4.12
566.716	4.14
567.058	4.05
567.399	4.14
567.741	4.17
568.082	4.1
568.423	4.13
568.764	4.11
569.105	4.17
569.447	4.02
569.788	4.21
570.129	3.99
570.47	4.14
570.811	4.26
571.151	4.27
571.492	4.2
571.833	4.05
572.174	4.29
572.514	4.2
572.855	4.19
573.195	4.02
573.536	4.09
573.876	4.05
574.217	4.06
574.557	4.1
574.898	4.11
575.238	4.07
575.578	4.28
575.918	4.16
576.258	4.37
576.598	4
576.938	3.98
577.278	4.15
577.618	4.09
577.958	4.36
578.298	4.36
578.638	4.06
578.977	4.19
579.317	4.27
579.657	4.11
579.996	4.48
580.336	4.16
580.675	4.19
581.014	4.31
581.354	4.17
581.693	4.47
582.032	4.26
582.372	4.21
582.711	4.12
583.05	4.26
583.389	4.64
583.728	4.37
584.067	4.25
584.406	4.28
584.745	4.16
585.083	4.12
585.422	4.36
585.761	4.26
586.1	4.27
586.438	4.16
586.777	4.23
587.115	4.42
587.454	4.08
587.792	4.18
588.13	4.09
588.469	4.14
588.807	4.14
589.145	4.32
589.483	4.09
589.821	4.22
590.159	4.31
590.497	4.18
590.835	4.3
591.173	4.3
591.511	4.34
591.849	4.25
592.187	4.09
592.524	4.34
592.862	4.08
593.2	4.28
593.537	4.24
593.875	4.21
594.212	4.14
594.55	4.08
594.887	4.25
595.224	4.3
595.561	4.09
595.899	4.38
596.236	4.09
596.573	4.11
596.91	4.35
597.247	4.47
597.584	4.14
597.921	4.22
598.258	4.32
598.594	4.1
598.931	3.96
599.268	4.04
599.604	4.25
599.941	4.13
600.277	4.17
600.614	4.22
600.95	4.27
601.287	4.1
601.623	3.99
601.959	4.34
602.296	4.34
602.632	4.19
602.968	4.31
603.304	4.26
603.64	4.02
603.976	3.95
604.312	4.26
604.648	4.1
604.984	4.34
605.319	4.22
605.655	4.11
605.991	4.13
606.326	4.11
606.662	4.03
606.998	4.14
607.333	4.15
607.668	4.03
608.004	4.2
608.339	4.19
608.674	4.19
609.01	4.45
609.345	4.22
609.68	4.17
610.015	4.45
610.35	4.18
610.685	3.98
611.02	4.11
611.355	4
611.689	4.04
612.024	4.1
612.359	4.32
612.694	4.12
613.028	3.94
613.363	4.19
613.697	4.08
614.032	4.66
614.366	4.33
614.7	4.27
615.035	4.25
615.369	4.53
615.703	4.29
616.037	4.24
616.371	4.29
616.705	4.21
617.039	4.51
617.373	4.26
617.707	4.31
618.041	3.9
618.375	3.97
618.709	4.44
619.042	4.29
619.376	4.39
619.71	3.81
620.043	4.36
620.377	4.64
620.71	4.22
621.043	4.13
621.377	4.11
621.71	4.56
622.043	4.4
622.376	4.09
622.709	4.44
623.043	3.94
623.376	4.06
623.709	4.52
624.041	4.05
624.374	4.29
624.707	4.2
625.04	3.85
625.373	4.22
625.705	4.48
626.038	4.32
626.37	3.94
626.703	4.05
627.035	4.41
627.368	4.36
627.7	4.31
628.032	4.11
628.365	4.43
628.697	4.19
629.029	4.27
629.361	4.35
629.693	4.16
630.025	4.38
630.357	4.3
630.689	4.36
631.021	4.52
631.353	4.31
631.684	4.15
632.016	3.81
632.348	4.16
632.679	4.63
633.011	4.01
633.342	4.24
633.674	3.9
634.005	4.6
634.336	4.4
634.668	3.94
634.999	4.18
635.33	4.31
635.661	4.02
635.992	4.26
636.323	4.22
636.654	4.33
636.985	4.36
637.316	4.32
637.647	4.19
637.977	4.39
638.308	4.45
638.639	4.24
638.969	4.03
639.3	3.93
639.63	4.39
639.961	4.22
640.291	4.14
640.622	4.48
640.952	4.62
641.282	3.73
641.612	4.41
641.943	4.21
642.273	4.17
642.603	4.59
642.933	4.44
643.263	4.55
643.592	4.66
643.922	4.45
644.252	4.11
644.582	4.59
644.911	4.27
645.241	3.8
645.571	4.46
645.9	4.49
646.23	4.46
646.559	4.34
646.888	4.63
647.218	4.42
647.547	4.12
647.876	4.37
648.205	4.25
648.534	4.32
648.863	4.06
649.192	4.46
649.521	4.41
649.85	4.61
650.179	4.47
650.508	4.27
650.837	4.44
651.165	4.01
651.494	3.77
651.822	4.55
652.151	4.15
652.479	4.71
652.808	4.36
653.136	3.86
653.465	4.08
653.793	4.14
654.121	4.06
654.449	4.21
654.777	4.1
655.105	3.59
655.433	4.74
655.761	3.8
656.089	4.22
656.417	4.33
656.745	4.71
657.073	4.51
657.4	4.14
657.728	4.4
658.056	4.24
658.383	4.17
658.711	4.67
659.038	4.73
659.365	4.08
659.693	4.31
660.02	3.87
660.347	4.25
660.674	3.87
661.001	4.25
661.329	4.04
661.656	3.75
661.982	4.08
662.309	4.11
662.636	4.13
662.963	4.05
663.29	4.51
663.616	4.08
663.943	4.01
664.27	4.16
664.596	4.36
664.923	4.57
665.249	4.43
665.576	4.3
665.902	3.94
666.228	4.56
666.554	5.31
666.881	3.96
667.207	4.25
667.533	4.37
667.859	3.88
668.185	4.1
668.511	5.06
668.837	4.4
669.162	4.1
669.488	4.03
669.814	3.94
670.139	3.35
670.465	4.54
670.791	4.02
671.116	4.02
671.442	3.15
671.767	4.36
672.092	4.08
672.418	3.99
672.743	4.06
673.068	4.05
673.393	4.73
673.718	3.79
674.043	3.9
674.368	4.21
674.693	3.91
675.018	4.48
675.343	4.7
675.667	3.98
675.992	4.87
676.317	3.73
676.641	4.56
676.966	4.92
677.29	3.68
677.615	3.85
677.939	4.48
678.264	4.12
678.588	4.06
678.912	4.69
679.236	3.83
679.56	4.13
679.885	4.27
680.209	4.09
680.532	4.76
680.856	4.73
681.18	4.64
681.504	4.19
681.828	3.82
682.152	4.23
682.475	4.12
682.799	4.11
683.122	4.06
683.446	3.88
683.769	4.59
684.093	4.3
684.416	4.14
684.739	4.24
685.062	4.42
685.386	4.46
685.709	4.21
686.032	4.07
686.355	4.28
686.678	4.07
687.001	4.31
687.324	4.76
687.646	4.55
687.969	4.39
688.292	4.19
688.614	4.7
688.937	4.57
689.26	4.83
689.582	4.24
689.904	4.48
690.227	4.38
690.549	4.38
690.871	4.21
691.194	4.7
691.516	3.75
691.838	4.68
692.16	3.88
692.482	4.5
692.804	4.32
693.126	3.66
693.448	4.08
