Data from 21-9_forehead_Reflection__1__41.txt Node

Date: Thu Dec 15 16:46:03 CST 2022
User: ToomeyLab
Spectrometer: FLMS14357
Trigger mode: 0
Integration Time (sec): 1.000000E-2
Scans to average: 100
Electric dark correction enabled: true
Nonlinearity correction enabled: false
Boxcar width: 0
XAxis mode: Wavelengths
Number of Pixels in Spectrum: 2048
>>>>>Begin Spectral Data<<<<<
189.047	-1.13
189.435	-1.13
189.823	-1.13
190.211	91.66
190.599	62.25
190.987	-23.75
191.375	-127.96
191.763	81.75
192.151	109.32
192.538	26.22
192.926	59.82
193.314	30.47
193.702	14.8
194.089	8
194.477	-1204.4
194.864	127.35
195.252	136.29
195.639	74.85
196.027	-46.89
196.414	169.46
196.801	-322.09
197.189	-7.36
197.576	-10.28
197.963	50.46
198.351	66.58
198.738	-7.73
199.125	-44.56
199.512	53.68
199.899	26.2
200.286	37.62
200.673	73.67
201.06	2.35
201.447	18.09
201.833	-11.62
202.22	34.58
202.607	3.38
202.994	9.78
203.38	67.73
203.767	35.51
204.154	31.14
204.54	16.47
204.927	31.88
205.313	68.91
205.699	39.71
206.086	44.48
206.472	55.31
206.858	33.49
207.245	3.4
207.631	5.77
208.017	46.97
208.403	8.06
208.789	30.2
209.175	7.36
209.561	-3.68
209.947	42.16
210.333	44.14
210.719	13.81
211.105	57.2
211.491	8.45
211.876	-1.8
212.262	35.09
212.648	37.67
213.034	51.01
213.419	38.6
213.805	14.84
214.19	12.15
214.576	9.91
214.961	30.05
215.346	2.06
215.732	23.59
216.117	20.41
216.502	16.84
216.888	22.46
217.273	26.35
217.658	21.28
218.043	-4.69
218.428	-3.28
218.813	36.23
219.198	-12.87
219.583	12.28
219.968	25.36
220.353	4.65
220.738	-0.95
221.122	-1.24
221.507	12.27
221.892	-2.35
222.276	3.3
222.661	-1.64
223.046	6.73
223.43	23.07
223.815	13.64
224.199	10.52
224.583	5.12
224.968	1.57
225.352	8.53
225.736	16.12
226.121	7.12
226.505	4.88
226.889	4.9
227.273	4.8
227.657	5.45
228.041	3.09
228.425	-0.46
228.809	1.23
229.193	2.75
229.577	3.03
229.961	1.38
230.344	1.46
230.728	2.27
231.112	2.31
231.495	1.43
231.879	2.7
232.263	3.54
232.646	1.37
233.03	4.41
233.413	3.56
233.797	1.78
234.18	1.45
234.563	1.67
234.946	2.15
235.33	1.52
235.713	2.63
236.096	3.74
236.479	2.82
236.862	2.35
237.245	2.35
237.628	3.55
238.011	2.34
238.394	1.5
238.777	2.16
239.16	3.46
239.543	4.23
239.925	2.79
240.308	1.38
240.691	1.65
241.073	2.18
241.456	2.74
241.838	1.36
242.221	2.35
242.603	1.95
242.986	1.91
243.368	1.89
243.75	1.84
244.133	1.39
244.515	1.67
244.897	1.36
245.279	1.56
245.661	2.46
246.043	1.61
246.425	3.18
246.807	2.11
247.189	2.45
247.571	1.51
247.953	1.54
248.335	1.45
248.717	1.53
249.098	1.58
249.48	1.47
249.862	1.82
250.243	1.62
250.625	1.81
251.006	2.44
251.388	1.8
251.769	0.94
252.151	1.96
252.532	1.87
252.913	1.89
253.295	1.61
253.676	1.83
254.057	1.95
254.438	1.63
254.819	1.76
255.2	2.89
255.581	2.36
255.962	2.59
256.343	2.16
256.724	2.72
257.105	1.11
257.486	1.69
257.867	0.96
258.247	1.56
258.628	2.33
259.009	1.61
259.389	0.72
259.77	1.1
260.15	2.49
260.531	1.49
260.911	1.42
261.292	1.57
261.672	1.3
262.052	1.36
262.432	1.29
262.813	1.83
263.193	1.75
263.573	1.49
263.953	1.35
264.333	1.83
264.713	1.77
265.093	1.82
265.473	0.77
265.853	2.52
266.233	1.88
266.612	1.78
266.992	1.53
267.372	2
267.752	2.27
268.131	1.65
268.511	1.57
268.89	2.07
269.27	1.32
269.649	1.34
270.029	1.55
270.408	1.32
270.787	1.95
271.167	1.59
271.546	1.59
271.925	1.54
272.304	1.15
272.683	1.67
273.062	1.9
273.441	1.03
273.82	1.46
274.199	1.47
274.578	1.73
274.957	1.41
275.336	1.95
275.715	1.82
276.093	1.27
276.472	1.3
276.851	1.52
277.229	1.28
277.608	1.32
277.986	1.49
278.365	1.94
278.743	1.16
279.122	1.28
279.5	1.74
279.878	1.05
280.257	1.23
280.635	2.1
281.013	1.41
281.391	1.46
281.769	2.07
282.147	1.62
282.525	1.54
282.903	1.44
283.281	1.84
283.659	1.86
284.037	1.06
284.415	1.81
284.792	1.63
285.17	1.65
285.548	1.3
285.925	1.03
286.303	1.82
286.68	1.57
287.058	1.59
287.435	1.54
287.813	1.52
288.19	1.22
288.567	1.25
288.945	1.24
289.322	1.58
289.699	1.54
290.076	1.13
290.453	1.38
290.83	1.6
291.207	1.32
291.584	1.86
291.961	1.46
292.338	1.32
292.715	1.51
293.092	1.89
293.469	1.91
293.845	1.7
294.222	2.27
294.599	1.61
294.975	1.11
295.352	1.96
295.728	1.87
296.105	1.3
296.481	1.83
296.858	1.77
297.234	1.56
297.61	1.89
297.986	1.77
298.363	1.79
298.739	1.95
299.115	1.65
299.491	2.07
299.867	1.76
300.243	1.73
300.619	1.41
300.995	1.86
301.371	2.16
301.746	2.18
302.122	1.61
302.498	2.13
302.874	2.08
303.249	2.04
303.625	1.67
304	2.14
304.376	2.4
304.751	2.03
305.127	1.87
305.502	2.3
305.878	2.52
306.253	1.93
306.628	1.68
307.003	2.4
307.378	2.08
307.754	2.48
308.129	2.17
308.504	2.66
308.879	2.74
309.254	2.6
309.629	2.49
310.003	2.49
310.378	2.67
310.753	2.39
311.128	2.31
311.502	2.42
311.877	2.51
312.252	2.61
312.626	2.87
313.001	3.08
313.375	3.05
313.75	2.99
314.124	2.97
314.498	3.22
314.873	2.51
315.247	3.03
315.621	2.58
315.995	3.25
316.369	2.34
316.743	2.6
317.117	2.84
317.491	3.31
317.865	2.83
318.239	3.59
318.613	3.17
318.987	3.24
319.361	3.72
319.734	3.54
320.108	3.27
320.482	3.3
320.855	3.85
321.229	3.42
321.602	3.42
321.976	2.83
322.349	3.96
322.723	3.65
323.096	3.99
323.469	3.48
323.843	3.5
324.216	3.86
324.589	3.48
324.962	3.36
325.335	3.52
325.708	3.97
326.081	3.78
326.454	4.32
326.827	3.98
327.2	3.68
327.573	4.58
327.945	4.14
328.318	4.06
328.691	3.73
329.063	3.97
329.436	3.67
329.809	4.48
330.181	4.59
330.553	4.77
330.926	4.47
331.298	4.02
331.671	4.8
332.043	3.84
332.415	4.6
332.787	4.38
333.159	4.33
333.532	4.59
333.904	4.76
334.276	4.63
334.648	4.63
335.02	4.34
335.391	4.83
335.763	4.8
336.135	4.67
336.507	4.4
336.879	4.48
337.25	4.64
337.622	4.71
337.993	4.67
338.365	4.51
338.736	4.69
339.108	4.77
339.479	5.16
339.851	5.22
340.222	5.05
340.593	4.63
340.964	4.85
341.336	4.45
341.707	5.06
342.078	4.75
342.449	5.26
342.82	5.24
343.191	5.01
343.562	4.98
343.933	5.11
344.303	5.53
344.674	5.17
345.045	5.29
345.416	5.37
345.786	5.28
346.157	5.3
346.527	5.07
346.898	5.05
347.268	5.36
347.639	5.24
348.009	5.29
348.38	5.18
348.75	5.67
349.12	5.17
349.49	5.18
349.861	5.72
350.231	5.47
350.601	5.41
350.971	5.21
351.341	5.41
351.711	5.47
352.081	5.24
352.45	5.11
352.82	4.97
353.19	5.39
353.56	5.36
353.929	5.7
354.299	5.62
354.669	5.67
355.038	5.94
355.408	5.96
355.777	5.81
356.147	5.62
356.516	5.56
356.885	6
357.254	5.76
357.624	5.74
357.993	6.01
358.362	6.07
358.731	6.04
359.1	5.66
359.469	5.97
359.838	5.87
360.207	5.83
360.576	6.17
360.945	6.15
361.314	5.87
361.682	5.71
362.051	5.77
362.42	5.85
362.788	6.15
363.157	5.86
363.525	5.96
363.894	5.93
364.262	5.95
364.631	6.04
364.999	6.18
365.367	6.07
365.735	6.06
366.104	6.27
366.472	6.17
366.84	6.32
367.208	6.7
367.576	6.26
367.944	6.4
368.312	6.17
368.68	6.63
369.048	6.41
369.416	6.25
369.783	6.54
370.151	6.82
370.519	6.95
370.886	6.66
371.254	6.81
371.621	6.7
371.989	6.8
372.356	6.65
372.724	6.52
373.091	6.42
373.458	6.35
373.826	6.81
374.193	7.07
374.56	7.2
374.927	6.55
375.294	6.85
375.661	6.78
376.028	6.94
376.395	6.97
376.762	6.58
377.129	7
377.496	7.01
377.863	7.09
378.229	7.17
378.596	6.94
378.963	6.94
379.329	7.12
379.696	6.84
380.062	6.99
380.429	7.01
380.795	7.11
381.161	6.74
381.528	6.66
381.894	6.99
382.26	6.88
382.626	7.1
382.993	7.25
383.359	7.09
383.725	7
384.091	7.27
384.457	7.2
384.823	7.33
385.188	7.42
385.554	7
385.92	7.06
386.286	7.22
386.651	7.04
387.017	7.51
387.383	6.92
387.748	7.2
388.114	7.37
388.479	6.89
388.845	6.93
389.21	7.48
389.575	7.46
389.94	7.61
390.306	7.22
390.671	7.2
391.036	7.14
391.401	7.5
391.766	7.23
392.131	7.36
392.496	7.09
392.861	7.01
393.226	6.87
393.591	7.23
393.956	7.23
394.32	7.37
394.685	7.18
395.05	7.13
395.414	7.07
395.779	7.23
396.143	7.05
396.508	7.13
396.872	7.16
397.236	7.41
397.601	7.36
397.965	7.27
398.329	7.26
398.694	7.3
399.058	7.26
399.422	7.07
399.786	7.21
400.15	7.08
400.514	7.22
400.878	7.19
401.242	7.21
401.605	7.12
401.969	7
402.333	7.02
402.697	7.32
403.06	7.08
403.424	7.33
403.787	7.24
404.151	7.18
404.514	7.31
404.878	6.71
405.241	6.9
405.604	6.83
405.968	6.94
406.331	6.92
406.694	7.03
407.057	6.85
407.42	6.8
407.783	7.01
408.146	7
408.509	6.94
408.872	6.73
409.235	7.2
409.598	6.93
409.961	7
410.323	6.93
410.686	6.75
411.049	6.91
411.411	6.98
411.774	6.79
412.136	7.01
412.499	7.02
412.861	6.63
413.223	6.64
413.586	7.08
413.948	7.09
414.31	7.08
414.672	6.83
415.035	7.21
415.397	7.01
415.759	6.97
416.121	7.09
416.483	7.09
416.845	7.05
417.206	7.04
417.568	7.08
417.93	7.08
418.292	6.85
418.653	6.97
419.015	7.17
419.377	7.1
419.738	7.13
420.1	7.17
420.461	7.12
420.822	7.37
421.184	7.26
421.545	7.45
421.906	7.37
422.267	7.37
422.629	7.45
422.99	7.39
423.351	7.44
423.712	7.7
424.073	7.79
424.434	7.87
424.795	7.63
425.155	7.89
425.516	7.82
425.877	7.99
426.238	8.05
426.598	8.08
426.959	8.16
427.32	8.24
427.68	8.4
428.041	8.44
428.401	8.48
428.761	8.75
429.122	8.68
429.482	8.87
429.842	8.93
430.202	9.15
430.563	9.06
430.923	9.16
431.283	9.37
431.643	9.36
432.003	9.37
432.363	9.47
432.722	9.48
433.082	9.44
433.442	9.64
433.802	9.57
434.161	9.59
434.521	9.8
434.881	9.85
435.24	9.9
435.6	9.88
435.959	10.07
436.319	10.14
436.678	10.13
437.037	10.28
437.396	10.25
437.756	10.45
438.115	10.46
438.474	10.51
438.833	10.47
439.192	10.55
439.551	10.57
439.91	10.6
440.269	10.79
440.628	10.82
440.987	10.81
441.345	10.76
441.704	10.86
442.063	10.83
442.421	10.94
442.78	10.91
443.138	11.03
443.497	11.12
443.855	11.3
444.214	11.16
444.572	11.55
444.93	11.45
445.288	11.56
445.647	11.47
446.005	11.52
446.363	11.65
446.721	11.65
447.079	11.48
447.437	11.62
447.795	11.65
448.153	11.72
448.51	11.73
448.868	11.83
449.226	11.96
449.584	11.97
449.941	12.11
450.299	12.25
450.656	12.33
451.014	12.35
451.371	12.43
451.729	12.6
452.086	12.64
452.443	12.75
452.801	12.82
453.158	12.8
453.515	12.75
453.872	12.78
454.229	12.81
454.586	12.76
454.943	13.04
455.3	12.96
455.657	13.04
456.014	13.23
456.371	13.33
456.727	13.34
457.084	13.5
457.441	13.49
457.797	13.5
458.154	13.49
458.51	13.56
458.867	13.56
459.223	13.71
459.58	13.77
459.936	13.66
460.292	13.54
460.648	13.68
461.005	13.73
461.361	13.71
461.717	13.62
462.073	13.84
462.429	13.94
462.785	14.08
463.141	14.18
463.496	14.41
463.852	14.52
464.208	14.48
464.564	14.45
464.919	14.75
465.275	14.56
465.631	14.91
465.986	14.89
466.342	14.52
466.697	14.71
467.052	14.9
467.408	14.97
467.763	14.97
468.118	14.92
468.473	15.02
468.829	15.17
469.184	15.29
469.539	14.99
469.894	15.35
470.249	15.43
470.603	15.46
470.958	15.46
471.313	15.67
471.668	15.38
472.023	15.62
472.377	15.51
472.732	15.71
473.086	15.67
473.441	15.7
473.795	15.93
474.15	15.75
474.504	16
474.859	15.64
475.213	15.81
475.567	16
475.921	16.05
476.275	16.16
476.63	16.28
476.984	16.11
477.338	16.16
477.692	16.14
478.045	16.36
478.399	16.29
478.753	16.15
479.107	16.26
479.461	16.37
479.814	16.41
480.168	16.48
480.521	16.57
480.875	16.5
481.228	16.61
481.582	16.72
481.935	16.79
482.289	16.76
482.642	16.7
482.995	16.7
483.348	16.58
483.701	16.59
484.055	16.46
484.408	16.25
484.761	16.09
485.114	15.94
485.466	15.89
485.819	16.01
486.172	16.19
486.525	16.32
486.878	16.45
487.23	16.56
487.583	16.63
487.936	16.68
488.288	16.6
488.641	16.54
488.993	16.5
489.345	16.46
489.698	16.56
490.05	16.68
490.402	16.8
490.754	16.98
491.107	17.04
491.459	17.3
491.811	17.36
492.163	17.23
492.515	17.07
492.866	16.92
493.218	16.89
493.57	17.08
493.922	17.19
494.274	17.54
494.625	17.58
494.977	17.76
495.328	17.99
495.68	17.95
496.031	18.13
496.383	18.13
496.734	18.32
497.086	18.35
497.437	18.43
497.788	18.29
498.139	18.07
498.49	18.21
498.842	18.26
499.193	18.21
499.544	18.32
499.894	18.33
500.245	18.51
500.596	18.56
500.947	18.55
501.298	18.68
501.648	18.74
501.999	18.79
502.35	18.7
502.7	18.85
503.051	18.92
503.401	18.94
503.752	18.87
504.102	19.01
504.452	18.95
504.803	18.98
505.153	18.93
505.503	18.99
505.853	19.17
506.203	19.16
506.553	19.2
506.903	19.33
507.253	19.19
507.603	19.42
507.953	19.44
508.303	19.4
508.652	19.36
509.002	19.34
509.352	19.46
509.701	19.31
510.051	19.22
510.4	19.42
510.75	19.28
511.099	19.32
511.449	19.35
511.798	19.33
512.147	19.31
512.496	19.53
512.846	19.51
513.195	19.34
513.544	19.47
513.893	19.48
514.242	19.47
514.591	19.55
514.939	19.71
515.288	19.63
515.637	19.65
515.986	19.71
516.334	19.9
516.683	19.83
517.032	19.87
517.38	19.88
517.729	19.86
518.077	19.88
518.426	20.02
518.774	19.71
519.122	19.66
519.47	19.7
519.819	19.64
520.167	19.55
520.515	19.63
520.863	19.74
521.211	19.74
521.559	19.79
521.907	19.97
522.255	19.97
522.602	20.07
522.95	20.24
523.298	20.26
523.645	20.25
523.993	20.29
524.341	20.21
524.688	20.22
525.036	20.28
525.383	20.13
525.73	20.08
526.078	20.26
526.425	20.08
526.772	19.86
527.119	20.02
527.466	19.96
527.814	19.9
528.161	20.07
528.508	20.09
528.854	19.94
529.201	19.84
529.548	19.64
529.895	19.41
530.242	19.47
530.588	19.63
530.935	19.77
531.282	19.79
531.628	19.88
531.975	20.05
532.321	20.28
532.667	20.35
533.014	20.35
533.36	20.4
533.706	20.42
534.052	20.29
534.399	20.08
534.745	20.01
535.091	20.04
535.437	20.17
535.783	20.32
536.129	20.44
536.474	20.66
536.82	20.63
537.166	20.61
537.512	20.7
537.857	20.57
538.203	20.53
538.549	20.65
538.894	20.71
539.239	20.8
539.585	21.07
539.93	21.09
540.276	21.25
540.621	21.38
540.966	21.24
541.311	21.13
541.656	21.13
542.001	20.95
542.346	20.82
542.691	20.59
543.036	20.54
543.381	20.73
543.726	20.84
544.071	21
544.415	21.07
544.76	21.21
545.105	21.35
545.449	21.41
545.794	21.46
546.138	21.44
546.483	21.68
546.827	21.53
547.171	21.63
547.516	21.63
547.86	21.69
548.204	21.68
548.548	21.65
548.892	21.87
549.236	21.87
549.58	22.07
549.924	22.26
550.268	22.4
550.612	22.57
550.956	22.47
551.3	22.73
551.643	22.62
551.987	22.76
552.33	23
552.674	22.65
553.017	22.84
553.361	22.87
553.704	22.58
554.048	22.7
554.391	22.79
554.734	22.58
555.077	22.81
555.42	22.95
555.764	22.96
556.107	22.98
556.45	23.1
556.793	23.4
557.135	23.04
557.478	23.24
557.821	23.26
558.164	23.18
558.507	23.14
558.849	23.48
559.192	23.34
559.534	23.35
559.877	23.53
560.219	23.36
560.562	23.66
560.904	23.59
561.246	23.39
561.589	23.8
561.931	23.51
562.273	23.73
562.615	23.6
562.957	23.62
563.299	23.8
563.641	23.75
563.983	23.71
564.325	23.53
564.667	23.63
565.008	23.94
565.35	23.78
565.692	23.84
566.033	23.97
566.375	23.95
566.716	23.76
567.058	23.88
567.399	23.84
567.741	24.01
568.082	23.91
568.423	23.77
568.764	23.98
569.105	24.14
569.447	24.19
569.788	24.31
570.129	24.28
570.47	24.36
570.811	24.28
571.151	24.37
571.492	24.42
571.833	24.55
572.174	24.31
572.514	24.82
572.855	24.69
573.195	24.54
573.536	24.52
573.876	24.56
574.217	24.53
574.557	24.59
574.898	24.74
575.238	24.89
575.578	24.9
575.918	24.86
576.258	24.94
576.598	24.86
576.938	24.97
577.278	25.1
577.618	24.85
577.958	25.29
578.298	25.25
578.638	25.22
578.977	25.46
579.317	25.29
579.657	25.63
579.996	25.7
580.336	25.64
580.675	25.69
581.014	25.68
581.354	25.74
581.693	25.74
582.032	26.09
582.372	26.25
582.711	26.09
583.05	26.15
583.389	26.34
583.728	25.94
584.067	26.29
584.406	26.26
584.745	26.37
585.083	26.36
585.422	26.35
585.761	26.26
586.1	26.49
586.438	26.48
586.777	26.44
587.115	26.68
587.454	26.5
587.792	26.57
588.13	26.64
588.469	26.63
588.807	26.75
589.145	26.91
589.483	26.7
589.821	26.76
590.159	26.87
590.497	27
590.835	27.11
591.173	27.16
591.511	27.09
591.849	27.07
592.187	26.91
592.524	27.36
592.862	27.22
593.2	27.39
593.537	27.23
593.875	27.14
594.212	27.66
594.55	27.69
594.887	27.59
595.224	27.55
595.561	27.59
595.899	27.52
596.236	27.63
596.573	27.65
596.91	27.83
597.247	27.69
597.584	27.47
597.921	27.51
598.258	27.63
598.594	27.51
598.931	27.55
599.268	27.48
599.604	27.7
599.941	27.99
600.277	28.02
600.614	28.11
600.95	28.02
601.287	28.01
601.623	28.06
601.959	28.57
602.296	28.61
602.632	28.61
602.968	28.24
603.304	28.48
603.64	28.32
603.976	28.37
604.312	28.41
604.648	28.47
604.984	28.38
605.319	28.29
605.655	28.35
605.991	28.5
606.326	28.41
606.662	28.32
606.998	28.53
607.333	28.78
607.668	28.83
608.004	28.72
608.339	28.84
608.674	28.78
609.01	29.17
609.345	28.96
609.68	29.02
610.015	29.23
610.35	29.05
610.685	29.02
611.02	28.78
611.355	29.16
611.689	29.25
612.024	29.37
612.359	29.52
612.694	29.48
613.028	29.37
613.363	29.57
613.697	29.56
614.032	29.52
614.366	29.92
614.7	30.15
615.035	30.1
615.369	30.16
615.703	30.27
616.037	29.93
616.371	30.12
616.705	29.5
617.039	30.11
617.373	30.31
617.707	30.11
618.041	30.07
618.375	29.75
618.709	30.57
619.042	30.46
619.376	30.2
619.71	30.2
620.043	30.95
620.377	30.69
620.71	30.42
621.043	30.56
621.377	30.67
621.71	30.32
622.043	30.63
622.376	30.54
622.709	30.95
623.043	30.69
623.376	30.87
623.709	31.08
624.041	30.53
624.374	31.26
624.707	31.29
625.04	30.59
625.373	31.31
625.705	31.05
626.038	31.28
626.37	31.04
626.703	30.98
627.035	31.51
627.368	31.42
627.7	31.27
628.032	30.97
628.365	31.15
628.697	31.36
629.029	31.6
629.361	31.56
629.693	31.29
630.025	31.61
630.357	31.83
630.689	31.79
631.021	32.07
631.353	31.88
631.684	32.01
632.016	32.03
632.348	31.91
632.679	32.24
633.011	32.14
633.342	31.75
633.674	31.57
634.005	32.14
634.336	31.97
634.668	32.4
634.999	32.18
635.33	32.01
635.661	32.12
635.992	32.2
636.323	32.12
636.654	32.3
636.985	32.37
637.316	32.51
637.647	32.43
637.977	32.92
638.308	32.9
638.639	32.72
638.969	32.54
639.3	32.99
639.63	32.61
639.961	33.09
640.291	33.27
640.622	33.04
640.952	32.99
641.282	32.86
641.612	33.02
641.943	33.21
642.273	33.18
642.603	33.13
642.933	33.67
643.263	33.74
643.592	33.61
643.922	33.98
644.252	33.1
644.582	33.33
644.911	33.66
645.241	33.42
645.571	33.62
645.9	34.07
646.23	34.06
646.559	33.72
646.888	34.43
647.218	33.8
647.547	33.54
647.876	33.84
648.205	33.94
648.534	34.86
648.863	34.24
649.192	34.05
649.521	34.72
649.85	34.48
650.179	34.58
650.508	34
650.837	34.64
651.165	34.39
651.494	34.38
651.822	35.01
652.151	34.48
652.479	34.91
652.808	34.42
653.136	34.71
653.465	34.84
653.793	34.91
654.121	35.18
654.449	35.14
654.777	34.43
655.105	34.63
655.433	34.85
655.761	35.33
656.089	35.2
656.417	35.48
656.745	35.38
657.073	35.52
657.4	35.14
657.728	34.8
658.056	34.83
658.383	35.55
658.711	35.73
659.038	35.6
659.365	35.6
659.693	35.64
660.02	35.05
660.347	35.58
660.674	35.28
661.001	35.4
661.329	35.28
661.656	35.32
661.982	35.59
662.309	35.49
662.636	35.76
662.963	35.73
663.29	36.25
663.616	35.67
663.943	36.1
664.27	35.97
664.596	36.56
664.923	36.38
665.249	36.58
665.576	36.03
665.902	35.96
666.228	36.87
666.554	36.9
666.881	36.54
667.207	36.11
667.533	37.04
667.859	37.01
668.185	36.47
668.511	36.62
668.837	36.82
669.162	36.72
669.488	36.46
669.814	36.97
670.139	36.45
670.465	37.48
670.791	36.67
671.116	36.42
671.442	36.58
671.767	37.29
672.092	36.91
672.418	36.55
672.743	37.46
673.068	37.59
673.393	37.92
673.718	37.59
674.043	37.91
674.368	37.47
674.693	37.91
675.018	37.32
675.343	37.99
675.667	37.78
675.992	37.84
676.317	37.32
676.641	37.65
