Data from 21-9_crown_Reflection__1__36.txt Node

Date: Thu Dec 15 16:44:38 CST 2022
User: ToomeyLab
Spectrometer: FLMS14357
Trigger mode: 0
Integration Time (sec): 1.000000E-2
Scans to average: 100
Electric dark correction enabled: true
Nonlinearity correction enabled: false
Boxcar width: 0
XAxis mode: Wavelengths
Number of Pixels in Spectrum: 2048
>>>>>Begin Spectral Data<<<<<
189.047	-15.61
189.435	-15.61
189.823	-15.61
190.211	86.81
190.599	162.67
190.987	6.13
191.375	336.94
191.763	44.63
192.151	127.06
192.538	95.47
192.926	16.58
193.314	60.78
193.702	64.13
194.089	47.45
194.477	1306.8
194.864	100.58
195.252	147.75
195.639	12.64
196.027	57.83
196.414	377.15
196.801	-552.33
197.189	133.32
197.576	-50.34
197.963	-141.44
198.351	68.04
198.738	-6.22
199.125	-9.82
199.512	49.18
199.899	-18.12
200.286	39.13
200.673	38.26
201.06	19.57
201.447	14.27
201.833	2.41
202.22	6.45
202.607	-4.43
202.994	25.18
203.38	32.08
203.767	8.77
204.154	30.09
204.54	7.38
204.927	21.95
205.313	28.87
205.699	29.63
206.086	50.27
206.472	5.79
206.858	31.01
207.245	8.93
207.631	1.3
208.017	31.1
208.403	46.4
208.789	27.88
209.175	11.26
209.561	15.22
209.947	-24.56
210.333	-20.56
210.719	30.69
211.105	48.02
211.491	21.51
211.876	39.37
212.262	40.23
212.648	34.99
213.034	-10.63
213.419	28.97
213.805	-3.52
214.19	-6.41
214.576	9.28
214.961	9.94
215.346	-13.64
215.732	13.73
216.117	-2.9
216.502	-4.14
216.888	16.93
217.273	21.21
217.658	10.47
218.043	-12.2
218.428	23.96
218.813	17.71
219.198	3.38
219.583	-3.8
219.968	10.17
220.353	12.72
220.738	-3.73
221.122	8.83
221.507	-0.04
221.892	-23.41
222.276	2.76
222.661	5.07
223.046	-7.39
223.43	14.09
223.815	9.01
224.199	6.11
224.583	1.76
224.968	5
225.352	-4.31
225.736	10.22
226.121	4.4
226.505	3.48
226.889	4.89
227.273	3.55
227.657	7.13
228.041	5.01
228.425	4.36
228.809	4.08
229.193	4.45
229.577	4.81
229.961	4.59
230.344	4.91
230.728	5.64
231.112	4.7
231.495	4.37
231.879	6.14
232.263	4.72
232.646	5.78
233.03	6.98
233.413	4.58
233.797	2.63
234.18	3.5
234.563	4.9
234.946	4.03
235.33	5.16
235.713	4.57
236.096	5.27
236.479	5.94
236.862	3.98
237.245	5.41
237.628	5.79
238.011	4.2
238.394	5.72
238.777	4.71
239.16	5.22
239.543	6.79
239.925	5.42
240.308	3.32
240.691	3.6
241.073	5.15
241.456	5.11
241.838	5.22
242.221	4.89
242.603	5.31
242.986	5.03
243.368	5.05
243.75	4.56
244.133	4.93
244.515	4.84
244.897	4.48
245.279	4.33
245.661	3.81
246.043	4.43
246.425	4.27
246.807	4.91
247.189	4.26
247.571	4.85
247.953	4.39
248.335	4.67
248.717	4.67
249.098	4.85
249.48	4.77
249.862	4.57
250.243	4.86
250.625	4.98
251.006	5.03
251.388	4.12
251.769	4.5
252.151	4.15
252.532	3.95
252.913	4.8
253.295	4.16
253.676	4.63
254.057	4.7
254.438	4.93
254.819	4.06
255.2	4.68
255.581	5.71
255.962	4.67
256.343	4.63
256.724	5.08
257.105	4.54
257.486	4.52
257.867	4.55
258.247	5.29
258.628	5.09
259.009	4.39
259.389	3.96
259.77	3.68
260.15	4.93
260.531	4.21
260.911	4.19
261.292	4.45
261.672	4.27
262.052	4.44
262.432	4.15
262.813	4.68
263.193	4.42
263.573	4.67
263.953	4.15
264.333	4.7
264.713	5.23
265.093	4.3
265.473	3.39
265.853	4.12
266.233	4.88
266.612	3.97
266.992	4.24
267.372	4.31
267.752	4.76
268.131	4.42
268.511	4.38
268.89	4.75
269.27	3.32
269.649	4.12
270.029	4.33
270.408	3.67
270.787	4.35
271.167	4.14
271.546	4.7
271.925	4.36
272.304	3.97
272.683	4.26
273.062	3.96
273.441	3.99
273.82	4.42
274.199	4.22
274.578	3.99
274.957	4.14
275.336	4.62
275.715	4.55
276.093	3.51
276.472	3.97
276.851	4.29
277.229	4.07
277.608	3.64
277.986	4.27
278.365	4.89
278.743	4.48
279.122	4.71
279.5	4.02
279.878	3.99
280.257	4.38
280.635	4.21
281.013	3.85
281.391	3.82
281.769	4.71
282.147	3.77
282.525	3.64
282.903	4.31
283.281	4.22
283.659	4.24
284.037	4.02
284.415	3.76
284.792	4.16
285.17	3.66
285.548	3.81
285.925	4.12
286.303	4.46
286.68	4.04
287.058	4.06
287.435	3.71
287.813	4.04
288.19	3.62
288.567	3.72
288.945	3.67
289.322	3.76
289.699	4.22
290.076	4.11
290.453	3.74
290.83	4
291.207	3.75
291.584	3.91
291.961	4.04
292.338	3.41
292.715	3.86
293.092	4.3
293.469	3.43
293.845	3.73
294.222	3.91
294.599	3.57
294.975	3.65
295.352	4.04
295.728	3.79
296.105	3.61
296.481	4.12
296.858	3.45
297.234	3.59
297.61	3.74
297.986	3.78
298.363	3.69
298.739	3.89
299.115	3.6
299.491	4.05
299.867	3.75
300.243	3.3
300.619	3.31
300.995	3.4
301.371	3.99
301.746	3.88
302.122	3.45
302.498	3.51
302.874	4.02
303.249	3.51
303.625	3.5
304	3.81
304.376	4.4
304.751	4.34
305.127	3.23
305.502	3.76
305.878	3.71
306.253	3.84
306.628	3.64
307.003	3.96
307.378	3.46
307.754	3.63
308.129	3.62
308.504	3.85
308.879	3.89
309.254	4.12
309.629	4.04
310.003	3.75
310.378	3.81
310.753	3.95
311.128	3.43
311.502	3.79
311.877	3.63
312.252	3.84
312.626	3.84
313.001	3.63
313.375	3.88
313.75	4.05
314.124	4.11
314.498	3.95
314.873	3.67
315.247	3.67
315.621	3.65
315.995	3.73
316.369	3.35
316.743	3.55
317.117	3.11
317.491	3.91
317.865	3.7
318.239	4.09
318.613	3.39
318.987	3.01
319.361	3.45
319.734	3.54
320.108	3.67
320.482	3.45
320.855	3.43
321.229	3.15
321.602	3.38
321.976	3.38
322.349	4.33
322.723	3.77
323.096	3.73
323.469	3.42
323.843	3.44
324.216	3.58
324.589	3.83
324.962	3.17
325.335	3.26
325.708	3.8
326.081	3.77
326.454	3.8
326.827	3.95
327.2	3.31
327.573	3.7
327.945	3.08
328.318	3.41
328.691	3.95
329.063	3.34
329.436	3.12
329.809	4.01
330.181	4.47
330.553	3.78
330.926	4.32
331.298	3.65
331.671	3.7
332.043	3.95
332.415	4.01
332.787	3.99
333.159	3.73
333.532	3.47
333.904	3.71
334.276	3.7
334.648	3.51
335.02	3.38
335.391	3.6
335.763	3.48
336.135	3.62
336.507	3.42
336.879	3.85
337.25	3.62
337.622	3.54
337.993	3.59
338.365	3.54
338.736	3.59
339.108	3.44
339.479	3.53
339.851	3.58
340.222	3.91
340.593	3.49
340.964	3.69
341.336	4
341.707	3.9
342.078	3.51
342.449	3.56
342.82	3.37
343.191	3.7
343.562	3.61
343.933	3.23
344.303	3.55
344.674	3.66
345.045	3.67
345.416	4.15
345.786	3.24
346.157	3.73
346.527	3.53
346.898	3.3
347.268	3.32
347.639	3.22
348.009	3.67
348.38	3.46
348.75	3.51
349.12	3.5
349.49	3.62
349.861	3.54
350.231	3.62
350.601	3.72
350.971	3.44
351.341	3.73
351.711	3.73
352.081	3.17
352.45	3.15
352.82	3.28
353.19	3.15
353.56	3.44
353.929	3.15
354.299	3.44
354.669	3.98
355.038	3.95
355.408	3.49
355.777	3.91
356.147	3.66
356.516	3.42
356.885	3.43
357.254	3.53
357.624	3.2
357.993	3.35
358.362	3.58
358.731	3.74
359.1	3.7
359.469	3.88
359.838	3.47
360.207	3.71
360.576	3.93
360.945	3.61
361.314	3.27
361.682	3.48
362.051	3.6
362.42	3.64
362.788	3.82
363.157	3.48
363.525	3.54
363.894	3.48
364.262	3.46
364.631	3.97
364.999	3.61
365.367	3.11
365.735	3.45
366.104	3.52
366.472	3.61
366.84	3.53
367.208	3.7
367.576	3.37
367.944	3.49
368.312	3.47
368.68	3.81
369.048	3.72
369.416	3.56
369.783	3.46
370.151	3.84
370.519	3.74
370.886	3.54
371.254	4.06
371.621	3.84
371.989	4.15
372.356	3.8
372.724	3.65
373.091	3.59
373.458	3.54
373.826	3.78
374.193	3.73
374.56	3.84
374.927	3.53
375.294	3.8
375.661	3.93
376.028	3.49
376.395	3.75
376.762	3.35
377.129	3.73
377.496	3.87
377.863	3.78
378.229	3.94
378.596	3.73
378.963	3.7
379.329	3.9
379.696	3.63
380.062	3.92
380.429	3.79
380.795	4
381.161	3.74
381.528	3.48
381.894	3.7
382.26	3.93
382.626	3.82
382.993	3.92
383.359	3.85
383.725	3.51
384.091	3.77
384.457	3.8
384.823	3.91
385.188	3.78
385.554	3.96
385.92	3.69
386.286	3.86
386.651	3.91
387.017	4.02
387.383	3.82
387.748	4.17
388.114	3.87
388.479	3.8
388.845	3.71
389.21	4.27
389.575	4.27
389.94	4.23
390.306	3.95
390.671	3.87
391.036	3.9
391.401	4.05
391.766	3.78
392.131	3.94
392.496	3.94
392.861	3.79
393.226	3.86
393.591	3.91
393.956	4.08
394.32	4.11
394.685	3.93
395.05	3.96
395.414	3.81
395.779	4.1
396.143	3.95
396.508	3.77
396.872	3.98
397.236	4.27
397.601	3.95
397.965	3.64
398.329	4
398.694	3.78
399.058	3.88
399.422	3.78
399.786	3.85
400.15	3.93
400.514	4.18
400.878	4.01
401.242	4.04
401.605	4.01
401.969	3.87
402.333	3.83
402.697	4.2
403.06	3.95
403.424	3.95
403.787	4.1
404.151	3.99
404.514	4.13
404.878	3.98
405.241	3.94
405.604	4.12
405.968	3.99
406.331	4.03
406.694	4.05
407.057	3.9
407.42	4.1
407.783	4.2
408.146	3.99
408.509	4.04
408.872	4.22
409.235	4.12
409.598	3.98
409.961	4.25
410.323	4.04
410.686	4.03
411.049	4.15
411.411	4.05
411.774	4
412.136	4.13
412.499	4.26
412.861	3.67
413.223	4.09
413.586	4.08
413.948	4.26
414.31	4.04
414.672	4.11
415.035	4.14
415.397	4
415.759	3.71
416.121	4.41
416.483	4.13
416.845	3.95
417.206	4.04
417.568	3.98
417.93	4.16
418.292	3.9
418.653	3.91
419.015	4.14
419.377	4.11
419.738	3.99
420.1	4.02
420.461	4.09
420.822	4.08
421.184	4.13
421.545	4.02
421.906	4.07
422.267	4.05
422.629	3.93
422.99	3.97
423.351	3.98
423.712	4.08
424.073	4.11
424.434	4.17
424.795	4.06
425.155	4.01
425.516	4.01
425.877	3.96
426.238	4.01
426.598	4.09
426.959	4.08
427.32	4.03
427.68	4.12
428.041	4.26
428.401	3.97
428.761	4.25
429.122	4.13
429.482	4.24
429.842	4.15
430.202	4.43
430.563	4.09
430.923	4.27
431.283	4.26
431.643	4.32
432.003	4.26
432.363	4.29
432.722	4.27
433.082	4.27
433.442	4.26
433.802	4.18
434.161	4.19
434.521	4.14
434.881	4.27
435.24	4.18
435.6	4.18
435.959	4.25
436.319	4.15
436.678	4.38
437.037	4.22
437.396	4.18
437.756	4.25
438.115	4.27
438.474	4.23
438.833	4.18
439.192	4.31
439.551	4.32
439.91	4.23
440.269	4.16
440.628	4.17
440.987	4.3
441.345	4.36
441.704	4.14
442.063	4.06
442.421	4.26
442.78	4.27
443.138	4.23
443.497	4.21
443.855	4.37
444.214	4.27
444.572	4.39
444.93	4.17
445.288	4.29
445.647	4.11
446.005	4.2
446.363	4.34
446.721	4.31
447.079	4.15
447.437	4.17
447.795	4.28
448.153	4.17
448.51	4.26
448.868	4.21
449.226	4.17
449.584	4.28
449.941	4.24
450.299	4.23
450.656	4.3
451.014	4.35
451.371	4.38
451.729	4.27
452.086	4.31
452.443	4.41
452.801	4.3
453.158	4.45
453.515	4.24
453.872	4.22
454.229	4.17
454.586	4.23
454.943	4.37
455.3	4.48
455.657	4.27
456.014	4.41
456.371	4.48
456.727	4.4
457.084	4.51
457.441	4.43
457.797	4.26
458.154	4.41
458.51	4.31
458.867	4.42
459.223	4.29
459.58	4.49
459.936	4.37
460.292	4.21
460.648	4.25
461.005	4.24
461.361	4.27
461.717	4.17
462.073	4.35
462.429	4.41
462.785	4.56
463.141	4.4
463.496	4.58
463.852	4.48
464.208	4.52
464.564	4.47
464.919	4.15
465.275	4.44
465.631	4.64
465.986	4.38
466.342	4.13
466.697	4.54
467.052	4.55
467.408	4.52
467.763	4.49
468.118	4.25
468.473	4.48
468.829	4.34
469.184	4.67
469.539	4.29
469.894	4.59
470.249	4.44
470.603	4.65
470.958	4.62
471.313	4.53
471.668	4.59
472.023	4.6
472.377	4.4
472.732	4.59
473.086	4.37
473.441	4.48
473.795	4.69
474.15	4.38
474.504	4.46
474.859	4.25
475.213	4.63
475.567	4.34
475.921	4.55
476.275	4.57
476.63	4.51
476.984	4.32
477.338	4.67
477.692	4.55
478.045	4.54
478.399	4.46
478.753	4.38
479.107	4.53
479.461	4.42
479.814	4.36
480.168	4.47
480.521	4.6
480.875	4.62
481.228	4.45
481.582	4.51
481.935	4.59
482.289	4.51
482.642	4.59
482.995	4.31
483.348	4.37
483.701	4.46
484.055	4.37
484.408	4.36
484.761	4.28
485.114	4.15
485.466	4.09
485.819	4.12
486.172	4.21
486.525	4.26
486.878	4.37
487.23	4.32
487.583	4.36
487.936	4.31
488.288	4.33
488.641	4.3
488.993	4.22
489.345	4.21
489.698	4.22
490.05	4.25
490.402	4.31
490.754	4.33
491.107	4.36
491.459	4.42
491.811	4.36
492.163	4.46
492.515	4.33
492.866	4.25
493.218	4.24
493.57	4.3
493.922	4.34
494.274	4.5
494.625	4.53
494.977	4.57
495.328	4.55
495.68	4.48
496.031	4.47
496.383	4.5
496.734	4.46
497.086	4.53
497.437	4.49
497.788	4.55
498.139	4.41
498.49	4.55
498.842	4.59
499.193	4.36
499.544	4.48
499.894	4.51
500.245	4.55
500.596	4.62
500.947	4.52
501.298	4.52
501.648	4.57
501.999	4.56
502.35	4.5
502.7	4.65
503.051	4.59
503.401	4.52
503.752	4.53
504.102	4.48
504.452	4.45
504.803	4.45
505.153	4.6
505.503	4.59
505.853	4.61
506.203	4.51
506.553	4.51
506.903	4.61
507.253	4.5
507.603	4.56
507.953	4.49
508.303	4.52
508.652	4.48
509.002	4.64
509.352	4.47
509.701	4.38
510.051	4.64
510.4	4.56
510.75	4.51
511.099	4.46
511.449	4.53
511.798	4.44
512.147	4.52
512.496	4.54
512.846	4.49
513.195	4.51
513.544	4.54
513.893	4.51
514.242	4.46
514.591	4.48
514.939	4.56
515.288	4.66
515.637	4.54
515.986	4.61
516.334	4.49
516.683	4.62
517.032	4.56
517.38	4.5
517.729	4.54
518.077	4.52
518.426	4.58
518.774	4.46
519.122	4.51
519.47	4.5
519.819	4.52
520.167	4.47
520.515	4.44
520.863	4.49
521.211	4.43
521.559	4.42
521.907	4.57
522.255	4.53
522.602	4.64
522.95	4.63
523.298	4.62
523.645	4.59
523.993	4.56
524.341	4.56
524.688	4.47
525.036	4.48
525.383	4.47
525.73	4.54
526.078	4.58
526.425	4.52
526.772	4.46
527.119	4.54
527.466	4.51
527.814	4.51
528.161	4.51
528.508	4.57
528.854	4.45
529.201	4.43
529.548	4.35
529.895	4.26
530.242	4.25
530.588	4.26
530.935	4.31
531.282	4.34
531.628	4.42
531.975	4.43
532.321	4.54
532.667	4.5
533.014	4.54
533.36	4.59
533.706	4.5
534.052	4.47
534.399	4.41
534.745	4.35
535.091	4.33
535.437	4.41
535.783	4.45
536.129	4.52
536.474	4.55
536.82	4.58
537.166	4.42
537.512	4.45
537.857	4.51
538.203	4.55
538.549	4.45
538.894	4.42
539.239	4.57
539.585	4.64
539.93	4.56
540.276	4.49
540.621	4.56
540.966	4.59
541.311	4.54
541.656	4.55
542.001	4.53
542.346	4.46
542.691	4.32
543.036	4.3
543.381	4.39
543.726	4.47
544.071	4.49
544.415	4.5
544.76	4.48
545.105	4.45
545.449	4.54
545.794	4.61
546.138	4.56
546.483	4.57
546.827	4.6
547.171	4.6
547.516	4.58
547.86	4.59
548.204	4.58
548.548	4.52
548.892	4.63
549.236	4.59
549.58	4.58
549.924	4.73
550.268	4.79
550.612	4.8
550.956	4.84
551.3	4.95
551.643	4.59
551.987	4.84
552.33	4.88
552.674	4.62
553.017	4.83
553.361	4.77
553.704	4.7
554.048	4.63
554.391	4.77
554.734	4.68
555.077	4.63
555.42	4.6
555.764	4.65
556.107	4.71
556.45	4.76
556.793	4.79
557.135	4.72
557.478	4.68
557.821	4.73
558.164	4.73
558.507	4.77
558.849	4.85
559.192	4.69
559.534	4.77
559.877	4.94
560.219	4.72
560.562	4.76
560.904	4.86
561.246	4.69
561.589	4.93
561.931	4.84
562.273	4.83
562.615	4.84
562.957	4.58
563.299	4.68
563.641	4.8
563.983	4.72
564.325	4.92
564.667	4.82
565.008	4.53
565.35	4.57
565.692	4.79
566.033	4.74
566.375	4.73
566.716	4.74
567.058	4.66
567.399	4.67
567.741	4.75
568.082	4.66
568.423	4.67
568.764	4.77
569.105	4.68
569.447	4.59
569.788	4.73
570.129	4.63
570.47	4.81
570.811	4.76
571.151	4.71
571.492	4.74
571.833	4.68
572.174	4.84
572.514	4.95
572.855	4.79
573.195	4.6
573.536	4.76
573.876	4.7
574.217	4.66
574.557	4.64
574.898	4.64
575.238	4.78
575.578	4.81
575.918	4.81
576.258	4.77
576.598	4.58
576.938	4.68
577.278	4.64
577.618	4.71
577.958	4.75
578.298	4.71
578.638	4.74
578.977	4.79
579.317	4.79
579.657	5.06
579.996	4.83
580.336	4.82
580.675	4.68
581.014	4.91
581.354	4.87
581.693	4.88
582.032	5.14
582.372	5
582.711	5.08
583.05	4.95
583.389	4.98
583.728	5.03
584.067	4.97
584.406	4.65
584.745	4.85
585.083	4.87
585.422	5.02
585.761	5.05
586.1	5.03
586.438	4.72
586.777	4.96
587.115	4.89
587.454	4.71
587.792	4.82
588.13	4.85
588.469	4.81
588.807	4.99
589.145	4.82
589.483	4.77
589.821	4.83
590.159	5.01
590.497	4.82
590.835	5
591.173	4.97
591.511	4.92
591.849	5
592.187	4.77
592.524	4.94
592.862	4.8
593.2	4.89
593.537	4.67
593.875	4.71
594.212	4.84
594.55	4.93
594.887	4.77
595.224	4.98
595.561	4.74
595.899	4.73
596.236	5.06
596.573	4.7
596.91	4.79
597.247	5.1
597.584	4.89
597.921	4.74
598.258	4.91
598.594	4.77
598.931	4.73
599.268	4.68
599.604	4.78
599.941	4.82
600.277	4.87
600.614	4.8
600.95	4.8
601.287	4.63
601.623	4.75
601.959	5
602.296	4.93
602.632	4.93
602.968	4.69
603.304	4.96
603.64	5.02
603.976	4.75
604.312	4.78
604.648	5
604.984	4.95
605.319	4.82
605.655	4.78
605.991	4.8
606.326	4.91
606.662	4.51
606.998	4.98
607.333	4.76
607.668	4.83
608.004	4.74
608.339	4.66
608.674	4.7
609.01	5.08
609.345	4.92
609.68	4.74
610.015	5
610.35	4.84
610.685	4.53
611.02	4.71
611.355	4.77
611.689	4.7
612.024	4.71
612.359	4.57
612.694	4.83
613.028	4.58
613.363	5
613.697	4.94
614.032	4.84
614.366	4.8
614.7	5
615.035	4.9
615.369	4.84
615.703	5.15
616.037	4.89
616.371	4.68
616.705	4.88
617.039	4.88
617.373	5.03
617.707	4.98
618.041	4.92
618.375	4.46
618.709	5.05
619.042	4.64
619.376	5.03
619.71	4.77
620.043	5.39
620.377	4.98
620.71	4.8
621.043	5
621.377	4.96
621.71	5.34
622.043	5.09
622.376	4.84
622.709	5.35
623.043	5.07
623.376	4.72
623.709	5.39
624.041	4.89
624.374	5.01
624.707	4.69
625.04	5.06
625.373	5.15
625.705	5.4
626.038	5.12
626.37	4.57
626.703	4.9
627.035	5.03
627.368	4.88
627.7	4.9
628.032	4.79
628.365	5.16
628.697	4.89
629.029	4.97
629.361	5
629.693	4.68
630.025	4.6
630.357	4.91
630.689	4.89
631.021	5.22
631.353	4.92
631.684	5.04
632.016	4.62
632.348	4.72
632.679	5.11
633.011	4.76
633.342	5.02
633.674	4.89
634.005	5.19
634.336	5.03
634.668	4.88
634.999	4.77
635.33	5.02
635.661	4.89
635.992	4.92
636.323	4.81
636.654	5.02
636.985	4.8
637.316	4.99
637.647	5.11
637.977	4.67
638.308	5.32
638.639	5.05
638.969	4.85
639.3	4.85
639.63	4.88
639.961	4.74
640.291	4.97
640.622	5.22
640.952	4.97
641.282	4.57
641.612	4.82
641.943	4.77
642.273	4.67
642.603	5.36
642.933	5.5
643.263	4.95
643.592	5.42
643.922	5.35
644.252	5.13
644.582	5.09
644.911	4.96
645.241	4.99
645.571	5.2
645.9	5.05
646.23	5.2
646.559	4.87
646.888	5.15
647.218	5.12
647.547	4.99
647.876	5.19
648.205	4.46
648.534	5.01
648.863	4.87
649.192	5.17
649.521	5.38
649.85	5.23
650.179	4.93
650.508	4.95
650.837	5.39
651.165	4.74
651.494	5.13
651.822	5.17
652.151	4.74
652.479	4.96
652.808	4.95
653.136	4.61
653.465	4.88
653.793	4.81
654.121	4.7
654.449	4.67
654.777	4.74
655.105	4.47
655.433	5.15
655.761	4.84
656.089	4.9
656.417	5.63
656.745	5.58
657.073	4.87
657.4	4.61
657.728	4.46
658.056	4.95
658.383	5.18
658.711	4.97
659.038	5.64
659.365	5.22
659.693	5.2
660.02	4.82
660.347	4.87
660.674	4.69
661.001	5.05
661.329	4.75
661.656	4.66
661.982	4.73
662.309	5.12
662.636	4.68
662.963	4.85
663.29	5.09
663.616	4.4
663.943	5.09
664.27	5.23
664.596	4.86
664.923	5.24
665.249	5.4
665.576	5.1
665.902	4.63
666.228	5.55
666.554	5.07
666.881	5.04
667.207	4.77
667.533	4.49
667.859	5.09
668.185	5.08
668.511	5.37
668.837	4.85
669.162	5.05
669.488	4.73
669.814	5.04
670.139	4.73
670.465	5.3
670.791	4.54
671.116	4.57
671.442	4.13
671.767	5.22
672.092	4.94
672.418	4.96
672.743	5
673.068	4.51
673.393	5.34
673.718	4.71
674.043	4.59
674.368	4.79
674.693	5.09
675.018	5.36
675.343	5.04
675.667	4.7
675.992	5.2
676.317	4.21
676.641	5.33
676.966	5.17
677.29	4.84
677.615	4.63
677.939	5.56
678.264	4.49
678.588	4.93
678.912	5.06
679.236	5.05
679.56	4.86
679.885	5.07
680.209	5.15
680.532	4.97
680.856	4.79
681.18	5.59
681.504	4.7
681.828	4.51
682.152	4.72
682.475	5.55
682.799	4.65
683.122	5.07
683.446	4.91
683.769	5.51
684.093	4.83
684.416	4.55
684.739	4.83
685.062	4.8
685.386	5.23
685.709	5.39
686.032	4.98
686.355	5.03
686.678	5.06
687.001	5.26
687.324	4.92
687.646	5.1
687.969	5.35
688.292	4.87
688.614	4.89
688.937	4.98
689.26	5.82
689.582	4.96
689.904	5.49
690.227	5.6
690.549	5.15
690.871	5.01
691.194	4.14
691.516	4.95
691.838	5.16
692.16	4.92
692.482	4.77
692.804	5.08
693.126	4.94
