Data from 21-9_crown_Reflection__4__39.txt Node

Date: Thu Dec 15 16:45:08 CST 2022
User: ToomeyLab
Spectrometer: FLMS14357
Trigger mode: 0
Integration Time (sec): 1.000000E-2
Scans to average: 100
Electric dark correction enabled: true
Nonlinearity correction enabled: false
Boxcar width: 0
XAxis mode: Wavelengths
Number of Pixels in Spectrum: 2048
>>>>>Begin Spectral Data<<<<<
189.047	1.99
189.435	1.99
189.823	1.99
190.211	-11.29
190.599	181.45
190.987	105.47
191.375	110.82
191.763	171.77
192.151	132.09
192.538	64.73
192.926	259.69
193.314	51.41
193.702	163.51
194.089	34.2
194.477	-1882
194.864	114.69
195.252	357.64
195.639	101.67
196.027	85.4
196.414	296.61
196.801	-265.95
197.189	90.77
197.576	15.99
197.963	41.33
198.351	3.79
198.738	22.12
199.125	-60.53
199.512	36.33
199.899	-33.44
200.286	-46.88
200.673	41.23
201.06	37.16
201.447	19.88
201.833	-22.88
202.22	20.99
202.607	5.63
202.994	-3.2
203.38	60.14
203.767	25.71
204.154	20.43
204.54	46.28
204.927	20.45
205.313	22.35
205.699	35.25
206.086	17.86
206.472	29.03
206.858	17.57
207.245	-8.29
207.631	20.11
208.017	39.95
208.403	-13.7
208.789	22.04
209.175	26.79
209.561	-24.84
209.947	17.51
210.333	-5
210.719	42.83
211.105	27.77
211.491	32.01
211.876	-2.73
212.262	28.04
212.648	34.89
213.034	12.88
213.419	16.99
213.805	7.88
214.19	-22.51
214.576	1.11
214.961	24.73
215.346	11.97
215.732	7.75
216.117	17.87
216.502	-4
216.888	29.2
217.273	13.28
217.658	6.74
218.043	-6.95
218.428	14.29
218.813	17.46
219.198	-12.24
219.583	-4.1
219.968	25.93
220.353	-10.03
220.738	7.92
221.122	12.61
221.507	-1.59
221.892	-13.83
222.276	-2.19
222.661	-1.16
223.046	5.61
223.43	25.05
223.815	2.81
224.199	10.55
224.583	4.51
224.968	7.89
225.352	-0.36
225.736	14.05
226.121	15.85
226.505	-0.49
226.889	9.2
227.273	3.86
227.657	11.53
228.041	6.34
228.425	6.1
228.809	4.52
229.193	9.26
229.577	7
229.961	6.74
230.344	7.26
230.728	8.34
231.112	8.16
231.495	7.95
231.879	6.95
232.263	7.54
232.646	6.78
233.03	8.77
233.413	7.02
233.797	5.83
234.18	8.59
234.563	9.02
234.946	6.54
235.33	6.03
235.713	9.07
236.096	8.34
236.479	7.75
236.862	7.22
237.245	6.85
237.628	8.42
238.011	7.08
238.394	5.15
238.777	8.01
239.16	7.87
239.543	8.99
239.925	6.15
240.308	7.75
240.691	7.52
241.073	6.63
241.456	8.08
241.838	7.51
242.221	7.07
242.603	7.38
242.986	7.29
243.368	6.92
243.75	7.45
244.133	7.35
244.515	7
244.897	7.67
245.279	6.9
245.661	7.21
246.043	7.06
246.425	7.54
246.807	6.89
247.189	6.21
247.571	6.87
247.953	6.58
248.335	6.88
248.717	6.89
249.098	6.92
249.48	6.98
249.862	7.21
250.243	7.31
250.625	7.22
251.006	7.32
251.388	7.08
251.769	6.81
252.151	7.95
252.532	6.57
252.913	7.54
253.295	6.75
253.676	6.83
254.057	6.73
254.438	6.69
254.819	5.23
255.2	6.2
255.581	7.61
255.962	7.36
256.343	7.56
256.724	6.94
257.105	6.36
257.486	5.9
257.867	6.69
258.247	6.7
258.628	6.39
259.009	6.4
259.389	6.44
259.77	6.36
260.15	7.29
260.531	6.37
260.911	6.29
261.292	6.54
261.672	6.5
262.052	6.37
262.432	6.46
262.813	6.13
263.193	6.57
263.573	6.76
263.953	6.43
264.333	6.45
264.713	6.05
265.093	5.87
265.473	5.56
265.853	6.48
266.233	6.3
266.612	5.93
266.992	5.87
267.372	6.51
267.752	6.91
268.131	5.99
268.511	6.53
268.89	6.62
269.27	5.65
269.649	6.03
270.029	6.27
270.408	6.2
270.787	6.1
271.167	6.21
271.546	7.31
271.925	6.36
272.304	5.97
272.683	5.63
273.062	6.12
273.441	5.61
273.82	5.91
274.199	6.02
274.578	5.97
274.957	6.29
275.336	6.25
275.715	6.21
276.093	6.01
276.472	5.69
276.851	5.89
277.229	5.66
277.608	5.12
277.986	5.85
278.365	6.27
278.743	5.8
279.122	5.99
279.5	5.74
279.878	5.63
280.257	5.99
280.635	5.87
281.013	5.66
281.391	5.71
281.769	6.36
282.147	6.02
282.525	5.25
282.903	5.35
283.281	6.14
283.659	6.2
284.037	5.59
284.415	5.61
284.792	6.03
285.17	5.85
285.548	5.25
285.925	5.41
286.303	6.04
286.68	5.73
287.058	5.79
287.435	5.62
287.813	5.76
288.19	5.46
288.567	5.61
288.945	5.15
289.322	5.84
289.699	5.54
290.076	5.61
290.453	5.24
290.83	6.05
291.207	5.45
291.584	5.77
291.961	5.4
292.338	5.29
292.715	5.39
293.092	6.03
293.469	5.42
293.845	5.61
294.222	6.17
294.599	5.24
294.975	5.19
295.352	5.3
295.728	5.28
296.105	5.32
296.481	5.35
296.858	5.56
297.234	4.82
297.61	5.33
297.986	5.76
298.363	5.45
298.739	5.58
299.115	5.49
299.491	5.53
299.867	5.34
300.243	4.99
300.619	4.98
300.995	5.34
301.371	4.82
301.746	5.58
302.122	4.9
302.498	4.97
302.874	5.55
303.249	4.97
303.625	5.14
304	5.47
304.376	5.6
304.751	5.11
305.127	5.31
305.502	5.26
305.878	5.51
306.253	5.03
306.628	5.28
307.003	4.82
307.378	5.15
307.754	5.07
308.129	4.73
308.504	5.53
308.879	5.16
309.254	5.2
309.629	5.15
310.003	4.96
310.378	5.34
310.753	4.98
311.128	4.73
311.502	5.19
311.877	4.95
312.252	4.98
312.626	5.14
313.001	4.84
313.375	5.22
313.75	5.15
314.124	4.86
314.498	5.21
314.873	4.83
315.247	5.11
315.621	4.9
315.995	5.18
316.369	4.44
316.743	5.12
317.117	4.51
317.491	5.12
317.865	4.52
318.239	5.35
318.613	4.64
318.987	4.75
319.361	5.3
319.734	5.52
320.108	5.23
320.482	5.26
320.855	5.22
321.229	4.96
321.602	5.22
321.976	4.3
322.349	5.42
322.723	4.45
323.096	5.02
323.469	4.87
323.843	5.17
324.216	5.42
324.589	5.25
324.962	4.69
325.335	4.36
325.708	4.92
326.081	5.35
326.454	5.35
326.827	4.67
327.2	4.78
327.573	5.12
327.945	4.44
328.318	4.71
328.691	4.93
329.063	4.87
329.436	4.29
329.809	4.98
330.181	4.85
330.553	5.1
330.926	5.18
331.298	4.6
331.671	4.72
332.043	5.06
332.415	4.93
332.787	5.12
333.159	4.68
333.532	4.78
333.904	4.72
334.276	4.99
334.648	5.11
335.02	4.88
335.391	5.09
335.763	4.22
336.135	4.83
336.507	4.74
336.879	4.89
337.25	5.2
337.622	5.28
337.993	4.82
338.365	4.77
338.736	4.93
339.108	4.92
339.479	4.98
339.851	4.8
340.222	5.36
340.593	4.75
340.964	5.02
341.336	5.04
341.707	5.04
342.078	4.75
342.449	4.87
342.82	4.86
343.191	4.79
343.562	5.13
343.933	4.47
344.303	4.62
344.674	4.81
345.045	4.98
345.416	5.12
345.786	4.87
346.157	4.94
346.527	5.07
346.898	4.83
347.268	4.82
347.639	4.92
348.009	5.1
348.38	4.44
348.75	4.97
349.12	5.1
349.49	4.74
349.861	4.8
350.231	4.52
350.601	4.96
350.971	4.72
351.341	4.96
351.711	5.03
352.081	4.52
352.45	4.68
352.82	4.44
353.19	4.71
353.56	4.84
353.929	5.08
354.299	4.99
354.669	5.14
355.038	5.19
355.408	4.91
355.777	5.06
356.147	5.03
356.516	4.6
356.885	5.02
357.254	4.72
357.624	4.64
357.993	5.27
358.362	5.26
358.731	4.87
359.1	4.91
359.469	4.96
359.838	5.11
360.207	4.9
360.576	5.24
360.945	5.16
361.314	4.93
361.682	4.7
362.051	4.89
362.42	4.96
362.788	5.13
363.157	4.73
363.525	5.03
363.894	5.05
364.262	4.87
364.631	5.13
364.999	4.99
365.367	5.03
365.735	5.18
366.104	4.92
366.472	4.9
366.84	5.26
367.208	5.27
367.576	5.13
367.944	5.07
368.312	5.3
368.68	5.16
369.048	5.07
369.416	4.83
369.783	5.04
370.151	5.15
370.519	5.56
370.886	5.28
371.254	5.38
371.621	5.29
371.989	5.24
372.356	5.45
372.724	5.41
373.091	5.15
373.458	4.97
373.826	5.48
374.193	5.22
374.56	5.53
374.927	4.96
375.294	5.62
375.661	5.32
376.028	5.2
376.395	5.33
376.762	5.02
377.129	5.2
377.496	5.18
377.863	5.2
378.229	5.43
378.596	5.44
378.963	5.47
379.329	5.29
379.696	5.23
380.062	5.47
380.429	5.09
380.795	5.63
381.161	4.91
381.528	5.03
381.894	5.15
382.26	5.38
382.626	5.32
382.993	5.72
383.359	5.23
383.725	5.07
384.091	5.75
384.457	5.23
384.823	5.71
385.188	5.47
385.554	5.27
385.92	5.43
386.286	5.36
386.651	5.55
387.017	5.65
387.383	5.3
387.748	5.56
388.114	5.64
388.479	5.43
388.845	5.42
389.21	5.71
389.575	5.71
389.94	6.03
390.306	5.57
390.671	5.69
391.036	5.56
391.401	5.62
391.766	5.32
392.131	5.9
392.496	5.89
392.861	5.52
393.226	5.53
393.591	5.49
393.956	5.66
394.32	5.94
394.685	5.54
395.05	5.63
395.414	5.67
395.779	5.63
396.143	5.53
396.508	5.48
396.872	5.5
397.236	5.91
397.601	5.68
397.965	5.52
398.329	5.71
398.694	5.62
399.058	5.83
399.422	5.59
399.786	5.58
400.15	5.65
400.514	5.63
400.878	5.6
401.242	5.73
401.605	5.69
401.969	5.68
402.333	5.66
402.697	6.13
403.06	5.64
403.424	5.76
403.787	5.76
404.151	5.87
404.514	6.11
404.878	5.61
405.241	5.72
405.604	5.65
405.968	5.7
406.331	5.84
406.694	5.9
407.057	5.78
407.42	5.79
407.783	5.93
408.146	5.82
408.509	5.88
408.872	5.84
409.235	5.99
409.598	5.78
409.961	5.91
410.323	5.81
410.686	6.01
411.049	6.01
411.411	5.8
411.774	5.73
412.136	5.82
412.499	5.96
412.861	5.57
413.223	5.64
413.586	6.06
413.948	5.93
414.31	6.04
414.672	5.86
415.035	6.1
415.397	5.95
415.759	5.69
416.121	6.02
416.483	5.99
416.845	5.93
417.206	5.82
417.568	5.9
417.93	5.96
418.292	5.79
418.653	5.72
419.015	5.92
419.377	5.73
419.738	5.9
420.1	5.93
420.461	5.85
420.822	5.89
421.184	5.82
421.545	5.89
421.906	5.89
422.267	5.8
422.629	5.85
422.99	5.83
423.351	5.9
423.712	5.92
424.073	5.94
424.434	5.97
424.795	5.76
425.155	5.84
425.516	5.84
425.877	5.83
426.238	5.86
426.598	5.92
426.959	5.9
427.32	5.83
427.68	5.89
428.041	6.06
428.401	5.79
428.761	6.04
429.122	5.95
429.482	5.94
429.842	5.93
430.202	6.18
430.563	6.23
430.923	6.08
431.283	6.15
431.643	6.19
432.003	6.17
432.363	6.3
432.722	6.07
433.082	6.05
433.442	6.42
433.802	6.08
434.161	6.08
434.521	6.01
434.881	6.13
435.24	6.04
435.6	6.1
435.959	6.13
436.319	6.05
436.678	6.23
437.037	6.08
437.396	6.13
437.756	5.98
438.115	6.06
438.474	6.29
438.833	6.15
439.192	6.16
439.551	6.03
439.91	6.18
440.269	6.15
440.628	6.08
440.987	6.1
441.345	5.95
441.704	6.09
442.063	5.99
442.421	6.07
442.78	6.19
443.138	6.17
443.497	6.08
443.855	6.18
444.214	5.94
444.572	6.32
444.93	6.22
445.288	6.19
445.647	5.98
446.005	6.16
446.363	6.22
446.721	6.09
447.079	5.95
447.437	6.15
447.795	6.1
448.153	6.16
448.51	6.11
448.868	6.13
449.226	6.18
449.584	6.17
449.941	6.19
450.299	6.14
450.656	6.25
451.014	6.22
451.371	6.32
451.729	6.19
452.086	6.21
452.443	6.39
452.801	6.2
453.158	6.42
453.515	6.19
453.872	6.19
454.229	6.07
454.586	6.11
454.943	6.2
455.3	6.34
455.657	6.25
456.014	6.34
456.371	6.31
456.727	6.5
457.084	6.34
457.441	6.38
457.797	6.43
458.154	6.34
458.51	6.3
458.867	6.16
459.223	6.27
459.58	6.3
459.936	6.29
460.292	6.19
460.648	6.15
461.005	6.15
461.361	6.18
461.717	6.19
462.073	6.25
462.429	6.2
462.785	6.33
463.141	6.18
463.496	6.43
463.852	6.29
464.208	6.48
464.564	6.29
464.919	6.26
465.275	6.24
465.631	6.38
465.986	6.31
466.342	6.15
466.697	6.2
467.052	6.35
467.408	6.46
467.763	6.31
468.118	6.05
468.473	6.26
468.829	6.24
469.184	6.48
469.539	6.23
469.894	6.55
470.249	6.42
470.603	6.49
470.958	6.39
471.313	6.42
471.668	6.24
472.023	6.4
472.377	6.18
472.732	6.45
473.086	6.39
473.441	6.33
473.795	6.47
474.15	6.3
474.504	6.26
474.859	6.28
475.213	6.33
475.567	6.32
475.921	6.38
476.275	6.46
476.63	6.48
476.984	6.32
477.338	6.32
477.692	6.38
478.045	6.35
478.399	6.4
478.753	6.32
479.107	6.4
479.461	6.3
479.814	6.28
480.168	6.26
480.521	6.44
480.875	6.33
481.228	6.29
481.582	6.4
481.935	6.4
482.289	6.35
482.642	6.36
482.995	6.3
483.348	6.25
483.701	6.29
484.055	6.24
484.408	6.16
484.761	6.08
485.114	5.93
485.466	5.98
485.819	5.99
486.172	5.99
486.525	5.98
486.878	6.13
487.23	6.08
487.583	6.19
487.936	6.14
488.288	6.16
488.641	6.11
488.993	6.04
489.345	6.04
489.698	6.06
490.05	6.03
490.402	6.07
490.754	6.08
491.107	6.15
491.459	6.23
491.811	6.23
492.163	6.16
492.515	6.07
492.866	6.07
493.218	6.09
493.57	6.12
493.922	6.11
494.274	6.2
494.625	6.25
494.977	6.24
495.328	6.25
495.68	6.34
496.031	6.39
496.383	6.26
496.734	6.19
497.086	6.46
497.437	6.37
497.788	6.42
498.139	6.29
498.49	6.29
498.842	6.43
499.193	6.24
499.544	6.41
499.894	6.32
500.245	6.38
500.596	6.31
500.947	6.32
501.298	6.34
501.648	6.27
501.999	6.46
502.35	6.25
502.7	6.49
503.051	6.36
503.401	6.39
503.752	6.26
504.102	6.31
504.452	6.25
504.803	6.42
505.153	6.47
505.503	6.41
505.853	6.42
506.203	6.38
506.553	6.28
506.903	6.44
507.253	6.33
507.603	6.43
507.953	6.33
508.303	6.38
508.652	6.28
509.002	6.38
509.352	6.3
509.701	6.22
510.051	6.41
510.4	6.42
510.75	6.3
511.099	6.19
511.449	6.36
511.798	6.19
512.147	6.33
512.496	6.24
512.846	6.28
513.195	6.33
513.544	6.33
513.893	6.33
514.242	6.26
514.591	6.36
514.939	6.39
515.288	6.41
515.637	6.33
515.986	6.34
516.334	6.37
516.683	6.34
517.032	6.22
517.38	6.34
517.729	6.16
518.077	6.26
518.426	6.39
518.774	6.26
519.122	6.36
519.47	6.25
519.819	6.27
520.167	6.24
520.515	6.31
520.863	6.24
521.211	6.21
521.559	6.21
521.907	6.29
522.255	6.2
522.602	6.39
522.95	6.41
523.298	6.33
523.645	6.35
523.993	6.3
524.341	6.26
524.688	6.3
525.036	6.34
525.383	6.42
525.73	6.19
526.078	6.4
526.425	6.38
526.772	6.17
527.119	6.3
527.466	6.25
527.814	6.18
528.161	6.23
528.508	6.24
528.854	6.21
529.201	6.17
529.548	6.16
529.895	6.06
530.242	6.03
530.588	6.04
530.935	6.08
531.282	6
531.628	6
531.975	6.09
532.321	6.2
532.667	6.19
533.014	6.15
533.36	6.22
533.706	6.21
534.052	6.17
534.399	6.2
534.745	6.11
535.091	6.11
535.437	6.13
535.783	6.1
536.129	6.09
536.474	6.27
536.82	6.33
537.166	6.2
537.512	6.3
537.857	6.19
538.203	6.25
538.549	6.16
538.894	6.23
539.239	6.31
539.585	6.34
539.93	6.35
540.276	6.3
540.621	6.28
540.966	6.3
541.311	6.25
541.656	6.21
542.001	6.23
542.346	6.11
542.691	6.09
543.036	6.07
543.381	6.14
543.726	6.18
544.071	6.13
544.415	6.16
544.76	6.19
545.105	6.25
545.449	6.23
545.794	6.22
546.138	6.24
546.483	6.27
546.827	6.27
547.171	6.19
547.516	6.29
547.86	6.32
548.204	6.27
548.548	6.3
548.892	6.34
549.236	6.28
549.58	6.27
549.924	6.37
550.268	6.38
550.612	6.49
550.956	6.54
551.3	6.58
551.643	6.42
551.987	6.48
552.33	6.54
552.674	6.44
553.017	6.56
553.361	6.42
553.704	6.44
554.048	6.39
554.391	6.49
554.734	6.25
555.077	6.31
555.42	6.26
555.764	6.32
556.107	6.45
556.45	6.45
556.793	6.36
557.135	6.54
557.478	6.6
557.821	6.45
558.164	6.46
558.507	6.21
558.849	6.49
559.192	6.44
559.534	6.33
559.877	6.18
560.219	6.52
560.562	6.39
560.904	6.39
561.246	6.38
561.589	6.67
561.931	6.41
562.273	6.4
562.615	6.41
562.957	6.34
563.299	6.43
563.641	6.47
563.983	6.27
564.325	6.58
564.667	6.31
565.008	6.22
565.35	6.2
565.692	6.34
566.033	6.42
566.375	6.43
566.716	6.33
567.058	6.31
567.399	6.43
567.741	6.4
568.082	6.46
568.423	6.25
568.764	6.37
569.105	6.34
569.447	6.2
569.788	6.39
570.129	6.46
570.47	6.23
570.811	6.25
571.151	6.37
571.492	6.36
571.833	6.36
572.174	6.55
572.514	6.39
572.855	6.51
573.195	6.35
573.536	6.32
573.876	6.34
574.217	6.34
574.557	6.31
574.898	6.2
575.238	6.46
575.578	6.41
575.918	6.45
576.258	6.49
576.598	6.39
576.938	6.26
577.278	6.17
577.618	6.41
577.958	6.4
578.298	6.35
578.638	6.23
578.977	6.51
579.317	6.26
579.657	6.4
579.996	6.47
580.336	6.49
580.675	6.32
581.014	6.34
581.354	6.17
581.693	6.52
582.032	6.65
582.372	6.58
582.711	6.46
583.05	6.66
583.389	6.34
583.728	6.51
584.067	6.56
584.406	6.53
584.745	6.34
585.083	6.31
585.422	6.77
585.761	6.56
586.1	6.43
586.438	6.29
586.777	6.45
587.115	6.61
587.454	6.11
587.792	6.35
588.13	6.46
588.469	6.25
588.807	6.68
589.145	6.48
589.483	6.3
589.821	6.44
590.159	6.31
590.497	6.62
590.835	6.59
591.173	6.53
591.511	6.57
591.849	6.41
592.187	6.42
592.524	6.34
592.862	6.27
593.2	6.42
593.537	6.44
593.875	6.35
594.212	6.39
594.55	6.53
594.887	6.47
595.224	6.68
595.561	6.39
595.899	6.31
596.236	6.32
596.573	6.46
596.91	6.36
597.247	6.42
597.584	6.41
597.921	6.39
598.258	6.52
598.594	6.3
598.931	6.16
599.268	6.18
599.604	6.3
599.941	6.35
600.277	6.42
600.614	6.38
600.95	6.32
601.287	6.24
601.623	6.23
601.959	6.45
602.296	6.45
602.632	6.24
602.968	6.33
603.304	6.54
603.64	6.32
603.976	6.21
604.312	6.29
604.648	6.4
604.984	6.41
605.319	6.28
605.655	6.4
605.991	6.22
606.326	6.3
606.662	6.27
606.998	6.39
607.333	6.16
607.668	6.06
608.004	6.23
608.339	6.41
608.674	6.45
609.01	6.38
609.345	6.27
609.68	6.27
610.015	6.33
610.35	6.3
610.685	6.04
611.02	6.23
611.355	6.16
611.689	6.23
612.024	6.35
612.359	6.39
612.694	6.03
613.028	6.05
613.363	6.5
613.697	6.3
614.032	6.21
614.366	6.3
614.7	6.39
615.035	6.34
615.369	6.28
615.703	6.27
616.037	6.66
616.371	6.21
616.705	6.31
617.039	6.44
617.373	6.57
617.707	6.26
618.041	6.07
618.375	5.88
618.709	6.48
619.042	6.26
619.376	6.04
619.71	6.29
620.043	6.33
620.377	6.29
620.71	6.3
621.043	6.58
621.377	6.28
621.71	6.44
622.043	6.58
622.376	6.45
622.709	6.82
623.043	6.21
623.376	6.1
623.709	6.48
624.041	6.23
624.374	6.44
624.707	6.41
625.04	6.37
625.373	6.32
625.705	6.28
626.038	6.46
626.37	6.15
626.703	6.44
627.035	6.51
627.368	6.68
627.7	6.5
628.032	6.36
628.365	6.38
628.697	6.49
629.029	6.21
629.361	6.39
629.693	6.37
630.025	6.39
630.357	6.53
630.689	6.36
631.021	6.44
631.353	6.52
631.684	6.28
632.016	6.26
632.348	6.29
632.679	6.3
633.011	6.34
633.342	6.37
633.674	6
634.005	6.31
634.336	6.53
634.668	6.27
634.999	6.33
635.33	6.42
635.661	6.14
635.992	6.42
636.323	6.15
636.654	6.27
636.985	6.21
637.316	6.33
637.647	6.37
637.977	5.98
638.308	6.56
638.639	6.18
638.969	6.3
639.3	6.53
639.63	6.44
639.961	6.09
640.291	6.42
640.622	6.24
640.952	6.29
641.282	6.11
641.612	6.06
641.943	6.16
642.273	6.12
642.603	6.66
642.933	5.84
643.263	6.68
643.592	6.56
643.922	6.51
644.252	6.28
644.582	6.12
644.911	6.14
645.241	6.11
645.571	6.45
645.9	6.59
646.23	6.61
646.559	6.3
646.888	6.89
647.218	6.32
647.547	6.57
647.876	6.39
648.205	6.15
648.534	6.53
648.863	6.38
649.192	6.44
649.521	6.03
649.85	6.44
650.179	6.48
650.508	5.96
650.837	6.12
651.165	6.07
651.494	6.59
651.822	6.37
652.151	5.84
652.479	6.65
652.808	6.15
653.136	6.09
653.465	5.71
653.793	6.31
654.121	6.58
654.449	6.06
654.777	6.1
655.105	5.89
655.433	6.48
655.761	6.37
656.089	6.41
656.417	6.29
656.745	6.37
657.073	6.29
657.4	6.39
657.728	5.59
658.056	6.25
658.383	6.23
658.711	6.23
659.038	6.15
659.365	6.06
659.693	6.3
660.02	6.22
660.347	6.12
660.674	6.12
661.001	6.2
661.329	5.94
661.656	5.6
661.982	5.86
662.309	6.09
662.636	5.97
662.963	6.03
663.29	6.55
663.616	5.97
663.943	6.33
664.27	6.18
664.596	6.07
664.923	6.3
665.249	6.2
665.576	5.76
665.902	6.09
666.228	6.45
666.554	6.48
666.881	5.95
667.207	6.25
667.533	5.75
667.859	6.2
668.185	6.24
668.511	6.47
668.837	6.25
669.162	6.15
669.488	5.96
669.814	6.02
670.139	6.14
670.465	6.91
670.791	5.63
671.116	5.92
671.442	5.95
671.767	6.2
672.092	5.99
672.418	6
672.743	6.21
673.068	6.31
673.393	6.2
673.718	5.28
674.043	5.9
674.368	6.23
674.693	6.69
675.018	6.38
675.343	6.48
675.667	6.71
675.992	6.72
676.317	5.52
676.641	6.04
676.966	6.35
677.29	5.76
677.615	6.12
677.939	6.23
678.264	6.39
678.588	6.69
678.912	5.78
679.236	6.1
679.56	6.18
679.885	6.67
680.209	6.5
680.532	6.33
680.856	6.15
681.18	6.7
681.504	5.64
681.828	5.39
682.152	6.02
682.475	6.17
682.799	5.61
683.122	6.2
683.446	5.42
683.769	6.23
684.093	6.63
684.416	6.38
684.739	6.4
685.062	5.92
685.386	6.33
685.709	6.49
686.032	6.45
686.355	6.68
686.678	6.74
687.001	6.16
687.324	5.85
687.646	6.09
687.969	5.75
688.292	5.64
688.614	6.28
688.937	6.9
689.26	6.35
689.582	5.92
689.904	6.35
690.227	6.36
690.549	5.97
690.871	6.14
691.194	5.97
691.516	6.57
691.838	6.08
692.16	5.97
692.482	5.35
692.804	6
