Data from 0013_forehead_Reflection__1__16.txt Node

Date: Mon Oct 17 14:31:31 CDT 2022
User: ToomeyLab
Spectrometer: FLMS14357
Trigger mode: 0
Integration Time (sec): 1.000000E-2
Scans to average: 100
Electric dark correction enabled: true
Nonlinearity correction enabled: false
Boxcar width: 0
XAxis mode: Wavelengths
Number of Pixels in Spectrum: 2048
>>>>>Begin Spectral Data<<<<<
189.047	-243.84
189.435	-243.84
189.823	-243.84
190.211	-41.59
190.599	-72.1
190.987	20.63
191.375	42.34
191.763	425.05
192.151	82.26
192.538	132.12
192.926	-82.62
193.314	103.2
193.702	357.16
194.089	-245.3
194.477	241.56
194.864	-0.08
195.252	-213.35
195.639	76.48
196.027	123.97
196.414	-80.5
196.801	133.85
197.189	88.81
197.576	343.59
197.963	-202.89
198.351	-268.14
198.738	14.32
199.125	-22.83
199.512	-77.29
199.899	3.73
200.286	32.28
200.673	-8.44
201.06	7.54
201.447	32.72
201.833	27.18
202.22	51.3
202.607	-39.98
202.994	-5.84
203.38	-6.35
203.767	10.69
204.154	16.42
204.54	-22.9
204.927	10.55
205.313	-3.89
205.699	27.08
206.086	22.67
206.472	11.48
206.858	-2.97
207.245	24.53
207.631	-9.07
208.017	30.45
208.403	7.39
208.789	9.78
209.175	-1.91
209.561	-10.44
209.947	4.95
210.333	34.66
210.719	20.14
211.105	15.34
211.491	0.46
211.876	5.48
212.262	33.57
212.648	3.17
213.034	-8.79
213.419	16.99
213.805	-9.93
214.19	35.17
214.576	18.71
214.961	1.61
215.346	6.01
215.732	5.63
216.117	20.23
216.502	21.94
216.888	15.36
217.273	9.84
217.658	29.34
218.043	2.51
218.428	17.76
218.813	8.01
219.198	-8.94
219.583	-19
219.968	5.77
220.353	8.16
220.738	6.03
221.122	-4.3
221.507	-2.92
221.892	2.51
222.276	-1.59
222.661	14.74
223.046	-0.03
223.43	3.45
223.815	-7.96
224.199	5.98
224.583	-1.49
224.968	-1.02
225.352	-14.68
225.736	0.27
226.121	-4.12
226.505	-1.74
226.889	4.54
227.273	1.99
227.657	3.67
228.041	5.5
228.425	1.92
228.809	1.13
229.193	2.53
229.577	2.46
229.961	3.06
230.344	0.32
230.728	1.17
231.112	0.86
231.495	1.31
231.879	2.3
232.263	1.74
232.646	2.6
233.03	0.91
233.413	-0.08
233.797	1.83
234.18	2.5
234.563	0.6
234.946	1.7
235.33	1.16
235.713	0.16
236.096	2.03
236.479	0.06
236.862	2.35
237.245	0.13
237.628	1.12
238.011	1.32
238.394	2.91
238.777	1.53
239.16	2.85
239.543	1.33
239.925	1.93
240.308	1.54
240.691	1.26
241.073	1.48
241.456	1.41
241.838	2.07
242.221	0.49
242.603	1.01
242.986	1.14
243.368	1.92
243.75	1.18
244.133	1.48
244.515	1.29
244.897	1.69
245.279	1.73
245.661	1.18
246.043	1.64
246.425	-0.17
246.807	0.18
247.189	1.57
247.571	1.48
247.953	1.16
248.335	1.44
248.717	1.56
249.098	1.44
249.48	1.55
249.862	1.29
250.243	1.3
250.625	1.88
251.006	1
251.388	1.22
251.769	1.58
252.151	0.98
252.532	0.89
252.913	1.79
253.295	0.71
253.676	1.52
254.057	1.8
254.438	1.53
254.819	2.05
255.2	2.63
255.581	1.24
255.962	0.63
256.343	0.48
256.724	1.25
257.105	1.95
257.486	1.4
257.867	1.26
258.247	1.82
258.628	1.69
259.009	1.58
259.389	1.21
259.77	1.63
260.15	1.33
260.531	1.04
260.911	1.45
261.292	1.43
261.672	1.24
262.052	1.34
262.432	1.37
262.813	1.1
263.193	1.42
263.573	1.93
263.953	1.56
264.333	1.54
264.713	1.06
265.093	0.92
265.473	1.71
265.853	1.49
266.233	2.9
266.612	1.8
266.992	2.37
267.372	1.52
267.752	1.34
268.131	1.65
268.511	1.4
268.89	1.62
269.27	1.39
269.649	1.56
270.029	1.01
270.408	1.56
270.787	1.07
271.167	1.08
271.546	1.46
271.925	1.41
272.304	1.49
272.683	1.7
273.062	1.1
273.441	1.21
273.82	1.28
274.199	1.71
274.578	1.7
274.957	1.39
275.336	1.73
275.715	1.52
276.093	1.39
276.472	1
276.851	1.99
277.229	1.43
277.608	1.27
277.986	1.25
278.365	1.17
278.743	1.72
279.122	0.82
279.5	1.91
279.878	1.8
280.257	1.28
280.635	1.51
281.013	1.86
281.391	1.1
281.769	1.25
282.147	1.82
282.525	1.3
282.903	0.62
283.281	1.21
283.659	1.79
284.037	1.12
284.415	1.67
284.792	1.1
285.17	0.81
285.548	1.08
285.925	1.4
286.303	1.45
286.68	1.51
287.058	1.83
287.435	1.71
287.813	1.16
288.19	1.44
288.567	1.22
288.945	1.18
289.322	2.07
289.699	1.9
290.076	1.4
290.453	1.25
290.83	1.56
291.207	1.72
291.584	1.35
291.961	1.59
292.338	1.55
292.715	1.6
293.092	1.51
293.469	1.31
293.845	1.44
294.222	1.78
294.599	1.67
294.975	1.31
295.352	1.19
295.728	1.72
296.105	1.4
296.481	1.78
296.858	2.02
297.234	1.21
297.61	1.17
297.986	1.66
298.363	1.58
298.739	1.94
299.115	1.64
299.491	1.88
299.867	1.72
300.243	2.08
300.619	1.4
300.995	1.71
301.371	1.91
301.746	1.35
302.122	1.96
302.498	2.25
302.874	2.24
303.249	2.03
303.625	2.23
304	1.86
304.376	2.03
304.751	2.39
305.127	2.42
305.502	1.85
305.878	2.07
306.253	1.92
306.628	2.27
307.003	1.99
307.378	1.98
307.754	2.19
308.129	1.85
308.504	2.36
308.879	2.23
309.254	2.12
309.629	1.99
310.003	2.29
310.378	2.66
310.753	2.12
311.128	2.29
311.502	2.22
311.877	2.2
312.252	2.34
312.626	2.06
313.001	2.35
313.375	2.01
313.75	2.34
314.124	2.65
314.498	2.25
314.873	2.34
315.247	2.24
315.621	2.97
315.995	2.48
316.369	2.54
316.743	2.51
317.117	2.69
317.491	2.23
317.865	2.89
318.239	3
318.613	2.61
318.987	2.53
319.361	2.4
319.734	3.06
320.108	3.34
320.482	3.18
320.855	2.95
321.229	2.76
321.602	3.02
321.976	2.87
322.349	2.96
322.723	2.55
323.096	2.96
323.469	2.77
323.843	2.62
324.216	3.33
324.589	2.7
324.962	3.08
325.335	2.89
325.708	3.55
326.081	2.88
326.454	3.34
326.827	2.95
327.2	2.86
327.573	3.01
327.945	2.47
328.318	3.09
328.691	3.15
329.063	3.56
329.436	3.17
329.809	3.06
330.181	4.14
330.553	2.88
330.926	3.55
331.298	3.29
331.671	3.82
332.043	3.74
332.415	3.67
332.787	3.56
333.159	3.79
333.532	3.32
333.904	3.5
334.276	3.21
334.648	3.1
335.02	3.52
335.391	3.8
335.763	3.5
336.135	3.48
336.507	4.09
336.879	4.04
337.25	3.7
337.622	3.4
337.993	4.03
338.365	3.68
338.736	3.82
339.108	3.96
339.479	4.33
339.851	4.35
340.222	3.89
340.593	3.79
340.964	3.95
341.336	4.08
341.707	4.35
342.078	4.04
342.449	4.6
342.82	3.78
343.191	4
343.562	4.18
343.933	4.16
344.303	3.83
344.674	4.44
345.045	4.27
345.416	4.21
345.786	4.48
346.157	4.25
346.527	4.21
346.898	4.29
347.268	4.37
347.639	3.98
348.009	4.26
348.38	4.5
348.75	4.26
349.12	4.28
349.49	4.38
349.861	4.92
350.231	4.53
350.601	4.6
350.971	4.55
351.341	4.27
351.711	4.31
352.081	4.75
352.45	5.11
352.82	4.93
353.19	4.59
353.56	4.56
353.929	4.76
354.299	4.79
354.669	4.84
355.038	5.13
355.408	4.78
355.777	4.43
356.147	4.88
356.516	4.78
356.885	5.03
357.254	5.18
357.624	5.14
357.993	5.29
358.362	4.72
358.731	4.81
359.1	4.71
359.469	4.87
359.838	5.13
360.207	5.21
360.576	4.95
360.945	5.31
361.314	5.36
361.682	5.4
362.051	5.33
362.42	5
362.788	5.26
363.157	5.28
363.525	5.21
363.894	5.44
364.262	5.51
364.631	5.38
364.999	5.57
365.367	5.34
365.735	5.71
366.104	5.47
366.472	5.31
366.84	5.7
367.208	5.62
367.576	5.72
367.944	5.58
368.312	5.57
368.68	5.85
369.048	5.81
369.416	5.9
369.783	5.7
370.151	5.95
370.519	6.18
370.886	6.18
371.254	6.12
371.621	5.69
371.989	6.3
372.356	5.81
372.724	6.17
373.091	5.89
373.458	5.82
373.826	6.5
374.193	6.39
374.56	6.12
374.927	6.28
375.294	6.24
375.661	6.26
376.028	6.21
376.395	6.37
376.762	6.34
377.129	6.34
377.496	6.23
377.863	6.24
378.229	6.34
378.596	6.31
378.963	6.51
379.329	6.24
379.696	6.49
380.062	6.76
380.429	6.19
380.795	7.03
381.161	6.8
381.528	6.56
381.894	6.57
382.26	6.98
382.626	6.88
382.993	6.9
383.359	6.93
383.725	7
384.091	6.93
384.457	6.96
384.823	7.04
385.188	6.77
385.554	6.83
385.92	6.93
386.286	7.02
386.651	7.21
387.017	7.04
387.383	7.41
387.748	7.04
388.114	7.04
388.479	7.47
388.845	7.62
389.21	7.25
389.575	7.38
389.94	7.45
390.306	7.46
390.671	7.68
391.036	7.64
391.401	7.83
391.766	7.53
392.131	7.93
392.496	7.6
392.861	7.59
393.226	7.55
393.591	7.62
393.956	7.57
394.32	7.9
394.685	7.85
395.05	7.85
395.414	7.96
395.779	7.9
396.143	7.93
396.508	8
396.872	8
397.236	8.07
397.601	8.17
397.965	8.11
398.329	8.33
398.694	8.28
399.058	8.22
399.422	8.37
399.786	8.22
400.15	8.31
400.514	8.31
400.878	8.2
401.242	8.41
401.605	8.64
401.969	8.48
402.333	8.54
402.697	8.55
403.06	8.42
403.424	8.63
403.787	8.67
404.151	8.61
404.514	8.76
404.878	8.55
405.241	8.83
405.604	8.69
405.968	8.73
406.331	8.61
406.694	8.84
407.057	8.82
407.42	8.7
407.783	8.99
408.146	9.06
408.509	9.2
408.872	9.02
409.235	9.03
409.598	9.08
409.961	9.1
410.323	8.84
410.686	9.32
411.049	9.06
411.411	9.33
411.774	9.14
412.136	9.19
412.499	9.62
412.861	9.25
413.223	9.45
413.586	9.25
413.948	9.41
414.31	9.58
414.672	9.58
415.035	9.71
415.397	10.03
415.759	9.58
416.121	9.6
416.483	9.94
416.845	9.69
417.206	9.6
417.568	9.81
417.93	9.82
418.292	9.78
418.653	9.71
419.015	9.78
419.377	9.74
419.738	9.67
420.1	9.8
420.461	9.65
420.822	9.85
421.184	9.76
421.545	9.83
421.906	9.78
422.267	9.91
422.629	9.75
422.99	9.76
423.351	9.87
423.712	9.98
424.073	10.06
424.434	10.12
424.795	10.3
425.155	10.18
425.516	10.11
425.877	9.99
426.238	10.03
426.598	10.06
426.959	10.21
427.32	10.47
427.68	10.56
428.041	10.36
428.401	10.76
428.761	10.85
429.122	10.99
429.482	10.87
429.842	10.85
430.202	11
430.563	10.86
430.923	10.91
431.283	11.18
431.643	10.89
432.003	11.11
432.363	11.14
432.722	11.22
433.082	11.13
433.442	11.22
433.802	11.21
434.161	10.9
434.521	11.2
434.881	11.13
435.24	10.91
435.6	11.25
435.959	11.3
436.319	11.38
436.678	11.4
437.037	11.61
437.396	11.42
437.756	11.78
438.115	11.37
438.474	11.65
438.833	11.43
439.192	11.41
439.551	11.44
439.91	11.73
440.269	11.53
440.628	11.48
440.987	11.56
441.345	11.41
441.704	11.62
442.063	11.45
442.421	11.66
442.78	11.57
443.138	11.82
443.497	11.93
443.855	12.13
444.214	12.09
444.572	12.19
444.93	12.19
445.288	12.12
445.647	12.06
446.005	12.31
446.363	12.12
446.721	11.9
447.079	12
447.437	11.98
447.795	11.81
448.153	11.93
448.51	11.92
448.868	12.12
449.226	12.21
449.584	12.41
449.941	12.49
450.299	12.63
450.656	12.5
451.014	12.6
451.371	12.84
451.729	12.85
452.086	12.98
452.443	13.06
452.801	13
453.158	13.05
453.515	13.01
453.872	12.76
454.229	12.78
454.586	12.94
454.943	12.89
455.3	13
455.657	12.98
456.014	13.07
456.371	13.16
456.727	13.12
457.084	13.13
457.441	13.16
457.797	13.27
458.154	13.46
458.51	13.32
458.867	13.46
459.223	13.41
459.58	13.66
459.936	13.38
460.292	13.53
460.648	13.22
461.005	13.28
461.361	13.18
461.717	13.08
462.073	13.08
462.429	13.45
462.785	13.73
463.141	13.78
463.496	13.68
463.852	13.85
464.208	14
464.564	13.98
464.919	13.98
465.275	14.06
465.631	14.09
465.986	14.27
466.342	14.18
466.697	14.31
467.052	14.13
467.408	14.2
467.763	14.07
468.118	14.39
468.473	14.28
468.829	14.23
469.184	14.23
469.539	14.12
469.894	14.16
470.249	14.33
470.603	14.5
470.958	14.56
471.313	14.44
471.668	14.73
472.023	14.4
472.377	14.8
472.732	14.49
473.086	14.89
473.441	14.79
473.795	14.91
474.15	14.81
474.504	14.78
474.859	14.9
475.213	14.85
475.567	15.03
475.921	15.11
476.275	15.12
476.63	15.26
476.984	15.21
477.338	15.34
477.692	15.37
478.045	15.24
478.399	15.22
478.753	15.35
479.107	15.33
479.461	15.17
479.814	15.26
480.168	15.22
480.521	15.42
480.875	15.41
481.228	15.5
481.582	15.52
481.935	15.57
482.289	15.38
482.642	15.67
482.995	15.57
483.348	15.47
483.701	15.42
484.055	15.45
484.408	15.41
484.761	15.26
485.114	14.84
485.466	14.52
485.819	14.53
486.172	14.76
486.525	15.06
486.878	15.41
487.23	15.65
487.583	15.82
487.936	15.76
488.288	15.58
488.641	15.4
488.993	15.24
489.345	15.22
489.698	15.31
490.05	15.39
490.402	15.53
490.754	15.82
491.107	16.05
491.459	16.21
491.811	16.45
492.163	16.4
492.515	16.41
492.866	15.93
493.218	15.67
493.57	15.66
493.922	15.86
494.274	16.21
494.625	16.45
494.977	16.74
495.328	16.82
495.68	17.07
496.031	17.13
496.383	17.08
496.734	17.15
497.086	16.97
497.437	17
497.788	17.22
498.139	16.86
498.49	16.78
498.842	16.91
499.193	16.94
499.544	17.04
499.894	17.1
500.245	17.17
500.596	17.12
500.947	17.42
501.298	17.63
501.648	17.52
501.999	17.5
502.35	17.63
502.7	17.74
503.051	17.65
503.401	17.76
503.752	17.81
504.102	17.86
504.452	17.76
504.803	18.02
505.153	17.85
505.503	17.9
505.853	17.95
506.203	17.92
506.553	18.01
506.903	18.08
507.253	18.11
507.603	18.09
507.953	18.24
508.303	18.19
508.652	18.26
509.002	18.32
509.352	18.21
509.701	18.15
510.051	18.19
510.4	18.06
510.75	18.15
511.099	18.2
511.449	18.32
511.798	18.44
512.147	18.48
512.496	18.48
512.846	18.61
513.195	18.57
513.544	18.6
513.893	18.59
514.242	18.72
514.591	18.7
514.939	18.7
515.288	18.94
515.637	19.09
515.986	19.07
516.334	19.13
516.683	19.14
517.032	19.29
517.38	19.28
517.729	19.31
518.077	19.48
518.426	19.29
518.774	19.37
519.122	19.19
519.47	19.2
519.819	19.02
520.167	19.02
520.515	18.85
520.863	19.1
521.211	19.21
521.559	19.39
521.907	19.54
522.255	19.58
522.602	19.68
522.95	19.79
523.298	19.94
523.645	19.94
523.993	19.98
524.341	20.05
524.688	19.99
525.036	20.01
525.383	20.02
525.73	20.13
526.078	20.08
526.425	20.07
526.772	19.99
527.119	19.71
527.466	19.63
527.814	19.78
528.161	19.87
528.508	20.16
528.854	20.19
529.201	20.11
529.548	19.94
529.895	19.44
530.242	19.25
530.588	19.19
530.935	19.48
531.282	19.79
531.628	20.01
531.975	20.21
532.321	20.44
532.667	20.51
533.014	20.75
533.36	20.79
533.706	20.58
534.052	20.64
534.399	20.5
534.745	20.14
535.091	20.03
535.437	20.15
535.783	20.42
536.129	20.7
536.474	21.05
536.82	21.25
537.166	21.42
537.512	21.3
537.857	21.21
538.203	20.84
538.549	20.76
538.894	21.02
539.239	21.2
539.585	21.3
539.93	21.66
540.276	21.77
540.621	21.78
540.966	22.08
541.311	22.04
541.656	22
542.001	21.72
542.346	21.65
542.691	21.17
543.036	20.72
543.381	20.85
543.726	21.11
544.071	21.31
544.415	21.67
544.76	21.7
545.105	21.71
545.449	21.85
545.794	22.06
546.138	22.16
546.483	22.21
546.827	22.37
547.171	22.18
547.516	22.2
547.86	22.31
548.204	22.27
548.548	22.2
548.892	22.24
549.236	22.5
549.58	22.61
549.924	22.88
550.268	23.17
550.612	23.13
550.956	23.23
551.3	23.13
551.643	23.5
551.987	23.37
552.33	23.42
552.674	23.25
553.017	23.35
553.361	23.53
553.704	23.41
554.048	23.06
554.391	23.19
554.734	23.1
555.077	23.27
555.42	23.53
555.764	23.5
556.107	23.63
556.45	23.8
556.793	23.91
557.135	23.99
557.478	23.98
557.821	23.85
558.164	23.99
558.507	23.97
558.849	24.08
559.192	23.92
559.534	24.33
559.877	24.22
560.219	24.03
560.562	24.17
560.904	23.98
561.246	24.35
561.589	24.39
561.931	24.26
562.273	24.62
562.615	24.49
562.957	24.43
563.299	24.48
563.641	24.68
563.983	24.34
564.325	24.78
564.667	24.73
565.008	24.88
565.35	24.9
565.692	25.22
566.033	24.96
566.375	24.93
566.716	24.94
567.058	24.71
567.399	24.67
567.741	24.75
568.082	24.83
568.423	24.79
568.764	25.05
569.105	24.83
569.447	25.14
569.788	25.17
570.129	25.34
570.47	25.33
570.811	25.34
571.151	25.54
571.492	25.39
571.833	25.55
572.174	25.7
572.514	25.59
572.855	25.62
573.195	25.49
573.536	25.57
573.876	25.36
574.217	25.48
574.557	25.61
574.898	25.81
575.238	25.78
575.578	25.99
575.918	25.91
576.258	25.99
576.598	25.91
576.938	25.78
577.278	25.94
577.618	26.03
577.958	26.19
578.298	26.17
578.638	26.41
578.977	26.76
579.317	26.3
579.657	26.63
579.996	26.51
580.336	26.57
580.675	26.62
581.014	26.59
581.354	26.65
581.693	26.71
582.032	26.72
582.372	26.94
582.711	27.01
583.05	26.89
583.389	26.82
583.728	27.02
584.067	27.28
584.406	27.17
584.745	27.16
585.083	27.32
585.422	27.3
585.761	27.26
586.1	27.17
586.438	27.62
586.777	27.33
587.115	27.26
587.454	27.3
587.792	27.49
588.13	27.53
588.469	27.65
588.807	27.61
589.145	27.42
589.483	27.58
589.821	27.73
590.159	27.8
590.497	27.7
590.835	27.66
591.173	27.98
591.511	27.75
591.849	27.83
592.187	28.05
592.524	28.17
592.862	28.18
593.2	28.13
593.537	28.39
593.875	28.29
594.212	28.44
594.55	28.32
594.887	28.47
595.224	28.55
595.561	28.34
595.899	28.65
596.236	28.5
596.573	28.59
596.91	28.52
597.247	28.82
597.584	28.54
597.921	28.61
598.258	28.92
598.594	28.42
598.931	28.12
599.268	28.38
599.604	28.63
599.941	28.75
600.277	28.7
600.614	29.37
600.95	29.29
601.287	29.14
601.623	29.38
601.959	29.23
602.296	29.42
602.632	29.1
602.968	29.16
603.304	29.25
603.64	29.43
603.976	29.27
604.312	29.54
604.648	29.18
604.984	29.41
605.319	29.15
605.655	29.35
605.991	29.32
606.326	28.93
606.662	29.17
606.998	29.11
607.333	29.61
607.668	29.43
608.004	29.87
608.339	30.34
608.674	29.95
609.01	30.24
609.345	30.25
609.68	30.22
610.015	30.26
610.35	29.81
610.685	29.68
611.02	30.02
611.355	29.79
611.689	29.92
612.024	30.16
612.359	30.21
612.694	30.23
613.028	30.29
613.363	30.45
613.697	30.48
614.032	30.92
614.366	30.75
614.7	31.17
615.035	30.79
615.369	31.12
615.703	31.05
616.037	30.77
616.371	30.75
616.705	30.86
617.039	30.92
617.373	30.41
617.707	30.66
618.041	31.17
618.375	30.76
618.709	31.19
619.042	31.37
619.376	31.39
619.71	31.18
620.043	31.24
620.377	31.66
620.71	31.4
621.043	31.49
621.377	31.24
621.71	31.65
622.043	31.34
622.376	31.81
622.709	31.32
623.043	31.54
623.376	31.66
623.709	31.68
624.041	31.56
624.374	31.62
624.707	31.77
625.04	31.73
625.373	32.08
625.705	31.85
626.038	31.91
626.37	32.49
626.703	32.45
627.035	31.84
627.368	32.05
627.7	31.87
628.032	31.98
628.365	31.97
628.697	32.13
629.029	32.13
629.361	32.27
629.693	32.23
630.025	32.43
630.357	32.55
630.689	32.11
631.021	32.55
631.353	32.05
631.684	32.56
632.016	32.46
632.348	32.78
632.679	32.41
633.011	32.39
633.342	32.67
633.674	32.55
634.005	32.73
634.336	32.75
634.668	33.01
634.999	32.55
635.33	32.62
635.661	33.07
635.992	32.66
636.323	33.08
636.654	33.31
636.985	32.59
637.316	33.5
637.647	33.28
637.977	32.98
638.308	33.23
638.639	33.11
638.969	33.07
639.3	33.17
639.63	33.58
639.961	33.57
640.291	33.33
640.622	33.44
640.952	33.81
641.282	34.18
641.612	33.61
641.943	33.77
642.273	33.17
642.603	33.72
642.933	33.85
643.263	33.84
643.592	33.7
643.922	33.81
644.252	33.91
644.582	34.43
644.911	34.4
645.241	34
645.571	33.69
645.9	34.35
646.23	33.9
646.559	34.12
646.888	33.86
647.218	34.18
647.547	34.38
647.876	34.49
648.205	34.1
648.534	34.42
648.863	34.45
649.192	34.36
649.521	34.49
649.85	34.55
650.179	34.95
650.508	34.46
650.837	34.73
651.165	34.65
651.494	34.82
651.822	34.32
652.151	34.37
652.479	34.85
652.808	34.87
653.136	35.01
653.465	34.75
653.793	34.92
654.121	35.48
654.449	35.15
654.777	34.8
655.105	34.6
655.433	34.68
655.761	35.23
656.089	35.23
656.417	34.68
656.745	35.16
657.073	35.37
657.4	35.27
657.728	35.79
658.056	35.29
658.383	35.71
658.711	35.49
659.038	35.36
659.365	35.37
659.693	35.46
660.02	35.62
660.347	35.83
660.674	34.94
661.001	35.13
661.329	35.76
661.656	35.4
661.982	35.78
662.309	35.93
662.636	36.29
662.963	35.8
663.29	36.43
663.616	36.02
663.943	35.2
664.27	35.82
664.596	36.36
664.923	36.44
665.249	36.48
665.576	36.44
665.902	36.44
666.228	36.34
666.554	36.21
666.881	36.43
667.207	36.37
667.533	36.74
667.859	36.63
668.185	36.55
668.511	36.4
668.837	36.17
669.162	36.55
669.488	36.38
669.814	36.86
670.139	37.02
670.465	36.94
670.791	36.96
671.116	36.83
671.442	37.17
671.767	36.75
672.092	36.46
672.418	37.2
672.743	37.09
673.068	36.6
673.393	37.28
673.718	37.69
674.043	37.32
674.368	36.95
674.693	37.18
675.018	37.1
675.343	37.17
675.667	36.84
675.992	37.85
