Data from 0013_chest_Reflection__0__05.txt Node

Date: Mon Oct 17 14:27:48 CDT 2022
User: ToomeyLab
Spectrometer: FLMS14357
Trigger mode: 0
Integration Time (sec): 1.000000E-2
Scans to average: 100
Electric dark correction enabled: true
Nonlinearity correction enabled: false
Boxcar width: 0
XAxis mode: Wavelengths
Number of Pixels in Spectrum: 2048
>>>>>Begin Spectral Data<<<<<
189.047	-1857.53
189.435	-1857.53
189.823	-1857.53
190.211	72.9
190.599	716.14
190.987	-29.28
191.375	129.58
191.763	32.15
192.151	-56.63
192.538	644.6
192.926	0.35
193.314	74.97
193.702	31.62
194.089	-359.82
194.477	107.77
194.864	69.19
195.252	-322.15
195.639	55
196.027	132.59
196.414	145.82
196.801	202.16
197.189	43
197.576	124.76
197.963	-142.48
198.351	-301.06
198.738	2.88
199.125	-19.54
199.512	-75.06
199.899	38.73
200.286	11.87
200.673	-14.85
201.06	-34.8
201.447	45.02
201.833	45.39
202.22	47.27
202.607	-16.55
202.994	33.9
203.38	11.31
203.767	-14.04
204.154	32.37
204.54	-20.14
204.927	21.27
205.313	-18.77
205.699	24.65
206.086	-8.37
206.472	21.84
206.858	24.53
207.245	11.58
207.631	34.25
208.017	28.22
208.403	35.73
208.789	16.75
209.175	42.82
209.561	-14.4
209.947	-0.79
210.333	28.55
210.719	-3.69
211.105	23.72
211.491	8.99
211.876	7.14
212.262	9.88
212.648	11.76
213.034	-15.17
213.419	5.25
213.805	-7.86
214.19	9.88
214.576	-13.97
214.961	-14.22
215.346	-13.98
215.732	-15.47
216.117	20.53
216.502	7.36
216.888	-7.11
217.273	15.32
217.658	14.55
218.043	1.21
218.428	-8.29
218.813	9.36
219.198	6.36
219.583	-7.1
219.968	20.56
220.353	-9.13
220.738	2.55
221.122	0.22
221.507	-11.24
221.892	6.66
222.276	-0.05
222.661	-5.71
223.046	0.37
223.43	10.78
223.815	-6.46
224.199	0.97
224.583	1.31
224.968	-2.26
225.352	-6.15
225.736	4.2
226.121	-9.66
226.505	-2.19
226.889	5.39
227.273	2.37
227.657	4.9
228.041	4.34
228.425	3.2
228.809	0.72
229.193	3.17
229.577	2.82
229.961	4.36
230.344	2.39
230.728	2.33
231.112	2.27
231.495	3.47
231.879	2.38
232.263	2.4
232.646	1.94
233.03	1.99
233.413	-0.15
233.797	2.41
234.18	3.16
234.563	-0.97
234.946	1.04
235.33	2.98
235.713	1.9
236.096	2.83
236.479	1.98
236.862	2.24
237.245	2.26
237.628	2.35
238.011	2.83
238.394	4.02
238.777	2.03
239.16	1.68
239.543	1.51
239.925	4.68
240.308	2.39
240.691	2.48
241.073	3.28
241.456	2.4
241.838	3.06
242.221	1.8
242.603	2.86
242.986	2.16
243.368	3
243.75	2.3
244.133	2.38
244.515	2.47
244.897	2.52
245.279	2.72
245.661	2.78
246.043	3.22
246.425	1.61
246.807	2.7
247.189	2.53
247.571	2.55
247.953	2.35
248.335	2.39
248.717	2.58
249.098	2.69
249.48	2.4
249.862	2.54
250.243	2.07
250.625	2.92
251.006	2.35
251.388	2.77
251.769	2.93
252.151	2.65
252.532	2.49
252.913	2.65
253.295	2.19
253.676	2.77
254.057	2.72
254.438	2.51
254.819	3.75
255.2	3.34
255.581	1.71
255.962	2.5
256.343	2.37
256.724	1.84
257.105	2.32
257.486	1.43
257.867	2.74
258.247	2.72
258.628	3.01
259.009	2.86
259.389	2.34
259.77	2.35
260.15	2.68
260.531	2.01
260.911	2.54
261.292	2.53
261.672	2.26
262.052	2.47
262.432	2.43
262.813	2.4
263.193	2.19
263.573	2.29
263.953	2.45
264.333	2.75
264.713	2
265.093	2.28
265.473	2.36
265.853	2.92
266.233	3.06
266.612	2.21
266.992	2.45
267.372	2.16
267.752	2.59
268.131	2.83
268.511	2.7
268.89	2.74
269.27	2.54
269.649	2.64
270.029	2.43
270.408	2.51
270.787	1.76
271.167	2.24
271.546	2.53
271.925	2.33
272.304	1.93
272.683	2.39
273.062	2.24
273.441	1.77
273.82	2.52
274.199	2.53
274.578	2.7
274.957	2.02
275.336	2.28
275.715	1.94
276.093	2.29
276.472	2
276.851	2.52
277.229	2.3
277.608	2.21
277.986	2.87
278.365	2.41
278.743	2.41
279.122	2.45
279.5	3.09
279.878	2.58
280.257	2.87
280.635	1.86
281.013	2.05
281.391	2.63
281.769	1.77
282.147	2.96
282.525	2.65
282.903	1.81
283.281	2.06
283.659	2.18
284.037	2.3
284.415	2.47
284.792	2.04
285.17	2.12
285.548	1.77
285.925	2.44
286.303	2.37
286.68	2.76
287.058	2.44
287.435	2.54
287.813	2.49
288.19	2.09
288.567	2.13
288.945	2.36
289.322	2.71
289.699	2.57
290.076	2.39
290.453	2.34
290.83	2.44
291.207	2.43
291.584	2.29
291.961	2.15
292.338	2.58
292.715	2.46
293.092	2.51
293.469	2.11
293.845	2.66
294.222	3.03
294.599	2.95
294.975	2.16
295.352	2.4
295.728	2.3
296.105	2.43
296.481	2.37
296.858	2.66
297.234	2.43
297.61	2.45
297.986	2.32
298.363	2.71
298.739	2.96
299.115	2.44
299.491	2.51
299.867	2.49
300.243	2.59
300.619	2.59
300.995	2.69
301.371	2.67
301.746	2.64
302.122	2.52
302.498	2.89
302.874	2.95
303.249	3.07
303.625	2.88
304	2.87
304.376	2.86
304.751	3.14
305.127	2.95
305.502	2.45
305.878	2.81
306.253	2.39
306.628	2.73
307.003	2.46
307.378	3.16
307.754	2.79
308.129	2.49
308.504	2.59
308.879	3.24
309.254	2.55
309.629	2.34
310.003	3.12
310.378	2.37
310.753	2.51
311.128	2.75
311.502	2.71
311.877	2.86
312.252	3.01
312.626	2.5
313.001	2.74
313.375	2.63
313.75	2.53
314.124	2.99
314.498	2.77
314.873	2.54
315.247	2.9
315.621	3.39
315.995	2.55
316.369	2.77
316.743	2.97
317.117	3
317.491	2.75
317.865	3.05
318.239	3.39
318.613	3.19
318.987	2.41
319.361	2.33
319.734	3.06
320.108	2.81
320.482	2.78
320.855	2.63
321.229	2.63
321.602	2.86
321.976	2.47
322.349	2.59
322.723	2.52
323.096	2.79
323.469	2.85
323.843	2.73
324.216	2.73
324.589	2.31
324.962	2.85
325.335	2.3
325.708	3.16
326.081	2.77
326.454	2.75
326.827	2.96
327.2	2.99
327.573	3.03
327.945	2.6
328.318	3.03
328.691	3.16
329.063	3.08
329.436	2.86
329.809	2.75
330.181	3.25
330.553	2.7
330.926	2.82
331.298	2.77
331.671	3.3
332.043	3.29
332.415	2.89
332.787	3.06
333.159	2.94
333.532	2.9
333.904	2.57
334.276	2.89
334.648	2.55
335.02	2.7
335.391	2.9
335.763	2.89
336.135	2.72
336.507	2.99
336.879	2.9
337.25	3.19
337.622	2.51
337.993	2.73
338.365	3.14
338.736	2.77
339.108	2.8
339.479	2.65
339.851	3.33
340.222	2.84
340.593	3.08
340.964	3
341.336	2.83
341.707	3.36
342.078	3.54
342.449	2.83
342.82	2.76
343.191	2.99
343.562	3.16
343.933	2.98
344.303	2.88
344.674	3.72
345.045	3.37
345.416	3.19
345.786	3.35
346.157	2.88
346.527	3.05
346.898	3.04
347.268	3.29
347.639	2.31
348.009	3.09
348.38	2.94
348.75	3.17
349.12	3.03
349.49	2.85
349.861	3.26
350.231	3.29
350.601	3.04
350.971	3.03
351.341	2.57
351.711	2.5
352.081	2.87
352.45	3.26
352.82	3.21
353.19	2.84
353.56	2.78
353.929	2.81
354.299	3.08
354.669	2.99
355.038	3.44
355.408	3.11
355.777	2.97
356.147	2.85
356.516	3.18
356.885	3.35
357.254	3.06
357.624	3.31
357.993	3.08
358.362	3.11
358.731	2.84
359.1	3.05
359.469	2.81
359.838	3.1
360.207	3.17
360.576	3.03
360.945	3.31
361.314	3.25
361.682	3.38
362.051	3.1
362.42	2.88
362.788	3.15
363.157	3.14
363.525	2.77
363.894	3.41
364.262	3.16
364.631	3.15
364.999	3.14
365.367	2.85
365.735	3.17
366.104	3
366.472	2.72
366.84	3.12
367.208	3.14
367.576	3.04
367.944	2.73
368.312	3.08
368.68	3.23
369.048	3.08
369.416	3.24
369.783	3.12
370.151	2.95
370.519	3.36
370.886	3.44
371.254	2.78
371.621	3.26
371.989	2.96
372.356	3.15
372.724	3.43
373.091	3
373.458	3.06
373.826	3.52
374.193	3.42
374.56	3.07
374.927	3.24
375.294	3.2
375.661	3.26
376.028	3.35
376.395	3.27
376.762	3.3
377.129	3.42
377.496	3.22
377.863	2.74
378.229	3.35
378.596	3.02
378.963	2.91
379.329	2.97
379.696	2.83
380.062	3.31
380.429	3.06
380.795	3.3
381.161	3.45
381.528	3.01
381.894	2.93
382.26	3.19
382.626	3.23
382.993	3.37
383.359	3.54
383.725	3.07
384.091	3.08
384.457	3.18
384.823	3.02
385.188	2.93
385.554	3.21
385.92	3.37
386.286	3.27
386.651	3.36
387.017	3.12
387.383	3.4
387.748	3.11
388.114	3.12
388.479	3.43
388.845	3.56
389.21	3.07
389.575	3.23
389.94	3.42
390.306	3.46
390.671	3.57
391.036	3.36
391.401	3.17
391.766	3.25
392.131	3.52
392.496	3.47
392.861	3.21
393.226	3.08
393.591	3.03
393.956	3.25
394.32	3.29
394.685	3.16
395.05	3.47
395.414	3.43
395.779	3.2
396.143	3.29
396.508	3.37
396.872	3.12
397.236	3.19
397.601	3.28
397.965	3.28
398.329	3.57
398.694	3.35
399.058	3.42
399.422	3.38
399.786	3.32
400.15	3.39
400.514	3.22
400.878	3.42
401.242	3.29
401.605	3.52
401.969	3.37
402.333	3.44
402.697	3.28
403.06	3.29
403.424	3.39
403.787	3.3
404.151	3.3
404.514	3.47
404.878	3.62
405.241	3.26
405.604	3.51
405.968	3.55
406.331	3.39
406.694	3.38
407.057	3.35
407.42	3.25
407.783	3.41
408.146	3.58
408.509	3.63
408.872	3.26
409.235	3.5
409.598	3.31
409.961	3.32
410.323	3.57
410.686	3.43
411.049	3.23
411.411	3.56
411.774	3.46
412.136	3.51
412.499	3.52
412.861	3.6
413.223	3.27
413.586	3.41
413.948	3.62
414.31	3.27
414.672	3.34
415.035	3.57
415.397	3.67
415.759	3.52
416.121	3.57
416.483	3.62
416.845	3.44
417.206	3.54
417.568	3.65
417.93	3.37
418.292	3.65
418.653	3.45
419.015	3.55
419.377	3.53
419.738	3.38
420.1	3.45
420.461	3.48
420.822	3.55
421.184	3.45
421.545	3.38
421.906	3.4
422.267	3.39
422.629	3.39
422.99	3.3
423.351	3.45
423.712	3.46
424.073	3.52
424.434	3.41
424.795	3.54
425.155	3.54
425.516	3.46
425.877	3.37
426.238	3.44
426.598	3.42
426.959	3.49
427.32	3.54
427.68	3.55
428.041	3.55
428.401	3.65
428.761	3.61
429.122	3.74
429.482	3.67
429.842	3.58
430.202	3.81
430.563	3.65
430.923	3.62
431.283	3.62
431.643	3.53
432.003	3.66
432.363	3.83
432.722	3.76
433.082	3.61
433.442	3.84
433.802	3.63
434.161	3.53
434.521	3.69
434.881	3.47
435.24	3.56
435.6	3.72
435.959	3.71
436.319	3.74
436.678	3.71
437.037	3.7
437.396	3.64
437.756	3.76
438.115	3.6
438.474	3.79
438.833	3.52
439.192	3.62
439.551	3.56
439.91	3.72
440.269	3.53
440.628	3.58
440.987	3.57
441.345	3.54
441.704	3.68
442.063	3.65
442.421	3.55
442.78	3.59
443.138	3.75
443.497	3.73
443.855	3.91
444.214	3.9
444.572	3.64
444.93	3.73
445.288	3.71
445.647	3.71
446.005	3.9
446.363	3.82
446.721	3.67
447.079	3.66
447.437	3.65
447.795	3.73
448.153	3.69
448.51	3.65
448.868	3.59
449.226	3.77
449.584	3.7
449.941	3.78
450.299	3.86
450.656	3.7
451.014	3.87
451.371	3.91
451.729	3.91
452.086	3.92
452.443	4.09
452.801	3.87
453.158	3.96
453.515	3.74
453.872	3.74
454.229	3.76
454.586	3.78
454.943	3.78
455.3	3.83
455.657	3.82
456.014	3.89
456.371	3.89
456.727	3.8
457.084	3.79
457.441	3.87
457.797	4.05
458.154	3.93
458.51	3.94
458.867	3.89
459.223	3.9
459.58	3.69
459.936	3.86
460.292	3.94
460.648	3.86
461.005	3.91
461.361	3.8
461.717	3.77
462.073	3.76
462.429	3.82
462.785	3.93
463.141	4.12
463.496	3.92
463.852	3.91
464.208	3.91
464.564	3.93
464.919	4
465.275	3.84
465.631	3.92
465.986	3.93
466.342	3.96
466.697	4.11
467.052	4.05
467.408	3.96
467.763	3.87
468.118	4
468.473	4.03
468.829	4.14
469.184	3.98
469.539	3.86
469.894	3.83
470.249	4
470.603	4.19
470.958	4.14
471.313	3.87
471.668	4.03
472.023	4.01
472.377	4.14
472.732	3.91
473.086	4.15
473.441	4.08
473.795	4.09
474.15	4.09
474.504	3.98
474.859	4
475.213	4.16
475.567	4.21
475.921	4.02
476.275	4.03
476.63	4.14
476.984	4.16
477.338	4.1
477.692	4.23
478.045	4.19
478.399	4.16
478.753	4.15
479.107	4.1
479.461	4.09
479.814	3.99
480.168	4.14
480.521	4.16
480.875	4.16
481.228	4.12
481.582	4.38
481.935	4.07
482.289	4.11
482.642	4.22
482.995	4.18
483.348	4.18
483.701	4.11
484.055	4.12
484.408	4.11
484.761	4
485.114	3.94
485.466	3.86
485.819	3.84
486.172	3.89
486.525	3.96
486.878	4.05
487.23	4.14
487.583	4.13
487.936	4.18
488.288	4.1
488.641	4.05
488.993	3.98
489.345	3.99
489.698	4.01
490.05	4.03
490.402	4.05
490.754	4.15
491.107	4.18
491.459	4.27
491.811	4.36
492.163	4.25
492.515	4.23
492.866	4.18
493.218	4.11
493.57	4.1
493.922	4.14
494.274	4.24
494.625	4.29
494.977	4.35
495.328	4.35
495.68	4.35
496.031	4.52
496.383	4.41
496.734	4.4
497.086	4.27
497.437	4.4
497.788	4.44
498.139	4.37
498.49	4.32
498.842	4.31
499.193	4.35
499.544	4.43
499.894	4.49
500.245	4.42
500.596	4.34
500.947	4.48
501.298	4.52
501.648	4.43
501.999	4.5
502.35	4.54
502.7	4.61
503.051	4.55
503.401	4.63
503.752	4.6
504.102	4.46
504.452	4.44
504.803	4.65
505.153	4.62
505.503	4.55
505.853	4.47
506.203	4.54
506.553	4.52
506.903	4.48
507.253	4.59
507.603	4.59
507.953	4.65
508.303	4.61
508.652	4.65
509.002	4.68
509.352	4.64
509.701	4.62
510.051	4.68
510.4	4.51
510.75	4.59
511.099	4.63
511.449	4.58
511.798	4.68
512.147	4.64
512.496	4.76
512.846	4.74
513.195	4.74
513.544	4.76
513.893	4.74
514.242	4.85
514.591	4.74
514.939	4.71
515.288	4.64
515.637	4.79
515.986	4.78
516.334	4.87
516.683	4.91
517.032	4.75
517.38	4.84
517.729	4.89
518.077	4.88
518.426	4.81
518.774	4.74
519.122	4.84
519.47	4.74
519.819	4.92
520.167	4.8
520.515	4.75
520.863	4.78
521.211	4.83
521.559	4.85
521.907	4.9
522.255	4.88
522.602	4.91
522.95	4.98
523.298	5.1
523.645	5.07
523.993	5.18
524.341	5.17
524.688	4.97
525.036	5.2
525.383	5.13
525.73	5.11
526.078	5.02
526.425	4.98
526.772	5.06
527.119	5.06
527.466	4.9
527.814	4.96
528.161	5.07
528.508	5.13
528.854	5.17
529.201	5.09
529.548	5.16
529.895	4.98
530.242	4.94
530.588	4.89
530.935	4.93
531.282	4.99
531.628	5.06
531.975	5.14
532.321	5.16
532.667	5.31
533.014	5.28
533.36	5.31
533.706	5.37
534.052	5.33
534.399	5.24
534.745	5.18
535.091	5.14
535.437	5.17
535.783	5.18
536.129	5.28
536.474	5.38
536.82	5.41
537.166	5.54
537.512	5.5
537.857	5.58
538.203	5.44
538.549	5.31
538.894	5.44
539.239	5.53
539.585	5.46
539.93	5.63
540.276	5.68
540.621	5.52
540.966	5.63
541.311	5.65
541.656	5.71
542.001	5.6
542.346	5.59
542.691	5.56
543.036	5.39
543.381	5.45
543.726	5.45
544.071	5.54
544.415	5.65
544.76	5.63
545.105	5.6
545.449	5.74
545.794	5.78
546.138	5.77
546.483	5.89
546.827	5.82
547.171	5.8
547.516	5.85
547.86	5.96
548.204	5.89
548.548	5.89
548.892	5.9
549.236	5.98
549.58	5.95
549.924	6
550.268	6.17
550.612	6.06
550.956	6.23
551.3	6.09
551.643	6.29
551.987	6.18
552.33	6.17
552.674	6.21
553.017	6.35
553.361	6.3
553.704	6.15
554.048	6
554.391	6.3
554.734	6.32
555.077	6.22
555.42	6.29
555.764	6.33
556.107	6.39
556.45	6.38
556.793	6.55
557.135	6.61
557.478	6.51
557.821	6.44
558.164	6.54
558.507	6.4
558.849	6.49
559.192	6.57
559.534	6.66
559.877	6.55
560.219	6.57
560.562	6.49
560.904	6.46
561.246	6.66
561.589	6.61
561.931	6.69
562.273	6.87
562.615	6.59
562.957	6.8
563.299	6.82
563.641	7
563.983	6.76
564.325	7.13
564.667	6.95
565.008	7.15
565.35	7.22
565.692	7.17
566.033	6.99
566.375	6.87
566.716	7.03
567.058	7.06
567.399	6.93
567.741	6.95
568.082	6.9
568.423	7.06
568.764	7.1
569.105	7.11
569.447	7.27
569.788	7.2
570.129	7.28
570.47	7.22
570.811	7.49
571.151	7.31
571.492	7.44
571.833	7.34
572.174	7.52
572.514	7.47
572.855	7.52
573.195	7.49
573.536	7.44
573.876	7.37
574.217	7.34
574.557	7.3
574.898	7.48
575.238	7.51
575.578	7.69
575.918	7.64
576.258	7.62
576.598	7.72
576.938	7.63
577.278	7.64
577.618	7.84
577.958	7.74
578.298	7.79
578.638	7.97
578.977	7.98
579.317	7.91
579.657	7.81
579.996	7.87
580.336	7.98
580.675	8.03
581.014	7.86
581.354	8.19
581.693	7.96
582.032	8.25
582.372	8.19
582.711	8.1
583.05	8.24
583.389	8.04
583.728	8.37
584.067	8.32
584.406	8.25
584.745	8.41
585.083	8.49
585.422	8.44
585.761	8.25
586.1	8.5
586.438	8.75
586.777	8.48
587.115	8.54
587.454	8.52
587.792	8.67
588.13	8.67
588.469	8.79
588.807	8.81
589.145	8.72
589.483	8.55
589.821	8.91
590.159	8.92
590.497	9.13
590.835	8.83
591.173	9.01
591.511	8.93
591.849	8.79
592.187	9
592.524	8.84
592.862	8.81
593.2	9.18
593.537	9.19
593.875	9.04
594.212	9.27
594.55	9.06
594.887	9.29
595.224	9.1
595.561	9.06
595.899	9.26
596.236	9.33
596.573	9.26
596.91	9.12
597.247	9.41
597.584	9.46
597.921	9.46
598.258	9.47
598.594	9.46
598.931	9.27
599.268	9.41
599.604	9.47
599.941	9.67
600.277	9.54
600.614	9.85
600.95	9.8
601.287	9.47
601.623	9.87
601.959	9.68
602.296	9.91
602.632	9.9
602.968	9.77
603.304	9.91
603.64	9.98
603.976	10.05
604.312	10.21
604.648	9.94
604.984	9.98
605.319	9.79
605.655	10.08
605.991	10.15
606.326	9.93
606.662	10.09
606.998	10.08
607.333	10.32
607.668	10.01
608.004	10.27
608.339	10.38
608.674	10.4
609.01	10.3
609.345	10.75
609.68	10.65
610.015	10.67
610.35	10.33
610.685	10.32
611.02	10.46
611.355	10.41
611.689	10.43
612.024	10.67
612.359	10.57
612.694	10.73
613.028	10.81
613.363	11
613.697	10.69
614.032	11.09
614.366	10.97
614.7	11.17
615.035	11.16
615.369	11.41
615.703	11.01
616.037	11.2
616.371	10.81
616.705	10.88
617.039	11.39
617.373	11.15
617.707	10.95
618.041	11.31
618.375	11.26
618.709	11.68
619.042	11.46
619.376	11.27
619.71	11.29
620.043	11.24
620.377	11.65
620.71	11.54
621.043	11.52
621.377	11.93
621.71	11.78
622.043	11.47
622.376	11.61
622.709	11.83
623.043	11.59
623.376	11.2
623.709	11.63
624.041	11.65
624.374	11.91
624.707	11.88
625.04	11.5
625.373	12.33
625.705	12.01
626.038	11.63
626.37	12.19
626.703	12.28
627.035	11.87
627.368	12.11
627.7	12.15
628.032	12.21
628.365	12.25
628.697	12.5
629.029	12.17
629.361	12.06
629.693	12.21
630.025	12.21
630.357	12.45
630.689	12.35
631.021	12.36
631.353	12.43
631.684	12.62
632.016	12.61
632.348	12.56
632.679	12.35
633.011	12.68
633.342	12.6
633.674	12.77
634.005	12.43
634.336	12.44
634.668	12.85
634.999	12.67
635.33	12.52
635.661	13
635.992	12.95
636.323	12.91
636.654	13.01
636.985	12.79
637.316	12.94
637.647	12.91
637.977	13.09
638.308	13.21
638.639	13.25
638.969	13.46
639.3	13.11
639.63	13.44
639.961	13.54
640.291	13.4
640.622	13.58
640.952	13.61
641.282	13.6
641.612	13.62
641.943	13.19
642.273	13.79
642.603	13.46
642.933	13.37
643.263	13.5
643.592	13.68
643.922	13.49
644.252	13.72
644.582	14.44
644.911	14.18
645.241	14
645.571	13.55
645.9	14
646.23	13.55
646.559	14.04
646.888	14.04
647.218	13.7
647.547	14.14
647.876	14.17
648.205	14.23
648.534	14
648.863	14.01
649.192	14.64
649.521	14.42
649.85	14.25
650.179	14.5
650.508	14.28
650.837	14.05
651.165	14.63
651.494	14.57
651.822	14.15
652.151	14.33
652.479	14.55
652.808	14.47
653.136	14.68
653.465	14.16
653.793	14.65
654.121	14.65
654.449	15.07
654.777	14.58
655.105	14.17
655.433	14.92
655.761	15.11
656.089	15.16
656.417	14.85
656.745	14.6
657.073	15.44
657.4	15.06
657.728	15
658.056	14.7
658.383	15.21
658.711	15.34
659.038	14.96
659.365	14.8
659.693	14.99
660.02	15.34
660.347	15.88
660.674	15.38
661.001	15.34
661.329	15.45
661.656	15.38
661.982	15.46
662.309	15.81
662.636	15.84
662.963	15.3
663.29	15.78
663.616	15.56
663.943	15.59
664.27	15.61
664.596	15.41
664.923	15.95
665.249	16
665.576	16.15
665.902	15.99
666.228	15.72
666.554	15.88
666.881	16.35
667.207	16.34
667.533	16.35
667.859	15.96
668.185	16.36
668.511	16.46
668.837	15.73
669.162	16.25
669.488	16.18
669.814	16.84
670.139	16.52
670.465	16.02
670.791	16.03
671.116	16.5
671.442	16.49
671.767	15.81
672.092	16.6
672.418	16.83
672.743	16.55
673.068	17.07
673.393	16.86
673.718	16.77
674.043	16.79
674.368	16.52
674.693	16.76
675.018	16.55
675.343	17.22
675.667	16.43
675.992	16.51
676.317	16.52
676.641	16.69
676.966	17.31
677.29	17.15
677.615	16.55
677.939	17.09
678.264	17.07
678.588	17.61
678.912	17.15
679.236	17.15
679.56	16.83
679.885	17.45
680.209	17.3
680.532	17.06
680.856	17.17
681.18	17.08
681.504	17.8
681.828	17.93
682.152	17.3
682.475	17.32
682.799	17.54
683.122	17.13
683.446	18.12
683.769	17.49
684.093	17.37
684.416	18.45
684.739	17.72
685.062	18.1
685.386	17.42
685.709	18.24
686.032	18.1
686.355	17.75
686.678	17.28
687.001	17.21
687.324	17.82
