Data from 0013_crown_Reflection__3__13.txt Node

Date: Mon Oct 17 14:30:22 CDT 2022
User: ToomeyLab
Spectrometer: FLMS14357
Trigger mode: 0
Integration Time (sec): 1.000000E-2
Scans to average: 100
Electric dark correction enabled: true
Nonlinearity correction enabled: false
Boxcar width: 0
XAxis mode: Wavelengths
Number of Pixels in Spectrum: 2048
>>>>>Begin Spectral Data<<<<<
189.047	-2821.92
189.435	-2821.92
189.823	-2821.92
190.211	-2.19
190.599	91.1
190.987	42.08
191.375	65.09
191.763	41.12
192.151	134.61
192.538	-371.95
192.926	162.45
193.314	40.92
193.702	-191.98
194.089	202.74
194.477	159.3
194.864	21
195.252	-838.18
195.639	52.59
196.027	64.12
196.414	4.51
196.801	444.51
197.189	262.61
197.576	211.73
197.963	61.94
198.351	-135.88
198.738	27.59
199.125	-25.55
199.512	-146
199.899	-42.74
200.286	2.98
200.673	5.53
201.06	-9.07
201.447	12.84
201.833	61.59
202.22	44.76
202.607	-34.6
202.994	-5.4
203.38	17.21
203.767	12.66
204.154	16.68
204.54	-27.97
204.927	11.07
205.313	-27.31
205.699	11.9
206.086	-33.67
206.472	-0.02
206.858	18.36
207.245	30.68
207.631	32.86
208.017	31.6
208.403	36
208.789	38.8
209.175	-17.74
209.561	-14.62
209.947	-59.24
210.333	19.41
210.719	25.32
211.105	11.41
211.491	9.26
211.876	-30.3
212.262	3.61
212.648	24.61
213.034	-20.52
213.419	14.37
213.805	14.12
214.19	10.8
214.576	-8.75
214.961	-1.4
215.346	-4.85
215.732	0.41
216.117	16.08
216.502	19.66
216.888	3.02
217.273	15.54
217.658	16.41
218.043	-8.32
218.428	-22
218.813	14.66
219.198	3.52
219.583	8.61
219.968	-10.27
220.353	-5.96
220.738	5.71
221.122	-3.62
221.507	9.9
221.892	20.23
222.276	14.36
222.661	10.34
223.046	6.56
223.43	9.67
223.815	-3.44
224.199	7.4
224.583	-1.59
224.968	-5.78
225.352	-7.63
225.736	7.4
226.121	-0.79
226.505	3.05
226.889	-1.36
227.273	1.76
227.657	8.51
228.041	5.14
228.425	2.52
228.809	5.8
229.193	3.71
229.577	3.96
229.961	4.22
230.344	3.31
230.728	3.09
231.112	3.32
231.495	3.42
231.879	3.56
232.263	3.7
232.646	3.16
233.03	2.68
233.413	1.65
233.797	3.5
234.18	4.79
234.563	1.36
234.946	3.8
235.33	1.79
235.713	3.18
236.096	4.2
236.479	2.25
236.862	2.85
237.245	3.27
237.628	3.18
238.011	3.29
238.394	3.33
238.777	3.07
239.16	3.07
239.543	3.87
239.925	4.14
240.308	2.67
240.691	3.08
241.073	3.11
241.456	2.36
241.838	3.3
242.221	2.61
242.603	3.08
242.986	2.47
243.368	3.4
243.75	3.26
244.133	3.46
244.515	3.48
244.897	3.82
245.279	3.71
245.661	3.56
246.043	4.01
246.425	2.67
246.807	2.4
247.189	3.88
247.571	3.15
247.953	3.23
248.335	3.29
248.717	3.4
249.098	3.42
249.48	3.16
249.862	2.97
250.243	3.06
250.625	3.52
251.006	2.81
251.388	2.99
251.769	3.49
252.151	3.19
252.532	3.46
252.913	3.33
253.295	3.4
253.676	3.41
254.057	3.34
254.438	3.28
254.819	4
255.2	3.93
255.581	4.2
255.962	3.05
256.343	3.42
256.724	3.69
257.105	3.47
257.486	1.87
257.867	3.05
258.247	3.78
258.628	3.12
259.009	3.89
259.389	3.31
259.77	3.06
260.15	3.54
260.531	3.16
260.911	3.17
261.292	3.07
261.672	2.94
262.052	3.23
262.432	3.22
262.813	3.4
263.193	3.16
263.573	3.83
263.953	3.25
264.333	3.55
264.713	2.82
265.093	3.02
265.473	2.96
265.853	3.07
266.233	4.06
266.612	3.06
266.992	4.04
267.372	3.19
267.752	3.23
268.131	3.17
268.511	3.07
268.89	3.47
269.27	3.25
269.649	3.31
270.029	3.3
270.408	3.29
270.787	2.58
271.167	2.63
271.546	3.37
271.925	2.84
272.304	2.97
272.683	3.17
273.062	2.67
273.441	2.98
273.82	3.25
274.199	3.04
274.578	2.98
274.957	2.77
275.336	3.15
275.715	3.23
276.093	3.53
276.472	2.69
276.851	3.5
277.229	2.73
277.608	3.02
277.986	2.93
278.365	2.73
278.743	3.27
279.122	2.58
279.5	3.56
279.878	3.25
280.257	3.26
280.635	2.78
281.013	3.12
281.391	2.92
281.769	2.98
282.147	3.35
282.525	2.69
282.903	2.51
283.281	2.67
283.659	2.78
284.037	2.64
284.415	2.93
284.792	2.73
285.17	2.46
285.548	2.62
285.925	2.98
286.303	2.74
286.68	2.86
287.058	3.05
287.435	3.12
287.813	2.45
288.19	2.81
288.567	2.69
288.945	2.67
289.322	3.08
289.699	3.37
290.076	2.71
290.453	2.89
290.83	3.13
291.207	2.91
291.584	2.76
291.961	2.81
292.338	2.98
292.715	2.93
293.092	3
293.469	2.74
293.845	2.79
294.222	2.9
294.599	3.23
294.975	2.69
295.352	2.54
295.728	2.73
296.105	2.71
296.481	2.67
296.858	3.41
297.234	2.63
297.61	2.85
297.986	2.65
298.363	2.71
298.739	3.14
299.115	2.76
299.491	3.17
299.867	2.82
300.243	2.85
300.619	2.48
300.995	2.44
301.371	2.98
301.746	2.74
302.122	2.8
302.498	3.13
302.874	3.22
303.249	3.12
303.625	3.43
304	2.95
304.376	3.28
304.751	3.56
305.127	3.17
305.502	2.7
305.878	2.96
306.253	2.73
306.628	3.08
307.003	2.74
307.378	3.22
307.754	2.51
308.129	3.03
308.504	3.04
308.879	3.22
309.254	2.9
309.629	2.79
310.003	3.28
310.378	2.8
310.753	2.83
311.128	3.2
311.502	3.02
311.877	3.05
312.252	2.82
312.626	3.06
313.001	2.59
313.375	2.8
313.75	2.69
314.124	2.86
314.498	2.69
314.873	2.87
315.247	2.78
315.621	3.22
315.995	2.89
316.369	2.56
316.743	2.87
317.117	2.83
317.491	2.94
317.865	3.15
318.239	3
318.613	3.11
318.987	2.61
319.361	2.62
319.734	3.12
320.108	2.76
320.482	2.76
320.855	2.5
321.229	2.68
321.602	3.03
321.976	2.63
322.349	3.11
322.723	2.38
323.096	2.89
323.469	3.13
323.843	2.87
324.216	3.08
324.589	3.03
324.962	3.61
325.335	2.64
325.708	3.14
326.081	2.74
326.454	3.07
326.827	2.71
327.2	2.77
327.573	2.83
327.945	2.98
328.318	2.76
328.691	2.89
329.063	2.95
329.436	2.86
329.809	2.62
330.181	3.06
330.553	2.73
330.926	2.79
331.298	3.12
331.671	3.59
332.043	2.99
332.415	2.96
332.787	3.08
333.159	2.98
333.532	2.77
333.904	2.73
334.276	3.25
334.648	2.72
335.02	3.15
335.391	3.07
335.763	3.01
336.135	2.82
336.507	2.67
336.879	3.23
337.25	3.2
337.622	2.68
337.993	3.1
338.365	3.14
338.736	2.59
339.108	2.87
339.479	2.71
339.851	2.92
340.222	2.73
340.593	2.8
340.964	3.04
341.336	2.52
341.707	3.35
342.078	3.25
342.449	3.03
342.82	3.2
343.191	3.24
343.562	3.05
343.933	2.87
344.303	2.94
344.674	3.52
345.045	3.07
345.416	2.5
345.786	2.96
346.157	2.72
346.527	2.84
346.898	3.11
347.268	3.14
347.639	2.59
348.009	2.89
348.38	2.85
348.75	2.91
349.12	2.91
349.49	2.86
349.861	3.21
350.231	2.95
350.601	3.04
350.971	3.05
351.341	2.52
351.711	2.64
352.081	2.9
352.45	3.01
352.82	3.23
353.19	2.51
353.56	2.7
353.929	3.24
354.299	2.9
354.669	2.96
355.038	3.3
355.408	3.12
355.777	2.74
356.147	3.2
356.516	3.15
356.885	3.14
357.254	3.21
357.624	3.26
357.993	3.11
358.362	3
358.731	2.89
359.1	2.89
359.469	2.98
359.838	3.1
360.207	3.32
360.576	2.86
360.945	2.97
361.314	3.18
361.682	2.99
362.051	2.87
362.42	2.89
362.788	2.94
363.157	3.11
363.525	2.94
363.894	3.17
364.262	2.9
364.631	3.28
364.999	3.36
365.367	2.72
365.735	3.18
366.104	2.87
366.472	2.79
366.84	3.08
367.208	3.3
367.576	2.92
367.944	2.87
368.312	3.14
368.68	3.33
369.048	2.97
369.416	3.07
369.783	3.13
370.151	3.1
370.519	3.11
370.886	2.92
371.254	2.86
371.621	2.98
371.989	3.27
372.356	3.07
372.724	2.94
373.091	2.89
373.458	3.09
373.826	3.06
374.193	3.25
374.56	2.91
374.927	3.11
375.294	3.09
375.661	3.07
376.028	3.51
376.395	2.71
376.762	3.13
377.129	3.04
377.496	3.15
377.863	2.99
378.229	3.3
378.596	3
378.963	2.86
379.329	3.29
379.696	3.08
380.062	3.28
380.429	2.85
380.795	3.51
381.161	3.1
381.528	3.06
381.894	3.16
382.26	3.17
382.626	3.19
382.993	3.21
383.359	2.92
383.725	3.19
384.091	3.09
384.457	3.03
384.823	2.9
385.188	2.97
385.554	3.42
385.92	3.09
386.286	3.16
386.651	3.35
387.017	2.87
387.383	3.13
387.748	3.08
388.114	3.13
388.479	3.32
388.845	3.22
389.21	3.09
389.575	3.12
389.94	3.17
390.306	3.21
390.671	3.32
391.036	3.27
391.401	3.19
391.766	3.31
392.131	3.28
392.496	3.3
392.861	3.32
393.226	3.2
393.591	2.83
393.956	3.25
394.32	3.26
394.685	3.3
395.05	3.33
395.414	3.35
395.779	3.3
396.143	3.32
396.508	3.18
396.872	3.22
397.236	3.11
397.601	3.24
397.965	3.3
398.329	3.55
398.694	3.28
399.058	3.35
399.422	3.23
399.786	3.24
400.15	3.3
400.514	2.91
400.878	3.29
401.242	3.32
401.605	3.46
401.969	3.44
402.333	3.19
402.697	3.25
403.06	3.26
403.424	3.48
403.787	3.32
404.151	3.35
404.514	3.43
404.878	3.26
405.241	3.36
405.604	3.39
405.968	3.33
406.331	3.3
406.694	3.42
407.057	3.22
407.42	3.21
407.783	3.4
408.146	3.45
408.509	3.44
408.872	3.44
409.235	3.38
409.598	3.51
409.961	3.06
410.323	3.52
410.686	3.46
411.049	3.37
411.411	3.54
411.774	3.47
412.136	3.34
412.499	3.65
412.861	3.61
413.223	3.45
413.586	3.53
413.948	3.46
414.31	3.44
414.672	3.23
415.035	3.39
415.397	3.65
415.759	3.58
416.121	3.59
416.483	3.53
416.845	3.59
417.206	3.45
417.568	3.47
417.93	3.38
418.292	3.5
418.653	3.33
419.015	3.53
419.377	3.41
419.738	3.19
420.1	3.45
420.461	3.34
420.822	3.43
421.184	3.36
421.545	3.32
421.906	3.38
422.267	3.37
422.629	3.29
422.99	3.27
423.351	3.38
423.712	3.41
424.073	3.51
424.434	3.37
424.795	3.45
425.155	3.37
425.516	3.31
425.877	3.41
426.238	3.32
426.598	3.42
426.959	3.33
427.32	3.43
427.68	3.44
428.041	3.42
428.401	3.54
428.761	3.52
429.122	3.65
429.482	3.66
429.842	3.33
430.202	3.72
430.563	3.56
430.923	3.52
431.283	3.71
431.643	3.54
432.003	3.69
432.363	3.59
432.722	3.34
433.082	3.41
433.442	3.6
433.802	3.39
434.161	3.45
434.521	3.66
434.881	3.51
435.24	3.4
435.6	3.59
435.959	3.46
436.319	3.66
436.678	3.51
437.037	3.65
437.396	3.55
437.756	3.7
438.115	3.58
438.474	3.66
438.833	3.55
439.192	3.47
439.551	3.51
439.91	3.49
440.269	3.52
440.628	3.52
440.987	3.44
441.345	3.47
441.704	3.58
442.063	3.52
442.421	3.54
442.78	3.49
443.138	3.61
443.497	3.62
443.855	3.73
444.214	3.58
444.572	3.65
444.93	3.59
445.288	3.63
445.647	3.57
446.005	3.76
446.363	3.63
446.721	3.57
447.079	3.53
447.437	3.62
447.795	3.58
448.153	3.51
448.51	3.49
448.868	3.67
449.226	3.62
449.584	3.69
449.941	3.65
450.299	3.76
450.656	3.69
451.014	3.65
451.371	3.89
451.729	3.67
452.086	3.8
452.443	3.85
452.801	3.88
453.158	3.85
453.515	3.61
453.872	3.77
454.229	3.56
454.586	3.75
454.943	3.76
455.3	3.72
455.657	3.77
456.014	3.83
456.371	3.72
456.727	3.75
457.084	3.75
457.441	3.73
457.797	3.86
458.154	3.9
458.51	3.88
458.867	3.79
459.223	3.79
459.58	3.8
459.936	3.61
460.292	3.75
460.648	3.72
461.005	3.72
461.361	3.65
461.717	3.55
462.073	3.6
462.429	3.66
462.785	3.82
463.141	3.88
463.496	3.7
463.852	3.82
464.208	3.91
464.564	3.83
464.919	3.86
465.275	3.84
465.631	3.9
465.986	3.83
466.342	4.01
466.697	3.79
467.052	3.72
467.408	3.7
467.763	3.78
468.118	3.84
468.473	3.91
468.829	3.68
469.184	4.01
469.539	3.67
469.894	3.75
470.249	3.81
470.603	3.81
470.958	3.85
471.313	3.75
471.668	3.79
472.023	3.74
472.377	3.83
472.732	3.72
473.086	3.83
473.441	3.85
473.795	3.77
474.15	3.87
474.504	3.98
474.859	3.99
475.213	3.89
475.567	3.97
475.921	3.93
476.275	3.75
476.63	3.96
476.984	3.89
477.338	3.8
477.692	3.85
478.045	4.02
478.399	3.95
478.753	3.82
479.107	3.81
479.461	3.92
479.814	3.81
480.168	3.94
480.521	3.86
480.875	3.89
481.228	3.83
481.582	3.98
481.935	3.95
482.289	3.78
482.642	3.87
482.995	3.94
483.348	3.81
483.701	3.87
484.055	3.82
484.408	3.85
484.761	3.77
485.114	3.63
485.466	3.51
485.819	3.51
486.172	3.59
486.525	3.7
486.878	3.77
487.23	3.87
487.583	3.9
487.936	3.88
488.288	3.86
488.641	3.71
488.993	3.69
489.345	3.67
489.698	3.69
490.05	3.75
490.402	3.75
490.754	3.84
491.107	3.87
491.459	3.95
491.811	4.01
492.163	3.91
492.515	3.9
492.866	3.76
493.218	3.71
493.57	3.76
493.922	3.79
494.274	3.85
494.625	3.92
494.977	4.07
495.328	3.96
495.68	4.04
496.031	4.03
496.383	4.15
496.734	3.98
497.086	3.96
497.437	3.99
497.788	4.02
498.139	3.87
498.49	3.99
498.842	3.92
499.193	3.87
499.544	3.98
499.894	3.95
500.245	3.98
500.596	3.91
500.947	4.1
501.298	4.08
501.648	4.01
501.999	3.97
502.35	4.08
502.7	4.14
503.051	4.15
503.401	4.17
503.752	4.04
504.102	4.05
504.452	3.94
504.803	4.1
505.153	4
505.503	4.06
505.853	4.04
506.203	4.07
506.553	4.14
506.903	4.15
507.253	4.06
507.603	3.96
507.953	4.15
508.303	3.95
508.652	4.14
509.002	4.15
509.352	3.94
509.701	3.99
510.051	4.2
510.4	3.97
510.75	4.08
511.099	4.09
511.449	4.03
511.798	4.07
512.147	4.03
512.496	4.07
512.846	4.04
513.195	4.02
513.544	4.12
513.893	4.04
514.242	4.13
514.591	4.05
514.939	4.12
515.288	4.11
515.637	4.14
515.986	4.14
516.334	4.18
516.683	4.17
517.032	4.14
517.38	4.1
517.729	4.12
518.077	4.17
518.426	4.02
518.774	4.12
519.122	4.04
519.47	4.14
519.819	4.09
520.167	4
520.515	4
520.863	4.06
521.211	4.06
521.559	4.05
521.907	4.16
522.255	4.17
522.602	4.23
522.95	4.25
523.298	4.17
523.645	4.22
523.993	4.16
524.341	4.3
524.688	4.25
525.036	4.28
525.383	4.22
525.73	4.16
526.078	4.19
526.425	4.15
526.772	4.08
527.119	4.09
527.466	3.95
527.814	4.12
528.161	4.07
528.508	4.21
528.854	4.1
529.201	4.15
529.548	4.13
529.895	3.96
530.242	3.88
530.588	3.84
530.935	3.9
531.282	3.97
531.628	4.09
531.975	4.16
532.321	4.09
532.667	4.25
533.014	4.27
533.36	4.24
533.706	4.18
534.052	4.19
534.399	4.14
534.745	4.03
535.091	3.95
535.437	4.05
535.783	4.13
536.129	4.14
536.474	4.29
536.82	4.31
537.166	4.29
537.512	4.18
537.857	4.28
538.203	4.15
538.549	4.12
538.894	4.16
539.239	4.3
539.585	4.22
539.93	4.3
540.276	4.23
540.621	4.28
540.966	4.28
541.311	4.22
541.656	4.25
542.001	4.2
542.346	4.19
542.691	4.16
543.036	4.01
543.381	4.05
543.726	4.06
544.071	4.18
544.415	4.2
544.76	4.21
545.105	4.19
545.449	4.23
545.794	4.22
546.138	4.31
546.483	4.34
546.827	4.33
547.171	4.19
547.516	4.27
547.86	4.34
548.204	4.15
548.548	4.24
548.892	4.26
549.236	4.32
549.58	4.36
549.924	4.24
550.268	4.32
550.612	4.29
550.956	4.53
551.3	4.36
551.643	4.43
551.987	4.38
552.33	4.31
552.674	4.41
553.017	4.55
553.361	4.5
553.704	4.28
554.048	4.33
554.391	4.37
554.734	4.4
555.077	4.31
555.42	4.38
555.764	4.41
556.107	4.32
556.45	4.43
556.793	4.53
557.135	4.61
557.478	4.4
557.821	4.48
558.164	4.36
558.507	4.31
558.849	4.36
559.192	4.5
559.534	4.41
559.877	4.41
560.219	4.36
560.562	4.25
560.904	4.31
561.246	4.54
561.589	4.53
561.931	4.2
562.273	4.52
562.615	4.4
562.957	4.36
563.299	4.48
563.641	4.28
563.983	4.41
564.325	4.57
564.667	4.55
565.008	4.5
565.35	4.45
565.692	4.49
566.033	4.62
566.375	4.38
566.716	4.49
567.058	4.34
567.399	4.26
567.741	4.42
568.082	4.34
568.423	4.31
568.764	4.4
569.105	4.44
569.447	4.31
569.788	4.58
570.129	4.54
570.47	4.59
570.811	4.67
571.151	4.51
571.492	4.42
571.833	4.5
572.174	4.53
572.514	4.53
572.855	4.6
573.195	4.38
573.536	4.46
573.876	4.4
574.217	4.36
574.557	4.38
574.898	4.26
575.238	4.58
575.578	4.5
575.918	4.51
576.258	4.42
576.598	4.52
576.938	4.51
577.278	4.48
577.618	4.65
577.958	4.44
578.298	4.37
578.638	4.4
578.977	4.56
579.317	4.45
579.657	4.48
579.996	4.49
580.336	4.51
580.675	4.38
581.014	4.29
581.354	4.56
581.693	4.39
582.032	4.4
582.372	4.42
582.711	4.35
583.05	4.47
583.389	4.51
583.728	4.6
584.067	4.47
584.406	4.5
584.745	4.53
585.083	4.65
585.422	4.59
585.761	4.54
586.1	4.52
586.438	4.68
586.777	4.81
587.115	4.43
587.454	4.62
587.792	4.38
588.13	4.66
588.469	5.02
588.807	4.59
589.145	4.72
589.483	4.38
589.821	4.54
590.159	4.68
590.497	4.74
590.835	4.38
591.173	4.59
591.511	4.54
591.849	4.67
592.187	4.54
592.524	4.67
592.862	4.65
593.2	4.56
593.537	4.62
593.875	4.67
594.212	4.82
594.55	4.64
594.887	4.54
595.224	4.76
595.561	4.83
595.899	4.81
596.236	4.78
596.573	4.56
596.91	4.61
597.247	4.78
597.584	4.64
597.921	4.85
598.258	4.66
598.594	4.53
598.931	4.52
599.268	4.5
599.604	4.65
599.941	4.65
600.277	4.55
600.614	4.71
600.95	4.72
601.287	4.62
601.623	4.65
601.959	4.92
602.296	4.67
602.632	4.46
602.968	4.57
603.304	4.71
603.64	4.63
603.976	4.69
604.312	4.83
604.648	4.59
604.984	4.62
605.319	4.48
605.655	4.45
605.991	4.68
606.326	4.54
606.662	4.67
606.998	4.56
607.333	4.76
607.668	4.61
608.004	4.64
608.339	4.79
608.674	4.81
609.01	4.75
609.345	4.75
609.68	4.74
610.015	4.94
610.35	4.56
610.685	4.44
611.02	4.64
611.355	4.61
611.689	4.56
612.024	4.71
612.359	4.72
612.694	4.77
613.028	4.74
613.363	4.83
613.697	4.45
614.032	4.92
614.366	4.91
614.7	4.81
615.035	4.81
615.369	5.07
615.703	4.63
616.037	4.97
616.371	4.57
616.705	4.89
617.039	5.28
617.373	4.72
617.707	4.7
618.041	4.69
618.375	4.83
618.709	5.14
619.042	5.01
619.376	4.92
619.71	4.75
620.043	4.76
620.377	4.96
620.71	5.16
621.043	4.9
621.377	5.09
621.71	5.11
622.043	4.73
622.376	4.93
622.709	4.61
623.043	4.97
623.376	4.86
623.709	4.99
624.041	4.76
624.374	4.9
624.707	4.78
625.04	4.67
625.373	5.06
625.705	4.78
626.038	4.69
626.37	4.88
626.703	5.31
627.035	4.85
627.368	4.79
627.7	4.95
628.032	4.85
628.365	4.68
628.697	4.73
629.029	5
629.361	4.89
629.693	5.01
630.025	4.62
630.357	4.87
630.689	4.61
631.021	4.4
631.353	4.88
631.684	4.6
632.016	4.8
632.348	4.94
632.679	4.81
633.011	4.79
633.342	5.13
633.674	5.35
634.005	4.82
634.336	5.15
634.668	5.16
634.999	4.61
635.33	4.83
635.661	4.93
635.992	5.02
636.323	4.89
636.654	5.07
636.985	4.44
637.316	5.05
637.647	4.83
637.977	4.96
638.308	4.88
638.639	4.96
638.969	4.77
639.3	4.8
639.63	5.03
639.961	5.2
640.291	4.84
640.622	4.99
640.952	5.34
641.282	4.75
641.612	4.98
641.943	4.98
642.273	4.84
642.603	4.93
642.933	4.55
643.263	4.99
643.592	4.76
643.922	4.5
644.252	5.26
644.582	5.27
644.911	4.99
645.241	5.16
645.571	4.9
645.9	5.33
646.23	4.44
646.559	4.7
646.888	5.24
647.218	4.96
647.547	5.17
647.876	5.06
648.205	4.92
648.534	4.83
648.863	4.8
649.192	4.91
649.521	5.22
649.85	4.59
650.179	5.12
650.508	4.75
650.837	5.02
651.165	5.19
651.494	5.01
651.822	5.4
652.151	4.91
652.479	4.85
652.808	5.18
653.136	5.23
653.465	4.66
653.793	4.53
654.121	4.98
654.449	5.5
654.777	4.88
655.105	4.62
655.433	4.95
655.761	4.47
656.089	4.98
656.417	4.95
656.745	4.79
657.073	5.27
657.4	5.26
657.728	5.21
658.056	4.99
658.383	5.3
658.711	4.69
659.038	4.65
659.365	4.81
659.693	4.85
660.02	4.97
660.347	5.41
660.674	5.11
661.001	4.9
661.329	5.27
661.656	5.09
661.982	5.18
662.309	5.58
662.636	5
662.963	5.08
663.29	5.24
663.616	5
663.943	5.1
664.27	5.26
664.596	5.23
664.923	4.91
665.249	4.81
665.576	5.19
665.902	5.12
666.228	5.32
666.554	4.89
666.881	5.08
667.207	5.7
667.533	5.62
667.859	4.79
668.185	5.58
668.511	5.65
668.837	5.31
669.162	5.29
669.488	5.19
669.814	5.41
670.139	5.58
670.465	5.58
670.791	5.21
671.116	5.53
671.442	5.23
671.767	5.06
672.092	4.96
672.418	5.93
672.743	5.45
673.068	5.11
673.393	5.5
673.718	5.08
674.043	5.59
674.368	4.71
674.693	5.7
675.018	5.52
675.343	5.88
675.667	4.71
675.992	5.25
676.317	5.42
676.641	5
676.966	5.4
677.29	5.12
677.615	4.95
677.939	5.27
678.264	5.12
678.588	5.45
678.912	5.42
679.236	5.58
679.56	4.75
679.885	5.41
680.209	5.36
680.532	5.18
680.856	5.5
681.18	5.35
681.504	5.34
681.828	5.84
682.152	5.15
682.475	5.38
682.799	5.53
683.122	5.08
683.446	5.64
683.769	5.49
684.093	4.65
684.416	5.75
684.739	5.08
685.062	5.47
685.386	5.18
685.709	5.26
686.032	5.79
686.355	5.28
686.678	5.03
687.001	5.39
687.324	5.31
687.646	4.88
687.969	5.56
688.292	5.98
688.614	5.58
688.937	6.12
689.26	5.29
689.582	4.99
689.904	5.73
690.227	5.43
690.549	5.83
690.871	5.92
691.194	5.29
691.516	6.11
691.838	5.88
692.16	5.36
692.482	5.75
692.804	5.67
