Data from 0013_crown_Reflection__0__10.txt Node

Date: Mon Oct 17 14:29:49 CDT 2022
User: ToomeyLab
Spectrometer: FLMS14357
Trigger mode: 0
Integration Time (sec): 1.000000E-2
Scans to average: 100
Electric dark correction enabled: true
Nonlinearity correction enabled: false
Boxcar width: 0
XAxis mode: Wavelengths
Number of Pixels in Spectrum: 2048
>>>>>Begin Spectral Data<<<<<
189.047	2754.79
189.435	2754.79
189.823	2754.79
190.211	-4.98
190.599	398.94
190.987	-39.39
191.375	-1.28
191.763	428.6
192.151	16.2
192.538	124.96
192.926	-52.14
193.314	79.13
193.702	-280.99
194.089	64.75
194.477	46.82
194.864	148.27
195.252	-84.06
195.639	70.8
196.027	150.67
196.414	30.65
196.801	42.81
197.189	82.89
197.576	123.4
197.963	50.07
198.351	-248.96
198.738	24.74
199.125	-3.16
199.512	-88.99
199.899	-8.96
200.286	19.19
200.673	12.43
201.06	4.23
201.447	23.31
201.833	42.27
202.22	30.35
202.607	-6.08
202.994	-26.57
203.38	-18.94
203.767	-3.31
204.154	22.72
204.54	-22.76
204.927	18.23
205.313	-11.17
205.699	10.61
206.086	-3.29
206.472	17.19
206.858	-5.62
207.245	26.7
207.631	28.38
208.017	41.12
208.403	29.64
208.789	7.46
209.175	30.7
209.561	-3.12
209.947	-42.09
210.333	37.38
210.719	13.65
211.105	-1.16
211.491	-20.07
211.876	-13.5
212.262	1.01
212.648	-3.52
213.034	-21.74
213.419	19.08
213.805	1.42
214.19	-3.99
214.576	-0.37
214.961	-20.73
215.346	0.67
215.732	-15.78
216.117	15.38
216.502	0.5
216.888	-10.49
217.273	9.57
217.658	19.11
218.043	8.91
218.428	-19.07
218.813	5.74
219.198	6.84
219.583	9.98
219.968	1.54
220.353	-1.91
220.738	8.84
221.122	4.26
221.507	-6.12
221.892	6.27
222.276	-6.89
222.661	-0.18
223.046	3.15
223.43	4.75
223.815	5.42
224.199	9.1
224.583	1.47
224.968	-3.04
225.352	-5.36
225.736	5.39
226.121	-4.24
226.505	1.05
226.889	4.31
227.273	4.01
227.657	10.93
228.041	8.8
228.425	7.25
228.809	4.97
229.193	5.3
229.577	4.85
229.961	5.65
230.344	4.77
230.728	4.45
231.112	4.59
231.495	5.32
231.879	4.67
232.263	5.91
232.646	5.79
233.03	5.47
233.413	3.63
233.797	5.46
234.18	7.06
234.563	3.48
234.946	6.28
235.33	5.36
235.713	5.31
236.096	5.95
236.479	3.5
236.862	4.71
237.245	5.26
237.628	4.95
238.011	5
238.394	5.14
238.777	5.41
239.16	4.55
239.543	4.3
239.925	5.49
240.308	4.57
240.691	4.84
241.073	5.97
241.456	4.61
241.838	4.56
242.221	3.56
242.603	4.09
242.986	3.83
243.368	4.93
243.75	4.34
244.133	4.89
244.515	4.83
244.897	4.77
245.279	4.64
245.661	5.15
246.043	5.02
246.425	4.39
246.807	3.93
247.189	4.92
247.571	4.58
247.953	4.51
248.335	4.31
248.717	4.53
249.098	4.74
249.48	4.69
249.862	4.28
250.243	4.33
250.625	4.71
251.006	4.31
251.388	5.04
251.769	4.37
252.151	5.25
252.532	3.96
252.913	5.08
253.295	4.23
253.676	4.94
254.057	4.94
254.438	4.41
254.819	5.06
255.2	5.35
255.581	5.63
255.962	5.4
256.343	4.13
256.724	3.72
257.105	4.57
257.486	3.68
257.867	4.13
258.247	4.88
258.628	4.97
259.009	4.89
259.389	4.47
259.77	4.39
260.15	4.17
260.531	4.1
260.911	4.26
261.292	4.46
261.672	4.33
262.052	4.17
262.432	4.53
262.813	4.41
263.193	4.72
263.573	4.43
263.953	4.25
264.333	4.47
264.713	3.96
265.093	4.42
265.473	3.98
265.853	4.75
266.233	5.25
266.612	4.14
266.992	5.25
267.372	4.31
267.752	4.89
268.131	4.65
268.511	4.25
268.89	4.43
269.27	4.18
269.649	4.81
270.029	4.27
270.408	4.64
270.787	4.26
271.167	4.28
271.546	4.38
271.925	4.33
272.304	4.23
272.683	4.49
273.062	3.97
273.441	3.96
273.82	4.08
274.199	4.25
274.578	4.28
274.957	3.84
275.336	4.33
275.715	4.26
276.093	3.66
276.472	3.78
276.851	4.18
277.229	3.79
277.608	4.22
277.986	4.12
278.365	4.7
278.743	4.23
279.122	3.76
279.5	4.32
279.878	4.28
280.257	4.16
280.635	4.37
281.013	3.99
281.391	3.9
281.769	4.27
282.147	4.31
282.525	3.77
282.903	3.63
283.281	3.84
283.659	4.02
284.037	3.88
284.415	4.1
284.792	4.04
285.17	3.62
285.548	4.04
285.925	4.22
286.303	3.74
286.68	3.88
287.058	4.26
287.435	4.26
287.813	4.02
288.19	4.22
288.567	4.07
288.945	4.11
289.322	4.59
289.699	4.05
290.076	3.94
290.453	4.1
290.83	3.92
291.207	4.01
291.584	4.02
291.961	3.68
292.338	3.96
292.715	3.7
293.092	4.04
293.469	4.32
293.845	3.65
294.222	3.84
294.599	3.93
294.975	3.4
295.352	3.58
295.728	3.93
296.105	3.44
296.481	3.92
296.858	3.79
297.234	3.89
297.61	3.56
297.986	3.34
298.363	3.57
298.739	3.97
299.115	3.72
299.491	4.02
299.867	3.91
300.243	3.9
300.619	3.64
300.995	3.8
301.371	3.42
301.746	4.06
302.122	3.42
302.498	3.87
302.874	3.83
303.249	3.88
303.625	3.97
304	3.79
304.376	4.1
304.751	4.07
305.127	3.71
305.502	3.66
305.878	3.8
306.253	3.54
306.628	3.76
307.003	3.7
307.378	3.73
307.754	3.43
308.129	3.56
308.504	3.8
308.879	3.46
309.254	3.92
309.629	3.57
310.003	4.16
310.378	3.92
310.753	3.49
311.128	3.76
311.502	3.58
311.877	3.71
312.252	3.75
312.626	3.71
313.001	3.49
313.375	3.67
313.75	3.47
314.124	3.76
314.498	3.32
314.873	3.47
315.247	3.05
315.621	3.87
315.995	3.17
316.369	3.67
316.743	3.48
317.117	4.1
317.491	3.73
317.865	3.33
318.239	3.99
318.613	3.73
318.987	3.38
319.361	3.35
319.734	3.69
320.108	3.12
320.482	3.74
320.855	3.33
321.229	3.29
321.602	3.16
321.976	3.01
322.349	3.85
322.723	3.37
323.096	3.37
323.469	3.48
323.843	2.98
324.216	3.56
324.589	3.59
324.962	3.01
325.335	3.49
325.708	3.61
326.081	3.51
326.454	3.48
326.827	3.44
327.2	3.23
327.573	3.06
327.945	3.39
328.318	3.39
328.691	3.38
329.063	3.64
329.436	3.32
329.809	3.07
330.181	3.47
330.553	3.1
330.926	3.82
331.298	3.53
331.671	3.7
332.043	3.49
332.415	3.55
332.787	3.65
333.159	3.45
333.532	3.24
333.904	3.22
334.276	3.2
334.648	3.55
335.02	3.67
335.391	3.34
335.763	3.43
336.135	3.75
336.507	3.35
336.879	3.65
337.25	3.8
337.622	3.2
337.993	3.66
338.365	3.95
338.736	3.35
339.108	3.37
339.479	3.02
339.851	3.78
340.222	3.15
340.593	3.59
340.964	3.4
341.336	3.59
341.707	3.64
342.078	3.75
342.449	3.2
342.82	3.27
343.191	3.43
343.562	3.22
343.933	3.37
344.303	3.31
344.674	3.77
345.045	3.26
345.416	3.63
345.786	3.53
346.157	3.56
346.527	3.42
346.898	3.72
347.268	3.81
347.639	3.31
348.009	3.67
348.38	3.54
348.75	3.13
349.12	3.36
349.49	3.3
349.861	3.66
350.231	3.33
350.601	3.19
350.971	3.67
351.341	3.37
351.711	3.57
352.081	3.82
352.45	3.5
352.82	3.8
353.19	3.23
353.56	3.23
353.929	3.27
354.299	3.36
354.669	3.67
355.038	3.77
355.408	3.32
355.777	3.18
356.147	3.39
356.516	3.43
356.885	3.75
357.254	3.61
357.624	3.62
357.993	3.25
358.362	3.37
358.731	2.92
359.1	3.45
359.469	3.46
359.838	3.58
360.207	3.58
360.576	3.44
360.945	3.89
361.314	3.9
361.682	3.6
362.051	3.47
362.42	3.39
362.788	3.53
363.157	3.5
363.525	3.44
363.894	3.63
364.262	3.61
364.631	3.74
364.999	3.54
365.367	3.41
365.735	3.77
366.104	3.43
366.472	3.34
366.84	3.48
367.208	3.61
367.576	3.48
367.944	3.35
368.312	3.62
368.68	3.68
369.048	3.62
369.416	3.59
369.783	3.43
370.151	3.34
370.519	3.4
370.886	3.72
371.254	3.55
371.621	3.57
371.989	3.87
372.356	3.68
372.724	3.58
373.091	3.51
373.458	3.5
373.826	3.94
374.193	3.8
374.56	3.81
374.927	3.73
375.294	3.3
375.661	3.68
376.028	3.88
376.395	3.49
376.762	3.35
377.129	3.37
377.496	3.37
377.863	3.33
378.229	3.69
378.596	3.51
378.963	3.53
379.329	3.46
379.696	3.53
380.062	3.73
380.429	3.46
380.795	3.77
381.161	3.75
381.528	3.57
381.894	3.51
382.26	3.58
382.626	3.58
382.993	3.71
383.359	3.7
383.725	3.65
384.091	3.88
384.457	3.2
384.823	3.23
385.188	3.38
385.554	3.68
385.92	3.86
386.286	3.65
386.651	3.85
387.017	3.49
387.383	3.84
387.748	3.68
388.114	3.52
388.479	3.92
388.845	3.8
389.21	3.69
389.575	3.78
389.94	3.93
390.306	3.79
390.671	4.26
391.036	3.66
391.401	3.88
391.766	3.58
392.131	3.72
392.496	3.75
392.861	3.69
393.226	3.7
393.591	3.72
393.956	3.68
394.32	3.85
394.685	3.64
395.05	3.83
395.414	3.74
395.779	3.7
396.143	3.77
396.508	3.76
396.872	3.59
397.236	3.64
397.601	3.78
397.965	3.92
398.329	3.96
398.694	3.89
399.058	3.7
399.422	3.81
399.786	3.89
400.15	3.84
400.514	3.75
400.878	3.67
401.242	3.66
401.605	3.9
401.969	3.96
402.333	3.76
402.697	3.63
403.06	3.56
403.424	3.83
403.787	3.73
404.151	3.79
404.514	3.84
404.878	3.71
405.241	3.8
405.604	3.82
405.968	3.82
406.331	3.74
406.694	3.59
407.057	3.73
407.42	3.69
407.783	3.8
408.146	3.9
408.509	3.88
408.872	3.66
409.235	3.8
409.598	3.81
409.961	3.69
410.323	3.79
410.686	3.74
411.049	3.68
411.411	3.97
411.774	3.87
412.136	3.71
412.499	4.03
412.861	3.97
413.223	3.98
413.586	3.74
413.948	3.72
414.31	3.98
414.672	3.84
415.035	3.9
415.397	3.97
415.759	3.91
416.121	3.77
416.483	4.03
416.845	3.98
417.206	3.73
417.568	3.89
417.93	3.91
418.292	4.1
418.653	3.8
419.015	3.95
419.377	3.85
419.738	3.68
420.1	4
420.461	3.72
420.822	3.91
421.184	3.83
421.545	3.76
421.906	3.84
422.267	3.82
422.629	3.79
422.99	3.79
423.351	3.88
423.712	3.84
424.073	3.85
424.434	3.82
424.795	3.89
425.155	3.95
425.516	3.84
425.877	3.75
426.238	3.7
426.598	3.78
426.959	3.83
427.32	3.87
427.68	3.78
428.041	3.75
428.401	3.99
428.761	3.91
429.122	4.08
429.482	3.9
429.842	3.83
430.202	3.83
430.563	3.91
430.923	3.96
431.283	3.94
431.643	3.93
432.003	3.84
432.363	4.02
432.722	3.98
433.082	3.93
433.442	3.97
433.802	4.08
434.161	3.96
434.521	4.01
434.881	3.96
435.24	3.82
435.6	4.04
435.959	3.95
436.319	4.09
436.678	3.92
437.037	4.04
437.396	3.94
437.756	4.09
438.115	4.01
438.474	3.95
438.833	3.71
439.192	4.02
439.551	3.85
439.91	3.96
440.269	4.02
440.628	3.89
440.987	4.04
441.345	3.87
441.704	3.97
442.063	3.86
442.421	4.03
442.78	3.89
443.138	4.01
443.497	3.93
443.855	4.09
444.214	4
444.572	3.92
444.93	4.1
445.288	3.87
445.647	4
446.005	4.17
446.363	4.09
446.721	3.85
447.079	3.88
447.437	4.01
447.795	3.99
448.153	3.98
448.51	3.82
448.868	3.99
449.226	3.98
449.584	4.06
449.941	3.98
450.299	3.97
450.656	3.98
451.014	4.07
451.371	4.14
451.729	4.09
452.086	4.09
452.443	4.21
452.801	4.08
453.158	4.09
453.515	4
453.872	4.05
454.229	4.04
454.586	4.01
454.943	4.06
455.3	4.02
455.657	4.06
456.014	4.17
456.371	4.19
456.727	4.04
457.084	4.01
457.441	4.18
457.797	4.11
458.154	4.11
458.51	4.04
458.867	4.13
459.223	4.05
459.58	3.99
459.936	3.99
460.292	4.07
460.648	4.13
461.005	3.94
461.361	3.99
461.717	3.91
462.073	3.97
462.429	3.98
462.785	4.12
463.141	4.12
463.496	4.1
463.852	4.11
464.208	4.19
464.564	4.06
464.919	4.23
465.275	4.13
465.631	4.24
465.986	4.06
466.342	4.14
466.697	4.19
467.052	4.09
467.408	4.19
467.763	3.97
468.118	4.16
468.473	4.23
468.829	4.2
469.184	4.05
469.539	4.08
469.894	4.03
470.249	4.1
470.603	4.15
470.958	4.27
471.313	4.13
471.668	4.16
472.023	3.99
472.377	4.25
472.732	4.05
473.086	4.3
473.441	4.2
473.795	3.98
474.15	4.11
474.504	4.17
474.859	4.22
475.213	4.12
475.567	4.35
475.921	4.11
476.275	4.06
476.63	4.24
476.984	4.13
477.338	4.16
477.692	4.08
478.045	4.14
478.399	4.2
478.753	4.04
479.107	4.18
479.461	4.14
479.814	4.18
480.168	4.2
480.521	4.1
480.875	4.2
481.228	4.12
481.582	4.26
481.935	4.18
482.289	4.07
482.642	4.09
482.995	4.2
483.348	4.17
483.701	4.21
484.055	4.03
484.408	4.12
484.761	4.02
485.114	3.92
485.466	3.83
485.819	3.81
486.172	3.88
486.525	3.92
486.878	4
487.23	4.04
487.583	4.08
487.936	4.06
488.288	4.01
488.641	3.96
488.993	3.92
489.345	3.87
489.698	3.93
490.05	3.95
490.402	4
490.754	4.04
491.107	4.09
491.459	4.1
491.811	4.2
492.163	4.22
492.515	4.15
492.866	4.01
493.218	3.93
493.57	4.02
493.922	3.98
494.274	4
494.625	4.03
494.977	4.13
495.328	4.22
495.68	4.28
496.031	4.17
496.383	4.18
496.734	4.26
497.086	4.17
497.437	4.17
497.788	4.2
498.139	4.11
498.49	4.11
498.842	4.09
499.193	4.06
499.544	4.15
499.894	4.13
500.245	4.1
500.596	4.13
500.947	4.25
501.298	4.24
501.648	4.15
501.999	4.08
502.35	4.24
502.7	4.2
503.051	4.26
503.401	4.28
503.752	4.32
504.102	4.17
504.452	4.14
504.803	4.28
505.153	4.19
505.503	4.2
505.853	4.07
506.203	4.15
506.553	4.27
506.903	4.29
507.253	4.18
507.603	4.2
507.953	4.37
508.303	4.17
508.652	4.19
509.002	4.34
509.352	4.13
509.701	4.16
510.051	4.21
510.4	4.08
510.75	4.16
511.099	4.17
511.449	4.16
511.798	4.16
512.147	4.14
512.496	4.2
512.846	4.2
513.195	4.12
513.544	4.2
513.893	4.17
514.242	4.12
514.591	4.15
514.939	4.12
515.288	4.12
515.637	4.29
515.986	4.18
516.334	4.23
516.683	4.22
517.032	4.28
517.38	4.23
517.729	4.26
518.077	4.25
518.426	4.17
518.774	4.28
519.122	4.25
519.47	4.15
519.819	4.23
520.167	4.13
520.515	4.11
520.863	4.13
521.211	4.17
521.559	4.17
521.907	4.28
522.255	4.17
522.602	4.19
522.95	4.22
523.298	4.24
523.645	4.13
523.993	4.27
524.341	4.38
524.688	4.2
525.036	4.23
525.383	4.32
525.73	4.18
526.078	4.28
526.425	4.25
526.772	4.18
527.119	4.2
527.466	4.04
527.814	4.18
528.161	4.13
528.508	4.16
528.854	4.17
529.201	4.13
529.548	4.15
529.895	4.01
530.242	3.93
530.588	3.93
530.935	3.97
531.282	4.03
531.628	4.07
531.975	4.14
532.321	4.11
532.667	4.23
533.014	4.17
533.36	4.18
533.706	4.22
534.052	4.15
534.399	4.19
534.745	4.07
535.091	4.03
535.437	4.08
535.783	4.1
536.129	4.19
536.474	4.24
536.82	4.22
537.166	4.24
537.512	4.25
537.857	4.25
538.203	4.22
538.549	4.09
538.894	4.19
539.239	4.22
539.585	4.11
539.93	4.17
540.276	4.23
540.621	4.18
540.966	4.16
541.311	4.16
541.656	4.36
542.001	4.12
542.346	4.19
542.691	4.2
543.036	3.97
543.381	3.97
543.726	4.07
544.071	4.1
544.415	4.19
544.76	4.13
545.105	4.17
545.449	4.17
545.794	4.19
546.138	4.18
546.483	4.27
546.827	4.27
547.171	4.1
547.516	4.18
547.86	4.26
548.204	4.15
548.548	4.21
548.892	4.18
549.236	4.26
549.58	4.18
549.924	4.28
550.268	4.36
550.612	4.21
550.956	4.27
551.3	4.2
551.643	4.42
551.987	4.34
552.33	4.1
552.674	4.25
553.017	4.45
553.361	4.29
553.704	4.1
554.048	4.14
554.391	4.28
554.734	4.28
555.077	4.25
555.42	4.2
555.764	4.31
556.107	4.25
556.45	4.34
556.793	4.28
557.135	4.36
557.478	4.4
557.821	4.32
558.164	4.16
558.507	4.13
558.849	4.24
559.192	4.23
559.534	4.34
559.877	4.11
560.219	4.02
560.562	3.93
560.904	4.08
561.246	4.29
561.589	4.38
561.931	4.12
562.273	4.38
562.615	4.05
562.957	4.38
563.299	4.25
563.641	4.22
563.983	4.12
564.325	4.44
564.667	4.25
565.008	4.48
565.35	4.28
565.692	4.41
566.033	4.36
566.375	4.2
566.716	4.37
567.058	4.16
567.399	4.16
567.741	4.25
568.082	4.21
568.423	4.31
568.764	4.25
569.105	4.21
569.447	4.1
569.788	4.4
570.129	4.47
570.47	4.28
570.811	4.36
571.151	4.27
571.492	4.33
571.833	4.25
572.174	4.44
572.514	4.49
572.855	4.18
573.195	4.33
573.536	4.12
573.876	4.14
574.217	4.21
574.557	4.11
574.898	4.05
575.238	4.35
575.578	4.31
575.918	4.3
576.258	4.36
576.598	4.25
576.938	4.32
577.278	4.3
577.618	4.41
577.958	4.23
578.298	4.26
578.638	4.25
578.977	4.48
579.317	4.14
579.657	4.2
579.996	4.31
580.336	4.32
580.675	4.31
581.014	4.13
581.354	4.21
581.693	4.1
582.032	4.21
582.372	4.15
582.711	4.38
583.05	4.27
583.389	4.12
583.728	4.18
584.067	4.29
584.406	4.1
584.745	4.17
585.083	4.24
585.422	4.25
585.761	4.24
586.1	4.38
586.438	4.57
586.777	4.24
587.115	4.21
587.454	4.57
587.792	4.48
588.13	4.24
588.469	4.32
588.807	4.22
589.145	4.23
589.483	4.15
589.821	4.11
590.159	4.28
590.497	4.35
590.835	4.26
591.173	4.42
591.511	4.38
591.849	4.13
592.187	4.24
592.524	4.24
592.862	4.27
593.2	4.26
593.537	4.35
593.875	4.38
594.212	4.35
594.55	4.28
594.887	4.12
595.224	4.22
595.561	4.35
595.899	4.34
596.236	4.36
596.573	4.39
596.91	4.26
597.247	4.36
597.584	4.33
597.921	4.24
598.258	4.16
598.594	4.27
598.931	4.19
599.268	4.2
599.604	4.15
599.941	4.26
600.277	4.3
600.614	4.41
600.95	4.3
601.287	4.06
601.623	4.16
601.959	4.24
602.296	4.35
602.632	4
602.968	4.38
603.304	4.09
603.64	4.24
603.976	4.4
604.312	4.45
604.648	4.34
604.984	4.13
605.319	4.1
605.655	4.23
605.991	4.4
606.326	4.1
606.662	4.28
606.998	4.27
607.333	4.34
607.668	4.12
608.004	4.22
608.339	4.22
608.674	4.58
609.01	4.42
609.345	4.41
609.68	4.29
610.015	4.34
610.35	4.17
610.685	4.02
611.02	4.23
611.355	4.27
611.689	4.12
612.024	4.36
612.359	4.29
612.694	4.49
613.028	4.32
613.363	4.58
613.697	4.12
614.032	4.22
614.366	4.33
614.7	4.09
615.035	4.19
615.369	4.39
615.703	4.34
616.037	4.29
616.371	4.42
616.705	4.39
617.039	4.67
617.373	4.46
617.707	4.38
618.041	4.3
618.375	4.09
618.709	4.64
619.042	4.26
619.376	4.19
619.71	4.23
620.043	4.5
620.377	4.42
620.71	4.46
621.043	4.68
621.377	4.46
621.71	4.48
622.043	4.54
622.376	4.27
622.709	4.34
623.043	4.09
623.376	4.05
623.709	4.08
624.041	4.12
624.374	4.42
624.707	4.41
625.04	4.33
625.373	4.27
625.705	4.24
626.038	4.04
626.37	4.13
626.703	4.42
627.035	4.58
627.368	4.55
627.7	4.4
628.032	4.39
628.365	4.01
628.697	4.33
629.029	4.33
629.361	4.16
629.693	4.35
630.025	4.22
630.357	4.24
630.689	4.08
631.021	4.26
631.353	4.03
631.684	4.23
632.016	4.17
632.348	4.58
632.679	4.38
633.011	4.01
633.342	4.28
633.674	4.6
634.005	4.22
634.336	4.09
634.668	4.4
634.999	4.63
635.33	4.04
635.661	4.83
635.992	4.23
636.323	4.31
636.654	4.43
636.985	4.39
637.316	4.54
637.647	4.5
637.977	4.27
638.308	4.48
638.639	4.36
638.969	4.4
639.3	4.26
639.63	4.59
639.961	4.43
640.291	4.45
640.622	4.45
640.952	4.41
641.282	4.82
641.612	4.25
641.943	4.5
642.273	4.44
642.603	4.39
642.933	4.43
643.263	4.66
643.592	3.98
643.922	4.2
644.252	4.36
644.582	4.43
644.911	4.51
645.241	4.79
645.571	3.96
645.9	4.34
646.23	4.18
646.559	4.22
646.888	4.3
647.218	4.09
647.547	4.61
647.876	4.33
648.205	4.2
648.534	4.3
648.863	4.34
649.192	4.55
649.521	4.53
649.85	4.48
650.179	4.66
650.508	4.16
650.837	4.41
651.165	4.47
651.494	4.54
651.822	4.36
652.151	4.21
652.479	4.13
652.808	4.54
653.136	4.39
653.465	4
653.793	4.28
654.121	4.4
654.449	3.92
654.777	4.2
655.105	4.4
655.433	4.24
655.761	4.41
656.089	4.15
656.417	4.34
656.745	4.27
657.073	4.17
657.4	4.64
657.728	4.43
658.056	3.64
658.383	4.54
658.711	4.28
659.038	4.3
659.365	4.02
659.693	4.38
660.02	3.79
660.347	4.66
660.674	4
661.001	4.29
661.329	4.64
661.656	4.33
661.982	4.3
662.309	4.73
662.636	4.39
662.963	4.39
663.29	4.12
663.616	4.34
663.943	4.19
664.27	4.22
664.596	3.84
664.923	4.37
665.249	4.26
665.576	4.2
665.902	4.46
666.228	4.76
666.554	4.71
666.881	4.65
667.207	4.7
667.533	4.49
667.859	4.74
668.185	4.32
668.511	4.25
668.837	4.69
669.162	4.71
669.488	4.66
669.814	4.73
670.139	4.12
670.465	4.08
670.791	4.49
671.116	4.37
671.442	3.99
671.767	3.97
672.092	3.78
672.418	4.75
672.743	4.2
673.068	4.61
673.393	4
673.718	4.42
674.043	4.71
674.368	4.35
674.693	4.73
675.018	4.47
675.343	4.88
675.667	4.67
675.992	4.49
676.317	4.31
676.641	4.64
676.966	4.43
677.29	4.6
677.615	4.2
677.939	4.6
678.264	4.1
678.588	3.98
678.912	3.84
679.236	4.69
679.56	3.91
679.885	4.41
680.209	4.59
680.532	4.47
680.856	4.71
681.18	4.48
681.504	5.01
681.828	4.65
682.152	4.21
682.475	4.36
682.799	4.44
683.122	4.03
683.446	4.3
683.769	4.42
684.093	4.15
684.416	4.75
684.739	4.05
685.062	4.37
685.386	4.14
685.709	4.37
686.032	4.75
686.355	4.63
686.678	3.91
687.001	3.68
687.324	4.36
687.646	3.95
687.969	4.53
688.292	4.79
688.614	4.6
688.937	4.75
689.26	4.52
689.582	4.14
689.904	4.85
690.227	4.71
690.549	4.68
690.871	4.59
691.194	4.48
691.516	4.27
691.838	4.69
692.16	5.29
692.482	4.46
692.804	4.09
693.126	4.46
