Data from 0013_crown_Reflection__4__14.txt Node

Date: Mon Oct 17 14:30:35 CDT 2022
User: ToomeyLab
Spectrometer: FLMS14357
Trigger mode: 0
Integration Time (sec): 1.000000E-2
Scans to average: 100
Electric dark correction enabled: true
Nonlinearity correction enabled: false
Boxcar width: 0
XAxis mode: Wavelengths
Number of Pixels in Spectrum: 2048
>>>>>Begin Spectral Data<<<<<
189.047	5882.19
189.435	5882.19
189.823	5882.19
190.211	-23.85
190.599	40.12
190.987	117.88
191.375	2.99
191.763	-16.07
192.151	4.79
192.538	-631.98
192.926	-376.77
193.314	70.3
193.702	-506.99
194.089	-265.02
194.477	86.79
194.864	-61.62
195.252	-288.23
195.639	-11.47
196.027	240.81
196.414	18.61
196.801	-779.91
197.189	-52.84
197.576	275.44
197.963	79.19
198.351	-288.04
198.738	34.95
199.125	5.43
199.512	-90.57
199.899	15.55
200.286	15.47
200.673	4.82
201.06	-35.82
201.447	-3.26
201.833	21.18
202.22	-6.42
202.607	-55.56
202.994	-23.48
203.38	11.64
203.767	-12.21
204.154	15.88
204.54	-10.68
204.927	-23
205.313	-24.67
205.699	4.21
206.086	-13.12
206.472	24.75
206.858	-12.57
207.245	30.76
207.631	34.43
208.017	13.45
208.403	23.98
208.789	1.09
209.175	24.84
209.561	-57.2
209.947	-4.6
210.333	31.52
210.719	5.87
211.105	21.72
211.491	-1.84
211.876	-38.19
212.262	4.79
212.648	-11.82
213.034	-3.03
213.419	11.1
213.805	7.89
214.19	6.96
214.576	-4.39
214.961	-9.64
215.346	-1.2
215.732	-2.45
216.117	-14.64
216.502	4.55
216.888	-10
217.273	17.51
217.658	4.96
218.043	-9.2
218.428	1.72
218.813	15.4
219.198	-3.44
219.583	-10.13
219.968	15.11
220.353	1.22
220.738	-24.88
221.122	4.28
221.507	4.42
221.892	3.04
222.276	9.13
222.661	-1.56
223.046	4.72
223.43	2.07
223.815	-1.02
224.199	4.45
224.583	-6.15
224.968	-9.12
225.352	-20.72
225.736	6.57
226.121	0.52
226.505	2.27
226.889	3.68
227.273	1.25
227.657	9.49
228.041	4.99
228.425	0.07
228.809	2.12
229.193	3.22
229.577	3.33
229.961	5.06
230.344	3.52
230.728	4.02
231.112	3.79
231.495	4
231.879	4.39
232.263	3.61
232.646	4.06
233.03	3.7
233.413	1.17
233.797	4.51
234.18	3.83
234.563	4.87
234.946	4.61
235.33	3.05
235.713	3.73
236.096	4.13
236.479	2.78
236.862	4.59
237.245	3.89
237.628	4.73
238.011	3.32
238.394	4.46
238.777	4.22
239.16	3.19
239.543	3.61
239.925	4.36
240.308	2.84
240.691	3.26
241.073	4.62
241.456	3.96
241.838	4.07
242.221	2.13
242.603	4.43
242.986	3.01
243.368	4.08
243.75	3.88
244.133	3.52
244.515	3.95
244.897	3.89
245.279	4.76
245.661	4.02
246.043	4.46
246.425	2.78
246.807	3.76
247.189	3.67
247.571	3.71
247.953	3.72
248.335	4
248.717	3.8
249.098	3.91
249.48	3.75
249.862	3.86
250.243	3.72
250.625	3.78
251.006	3.5
251.388	3.96
251.769	3.74
252.151	3.27
252.532	4
252.913	4.08
253.295	2.93
253.676	3.87
254.057	4.12
254.438	3.8
254.819	4.38
255.2	4.18
255.581	3.98
255.962	3.17
256.343	3.16
256.724	3.92
257.105	3.06
257.486	3
257.867	3.18
258.247	3.69
258.628	3.55
259.009	3.71
259.389	3.82
259.77	4.1
260.15	3.48
260.531	3.75
260.911	3.4
261.292	3.82
261.672	3.62
262.052	3.52
262.432	3.82
262.813	3.8
263.193	3.49
263.573	3.65
263.953	3.54
264.333	3.3
264.713	3.22
265.093	3.24
265.473	3.35
265.853	3.48
266.233	4.89
266.612	3.44
266.992	4.5
267.372	3.84
267.752	3.68
268.131	4.03
268.511	3.67
268.89	3.66
269.27	3.76
269.649	3.71
270.029	3.56
270.408	4.01
270.787	3.31
271.167	3.31
271.546	3.34
271.925	3.55
272.304	3.74
272.683	3.79
273.062	3.54
273.441	3.44
273.82	3.57
274.199	3.52
274.578	3.74
274.957	3.49
275.336	3.57
275.715	3.59
276.093	3.32
276.472	3.31
276.851	3.53
277.229	3.34
277.608	3.76
277.986	3.17
278.365	3.35
278.743	3.59
279.122	3.37
279.5	3.59
279.878	2.9
280.257	3.36
280.635	3.35
281.013	3.18
281.391	3.29
281.769	3.58
282.147	3.62
282.525	3.42
282.903	2.7
283.281	3.15
283.659	3.11
284.037	3.05
284.415	3.45
284.792	3.42
285.17	2.79
285.548	2.79
285.925	3.58
286.303	3.34
286.68	3.52
287.058	3.61
287.435	3.42
287.813	3.3
288.19	3.23
288.567	3.21
288.945	3.32
289.322	4.03
289.699	3.71
290.076	3.22
290.453	3.14
290.83	3.34
291.207	3.12
291.584	3.31
291.961	3.17
292.338	3.26
292.715	3.15
293.092	3.37
293.469	3.07
293.845	3.38
294.222	3.14
294.599	3.46
294.975	3.03
295.352	3.08
295.728	3.22
296.105	3.32
296.481	3.58
296.858	3.45
297.234	3.1
297.61	2.65
297.986	2.98
298.363	3.17
298.739	3.36
299.115	3.07
299.491	3.12
299.867	3.09
300.243	3.25
300.619	3.39
300.995	3.37
301.371	3.23
301.746	3.15
302.122	2.78
302.498	3.14
302.874	3.2
303.249	3.39
303.625	3.52
304	3.31
304.376	3.22
304.751	3.57
305.127	2.93
305.502	3.19
305.878	3.46
306.253	2.77
306.628	3.11
307.003	3.1
307.378	3.21
307.754	2.88
308.129	3.06
308.504	3.44
308.879	3.78
309.254	3.3
309.629	3.12
310.003	3.05
310.378	2.79
310.753	3.09
311.128	3.28
311.502	3.27
311.877	3.07
312.252	2.87
312.626	2.98
313.001	2.96
313.375	3.03
313.75	3.03
314.124	3
314.498	3.33
314.873	2.78
315.247	3.02
315.621	3.72
315.995	2.9
316.369	3.15
316.743	3.08
317.117	3.24
317.491	3.16
317.865	3.31
318.239	3.66
318.613	2.98
318.987	2.94
319.361	2.38
319.734	3.1
320.108	3.11
320.482	2.89
320.855	2.61
321.229	2.84
321.602	2.83
321.976	3.09
322.349	2.87
322.723	2.58
323.096	2.77
323.469	3.29
323.843	3.08
324.216	2.91
324.589	2.84
324.962	3.26
325.335	2.59
325.708	3.27
326.081	2.94
326.454	2.81
326.827	2.92
327.2	2.67
327.573	2.75
327.945	2.83
328.318	3.02
328.691	2.85
329.063	2.92
329.436	2.77
329.809	2.44
330.181	3.15
330.553	3.03
330.926	2.97
331.298	3.27
331.671	3.47
332.043	2.82
332.415	3.31
332.787	2.81
333.159	3.03
333.532	2.07
333.904	2.71
334.276	2.52
334.648	2.54
335.02	2.81
335.391	3.14
335.763	2.8
336.135	2.67
336.507	3.31
336.879	2.88
337.25	3.27
337.622	2.78
337.993	3.22
338.365	3.22
338.736	2.73
339.108	2.86
339.479	2.86
339.851	2.82
340.222	2.91
340.593	2.88
340.964	3.17
341.336	2.83
341.707	3.04
342.078	3.47
342.449	2.92
342.82	3.09
343.191	3.07
343.562	2.79
343.933	2.94
344.303	3.2
344.674	3.42
345.045	3.18
345.416	3.26
345.786	3.19
346.157	2.93
346.527	2.58
346.898	2.75
347.268	3
347.639	2.73
348.009	2.84
348.38	3.02
348.75	2.84
349.12	2.74
349.49	2.65
349.861	3.02
350.231	3.02
350.601	2.89
350.971	2.84
351.341	2.9
351.711	2.65
352.081	3.16
352.45	3.16
352.82	3.2
353.19	2.75
353.56	2.52
353.929	3.04
354.299	2.89
354.669	2.95
355.038	3.24
355.408	3.34
355.777	2.76
356.147	2.97
356.516	3.01
356.885	2.92
357.254	3.17
357.624	3.12
357.993	3.08
358.362	2.85
358.731	3.1
359.1	3.03
359.469	2.82
359.838	3.14
360.207	3.22
360.576	2.76
360.945	3.18
361.314	3.08
361.682	3.12
362.051	3.13
362.42	2.97
362.788	3.08
363.157	3.14
363.525	3.07
363.894	3.18
364.262	3.16
364.631	3.09
364.999	3.09
365.367	3.05
365.735	3.04
366.104	2.87
366.472	2.82
366.84	3.06
367.208	3.23
367.576	3.05
367.944	2.85
368.312	3.1
368.68	3.13
369.048	3.14
369.416	3.34
369.783	3.1
370.151	3.25
370.519	3.08
370.886	2.97
371.254	2.98
371.621	3.14
371.989	3
372.356	2.87
372.724	3.04
373.091	3.01
373.458	3.09
373.826	3.17
374.193	3.26
374.56	3.05
374.927	3.12
375.294	3.11
375.661	3.12
376.028	3.26
376.395	2.92
376.762	3.5
377.129	3.17
377.496	3.02
377.863	2.94
378.229	3.11
378.596	3.26
378.963	3.14
379.329	3.06
379.696	3.06
380.062	3.13
380.429	2.68
380.795	3.52
381.161	2.86
381.528	2.82
381.894	2.97
382.26	3.23
382.626	3.28
382.993	3.39
383.359	3.26
383.725	3.38
384.091	3.35
384.457	3.04
384.823	3.11
385.188	2.97
385.554	3.04
385.92	3.31
386.286	3.25
386.651	3.21
387.017	2.95
387.383	3.19
387.748	3.18
388.114	3.12
388.479	3.38
388.845	3.62
389.21	3.17
389.575	3.23
389.94	3.26
390.306	3.39
390.671	3.26
391.036	3.37
391.401	3.19
391.766	3.37
392.131	3.45
392.496	3.35
392.861	2.91
393.226	3.38
393.591	3.05
393.956	3.19
394.32	3.2
394.685	3.33
395.05	3.18
395.414	3.23
395.779	3.13
396.143	3.39
396.508	3.16
396.872	3.28
397.236	3.35
397.601	3.25
397.965	3.29
398.329	3.36
398.694	3.21
399.058	3.35
399.422	3.25
399.786	3.31
400.15	3.43
400.514	3.03
400.878	3.3
401.242	3.43
401.605	3.49
401.969	3.47
402.333	3.38
402.697	3.1
403.06	3
403.424	3.28
403.787	3.32
404.151	3.34
404.514	3.66
404.878	3.48
405.241	3.34
405.604	3.46
405.968	3.47
406.331	3.13
406.694	3.47
407.057	3.19
407.42	3.14
407.783	3.49
408.146	3.63
408.509	3.53
408.872	3.44
409.235	3.34
409.598	3.5
409.961	3.29
410.323	3.48
410.686	3.42
411.049	3.32
411.411	3.6
411.774	3.46
412.136	3.31
412.499	3.48
412.861	3.38
413.223	3.44
413.586	3.33
413.948	3.42
414.31	3.29
414.672	3.3
415.035	3.55
415.397	3.4
415.759	3.59
416.121	3.28
416.483	3.48
416.845	3.45
417.206	3.36
417.568	3.46
417.93	3.33
418.292	3.45
418.653	3.47
419.015	3.57
419.377	3.48
419.738	3.22
420.1	3.45
420.461	3.27
420.822	3.52
421.184	3.32
421.545	3.39
421.906	3.5
422.267	3.37
422.629	3.31
422.99	3.31
423.351	3.4
423.712	3.51
424.073	3.44
424.434	3.44
424.795	3.53
425.155	3.52
425.516	3.31
425.877	3.32
426.238	3.29
426.598	3.4
426.959	3.42
427.32	3.51
427.68	3.51
428.041	3.42
428.401	3.54
428.761	3.48
429.122	3.56
429.482	3.49
429.842	3.52
430.202	3.65
430.563	3.49
430.923	3.57
431.283	3.59
431.643	3.38
432.003	3.59
432.363	3.71
432.722	3.62
433.082	3.46
433.442	3.74
433.802	3.5
434.161	3.5
434.521	3.7
434.881	3.45
435.24	3.39
435.6	3.66
435.959	3.5
436.319	3.64
436.678	3.41
437.037	3.65
437.396	3.56
437.756	3.91
438.115	3.44
438.474	3.49
438.833	3.52
439.192	3.58
439.551	3.55
439.91	3.53
440.269	3.52
440.628	3.58
440.987	3.4
441.345	3.52
441.704	3.45
442.063	3.48
442.421	3.53
442.78	3.5
443.138	3.56
443.497	3.6
443.855	3.64
444.214	3.61
444.572	3.61
444.93	3.61
445.288	3.53
445.647	3.69
446.005	3.72
446.363	3.61
446.721	3.48
447.079	3.54
447.437	3.53
447.795	3.51
448.153	3.53
448.51	3.49
448.868	3.61
449.226	3.53
449.584	3.59
449.941	3.64
450.299	3.71
450.656	3.64
451.014	3.69
451.371	3.79
451.729	3.78
452.086	3.69
452.443	3.89
452.801	3.74
453.158	3.81
453.515	3.6
453.872	3.47
454.229	3.56
454.586	3.62
454.943	3.6
455.3	3.56
455.657	3.66
456.014	3.64
456.371	3.75
456.727	3.64
457.084	3.62
457.441	3.7
457.797	3.73
458.154	3.74
458.51	3.66
458.867	3.56
459.223	3.69
459.58	3.59
459.936	3.58
460.292	3.63
460.648	3.69
461.005	3.71
461.361	3.57
461.717	3.6
462.073	3.58
462.429	3.61
462.785	3.64
463.141	3.71
463.496	3.78
463.852	3.72
464.208	3.67
464.564	3.67
464.919	3.7
465.275	3.64
465.631	3.71
465.986	3.75
466.342	3.7
466.697	3.8
467.052	3.72
467.408	3.69
467.763	3.6
468.118	3.74
468.473	3.77
468.829	3.75
469.184	3.73
469.539	3.66
469.894	3.66
470.249	3.78
470.603	3.75
470.958	3.74
471.313	3.64
471.668	3.74
472.023	3.72
472.377	3.9
472.732	3.73
473.086	3.96
473.441	3.79
473.795	3.75
474.15	3.73
474.504	3.81
474.859	3.81
475.213	3.91
475.567	3.86
475.921	3.73
476.275	3.85
476.63	3.66
476.984	3.94
477.338	3.91
477.692	3.78
478.045	3.96
478.399	3.77
478.753	3.83
479.107	3.94
479.461	3.81
479.814	3.77
480.168	3.68
480.521	3.72
480.875	3.8
481.228	3.65
481.582	3.84
481.935	3.85
482.289	3.65
482.642	3.79
482.995	3.83
483.348	3.73
483.701	3.77
484.055	3.71
484.408	3.78
484.761	3.7
485.114	3.57
485.466	3.51
485.819	3.47
486.172	3.53
486.525	3.63
486.878	3.72
487.23	3.74
487.583	3.81
487.936	3.71
488.288	3.75
488.641	3.65
488.993	3.59
489.345	3.55
489.698	3.59
490.05	3.61
490.402	3.64
490.754	3.69
491.107	3.76
491.459	3.83
491.811	3.89
492.163	3.88
492.515	3.79
492.866	3.72
493.218	3.65
493.57	3.64
493.922	3.72
494.274	3.72
494.625	3.85
494.977	3.9
495.328	3.89
495.68	3.87
496.031	3.89
496.383	3.92
496.734	3.87
497.086	3.77
497.437	3.87
497.788	3.91
498.139	3.63
498.49	3.8
498.842	3.82
499.193	3.77
499.544	3.86
499.894	3.84
500.245	3.86
500.596	3.8
500.947	3.91
501.298	3.88
501.648	3.84
501.999	3.76
502.35	4.03
502.7	3.96
503.051	3.97
503.401	3.92
503.752	3.87
504.102	3.81
504.452	3.83
504.803	3.85
505.153	3.97
505.503	3.88
505.853	3.83
506.203	3.91
506.553	3.94
506.903	3.88
507.253	3.88
507.603	3.89
507.953	3.9
508.303	3.87
508.652	3.98
509.002	4
509.352	3.89
509.701	3.88
510.051	3.9
510.4	3.76
510.75	3.84
511.099	3.88
511.449	3.9
511.798	3.87
512.147	3.94
512.496	3.95
512.846	3.87
513.195	3.93
513.544	3.92
513.893	3.84
514.242	3.95
514.591	3.95
514.939	3.89
515.288	3.87
515.637	3.94
515.986	3.92
516.334	4.02
516.683	4.1
517.032	3.99
517.38	3.89
517.729	3.99
518.077	3.92
518.426	3.95
518.774	3.9
519.122	3.83
519.47	3.91
519.819	3.97
520.167	3.9
520.515	3.82
520.863	3.93
521.211	3.92
521.559	3.96
521.907	3.99
522.255	3.99
522.602	3.98
522.95	4.04
523.298	3.82
523.645	3.98
523.993	4.06
524.341	4.1
524.688	3.95
525.036	3.99
525.383	3.98
525.73	3.97
526.078	4.04
526.425	3.89
526.772	3.93
527.119	3.9
527.466	3.83
527.814	3.9
528.161	3.97
528.508	4.01
528.854	3.86
529.201	3.84
529.548	3.98
529.895	3.84
530.242	3.72
530.588	3.7
530.935	3.75
531.282	3.81
531.628	3.89
531.975	3.94
532.321	3.92
532.667	4.03
533.014	3.93
533.36	4.02
533.706	4.03
534.052	3.92
534.399	3.88
534.745	3.76
535.091	3.77
535.437	3.87
535.783	3.91
536.129	3.95
536.474	3.99
536.82	4.07
537.166	4.07
537.512	4.04
537.857	3.97
538.203	3.92
538.549	3.92
538.894	3.9
539.239	4.04
539.585	4.06
539.93	4.06
540.276	4.02
540.621	4.02
540.966	4.02
541.311	4.09
541.656	4.04
542.001	4.05
542.346	3.97
542.691	3.89
543.036	3.77
543.381	3.8
543.726	3.87
544.071	3.9
544.415	3.99
544.76	3.98
545.105	3.9
545.449	3.95
545.794	4.01
546.138	4.07
546.483	4.07
546.827	4.05
547.171	3.89
547.516	3.97
547.86	4.04
548.204	3.98
548.548	4.01
548.892	3.99
549.236	4.09
549.58	4.02
549.924	4
550.268	4.22
550.612	4.14
550.956	4.27
551.3	4.14
551.643	4.14
551.987	4.14
552.33	4.01
552.674	4.15
553.017	4.25
553.361	4.18
553.704	3.93
554.048	3.9
554.391	4.15
554.734	3.99
555.077	4.11
555.42	4.12
555.764	4.17
556.107	4.16
556.45	4.06
556.793	4.08
557.135	4.09
557.478	4.18
557.821	4.12
558.164	4.02
558.507	4.05
558.849	4.08
559.192	4.04
559.534	4.15
559.877	3.95
560.219	3.94
560.562	3.89
560.904	4.19
561.246	4.24
561.589	4.16
561.931	4.04
562.273	4.07
562.615	4.08
562.957	4.2
563.299	4.08
563.641	3.97
563.983	4.17
564.325	4.37
564.667	4.25
565.008	4.21
565.35	4.27
565.692	4.38
566.033	4.22
566.375	4.09
566.716	4.11
567.058	4.1
567.399	4.07
567.741	4.14
568.082	4.15
568.423	4.03
568.764	4.14
569.105	4.15
569.447	4.09
569.788	4.16
570.129	4.13
570.47	4.19
570.811	4.15
571.151	4.13
571.492	4.28
571.833	4.13
572.174	4.22
572.514	4.16
572.855	4.01
573.195	4.09
573.536	4.04
573.876	4.06
574.217	4.18
574.557	4
574.898	4.12
575.238	4.17
575.578	4.24
575.918	4.16
576.258	4.08
576.598	4.01
576.938	4.04
577.278	4.1
577.618	4.15
577.958	4.07
578.298	4.14
578.638	4.11
578.977	4.18
579.317	3.99
579.657	4
579.996	4.09
580.336	4.24
580.675	4.02
581.014	3.89
581.354	3.86
581.693	4.03
582.032	4.06
582.372	3.94
582.711	4.1
583.05	4.07
583.389	4
583.728	4.19
584.067	4.26
584.406	4.12
584.745	4.07
585.083	4.02
585.422	4.13
585.761	3.94
586.1	4.08
586.438	4.17
586.777	3.86
587.115	4.04
587.454	4.32
587.792	4.07
588.13	4.09
588.469	4.21
588.807	4.21
589.145	4.21
589.483	3.91
589.821	4.09
590.159	4.09
590.497	4.28
590.835	4.24
591.173	4.05
591.511	4.22
591.849	4.09
592.187	4.13
592.524	4.05
592.862	4.02
593.2	4.25
593.537	4.31
593.875	4.28
594.212	4.22
594.55	4.3
594.887	4.19
595.224	4.18
595.561	4.07
595.899	4.29
596.236	4.38
596.573	4.16
596.91	4.28
597.247	4.3
597.584	4.1
597.921	4.3
598.258	4.15
598.594	4.1
598.931	3.99
599.268	4.17
599.604	4.17
599.941	4.18
600.277	4.33
600.614	4.21
600.95	4.31
601.287	4.07
601.623	4.35
601.959	4.21
602.296	4.32
602.632	4.02
602.968	4.23
603.304	4.05
603.64	4.17
603.976	4.11
604.312	4.36
604.648	4.16
604.984	3.99
605.319	4.06
605.655	4.25
605.991	4.39
606.326	4.22
606.662	4.2
606.998	3.96
607.333	4.15
607.668	4.09
608.004	4.03
608.339	4.36
608.674	4.31
609.01	4.33
609.345	4.3
609.68	4.18
610.015	4.6
610.35	4.07
610.685	3.99
611.02	4.35
611.355	4.19
611.689	4.08
612.024	4.19
612.359	4.27
612.694	4.19
613.028	4.14
613.363	4.48
613.697	4.25
614.032	4.42
614.366	4.12
614.7	4.57
615.035	4.31
615.369	4.22
615.703	4.14
616.037	4.26
616.371	4.38
616.705	3.89
617.039	4.59
617.373	4.25
617.707	4.45
618.041	4
618.375	3.74
618.709	4.34
619.042	4.47
619.376	4.31
619.71	4.2
620.043	4.54
620.377	4.34
620.71	4.53
621.043	4.48
621.377	4.52
621.71	4.5
622.043	4.39
622.376	4.22
622.709	4.26
623.043	4.11
623.376	4.1
623.709	4.21
624.041	4.06
624.374	4.36
624.707	4.17
625.04	4.27
625.373	4.43
625.705	4.11
626.038	4.02
626.37	4.53
626.703	4.43
627.035	4.38
627.368	4.26
627.7	4.37
628.032	4.18
628.365	4.24
628.697	4.15
629.029	4.3
629.361	4.24
629.693	4.42
630.025	4.23
630.357	4.37
630.689	4.16
631.021	4.42
631.353	4.07
631.684	4.11
632.016	4.09
632.348	4.68
632.679	4.59
633.011	4.18
633.342	4.28
633.674	4.59
634.005	4.37
634.336	3.94
634.668	4.63
634.999	4.48
635.33	4.17
635.661	4.37
635.992	4.23
636.323	4.49
636.654	4.35
636.985	4.18
637.316	4.19
637.647	4.43
637.977	4.16
638.308	4.51
638.639	4.33
638.969	4.24
639.3	4.02
639.63	4.47
639.961	4.56
640.291	4.32
640.622	4.31
640.952	4.45
641.282	4.47
641.612	4.29
641.943	4.09
642.273	4.15
642.603	4.18
642.933	4.63
643.263	4.51
643.592	4.48
643.922	4.1
644.252	4.38
644.582	4.5
644.911	4.8
645.241	4.26
645.571	3.81
645.9	4.66
646.23	4.55
646.559	4.34
646.888	3.87
647.218	4.08
647.547	4.6
647.876	4.51
648.205	4.6
648.534	4.47
648.863	4.42
649.192	4.13
649.521	4.44
649.85	4.11
650.179	4.93
650.508	4.34
650.837	4.46
651.165	4.86
651.494	3.96
651.822	4.59
652.151	4.14
652.479	4.6
652.808	3.75
653.136	4.66
653.465	4.14
653.793	3.92
654.121	4.14
654.449	4.42
654.777	4.54
655.105	4.15
655.433	4.25
655.761	4.66
656.089	4.68
656.417	4.32
656.745	4.1
657.073	4.71
657.4	4.51
657.728	4.62
658.056	4.05
658.383	4.63
658.711	4.54
659.038	4.03
659.365	4.31
659.693	4.22
660.02	4.23
660.347	4.74
660.674	4.43
661.001	4.46
661.329	4.65
661.656	4.42
661.982	4.15
662.309	4.62
662.636	4.64
662.963	4.5
663.29	4.75
663.616	4.48
663.943	4.05
664.27	4.35
664.596	4.12
664.923	4.28
665.249	4.28
665.576	4.57
665.902	4.37
666.228	4.85
666.554	4.36
666.881	4.8
667.207	4.52
667.533	4.84
667.859	4.2
668.185	4.77
668.511	4.6
668.837	4.25
669.162	4.63
669.488	4.59
669.814	4.57
670.139	4.85
670.465	4.44
670.791	4.47
671.116	4.71
671.442	4.94
671.767	4.05
672.092	4.08
672.418	4.8
672.743	4.53
673.068	4.74
673.393	4.54
673.718	4.09
674.043	4.89
674.368	4.04
674.693	4.82
675.018	5.01
675.343	5.33
675.667	4.28
675.992	4.52
676.317	4.7
676.641	4.83
676.966	4.97
677.29	4.91
677.615	4.39
677.939	5.12
678.264	4.3
678.588	4.59
678.912	4.63
679.236	4.64
679.56	4.22
679.885	4.91
680.209	4.92
680.532	4.37
680.856	4.45
681.18	4.93
681.504	4.96
681.828	4.77
682.152	4.7
682.475	4.58
682.799	4.76
683.122	4.29
683.446	4.22
683.769	4.64
684.093	4.45
684.416	4.96
684.739	4.37
685.062	5.08
685.386	4.65
685.709	4.46
686.032	5.37
686.355	4.06
686.678	3.96
687.001	4.29
687.324	4.26
687.646	4.27
687.969	4.46
688.292	5.02
688.614	5.02
688.937	4.76
689.26	4.43
689.582	4.72
689.904	5.07
690.227	4.54
690.549	4.99
690.871	4.97
691.194	4.61
691.516	4.72
691.838	4.94
692.16	5
692.482	4.29
