Data from 0013_forehead_Reflection__4__19.txt Node

Date: Mon Oct 17 14:32:06 CDT 2022
User: ToomeyLab
Spectrometer: FLMS14357
Trigger mode: 0
Integration Time (sec): 1.000000E-2
Scans to average: 100
Electric dark correction enabled: true
Nonlinearity correction enabled: false
Boxcar width: 0
XAxis mode: Wavelengths
Number of Pixels in Spectrum: 2048
>>>>>Begin Spectral Data<<<<<
189.047	2926.03
189.435	2926.03
189.823	2926.03
190.211	34.72
190.599	167.72
190.987	-36.77
191.375	-10.23
191.763	423.18
192.151	89.74
192.538	169.42
192.926	-449.26
193.314	62.99
193.702	-105.38
194.089	197.99
194.477	-4.63
194.864	89.54
195.252	-15.57
195.639	-7.41
196.027	200.68
196.414	-98.16
196.801	38.33
197.189	168.72
197.576	209.74
197.963	-158.56
198.351	-194.34
198.738	66.47
199.125	-12.36
199.512	-103.72
199.899	-0.18
200.286	37
200.673	5.15
201.06	-35.84
201.447	5.52
201.833	27.01
202.22	25.13
202.607	-14.04
202.994	8.97
203.38	-7.58
203.767	-10.72
204.154	41.6
204.54	9.41
204.927	13.81
205.313	4.02
205.699	33.02
206.086	-19.25
206.472	34.05
206.858	24.3
207.245	24.47
207.631	-7.18
208.017	29.11
208.403	42.82
208.789	28.15
209.175	-8.4
209.561	4.41
209.947	-12.97
210.333	45.92
210.719	20.86
211.105	13.97
211.491	0.14
211.876	-0.4
212.262	21.99
212.648	10.3
213.034	12.84
213.419	30.15
213.805	-15.19
214.19	2.52
214.576	26.37
214.961	-15.33
215.346	27.37
215.732	4.52
216.117	36.44
216.502	5.77
216.888	2.92
217.273	33.12
217.658	14.67
218.043	3.86
218.428	0.77
218.813	30.49
219.198	9.75
219.583	-2.7
219.968	11.55
220.353	0.37
220.738	1.4
221.122	9.28
221.507	-3.23
221.892	18.82
222.276	1.66
222.661	4.89
223.046	8.34
223.43	5.81
223.815	-2.8
224.199	11.85
224.583	-4.34
224.968	1.9
225.352	-5.44
225.736	7.75
226.121	-0.41
226.505	3.92
226.889	7.24
227.273	6.28
227.657	6.75
228.041	3.96
228.425	0.03
228.809	4.22
229.193	1.45
229.577	4.46
229.961	4.91
230.344	2.42
230.728	2.9
231.112	2.83
231.495	2.42
231.879	3.48
232.263	3.52
232.646	3.8
233.03	1.74
233.413	1.72
233.797	3.87
234.18	4.26
234.563	2.27
234.946	3.2
235.33	3.29
235.713	2.52
236.096	3.53
236.479	2.89
236.862	2.67
237.245	3.44
237.628	3.22
238.011	2.78
238.394	2.75
238.777	2.95
239.16	4.9
239.543	2.97
239.925	4.21
240.308	2.95
240.691	2.71
241.073	3.6
241.456	3.25
241.838	3.47
242.221	2.95
242.603	3.18
242.986	2.67
243.368	3.76
243.75	2.86
244.133	3.31
244.515	3.37
244.897	3.54
245.279	3.52
245.661	3.76
246.043	3.99
246.425	2.81
246.807	2.69
247.189	3.38
247.571	3.63
247.953	3.24
248.335	3.23
248.717	3.14
249.098	3.24
249.48	3.33
249.862	3.12
250.243	2.88
250.625	3.81
251.006	3.42
251.388	3.78
251.769	3.9
252.151	3.27
252.532	3.11
252.913	3.36
253.295	2.84
253.676	3.77
254.057	3.54
254.438	3.42
254.819	4.25
255.2	4.55
255.581	4.34
255.962	2.71
256.343	2.54
256.724	3.33
257.105	3.94
257.486	3.13
257.867	2.84
258.247	3.82
258.628	3.83
259.009	3.59
259.389	3.51
259.77	3.6
260.15	3.45
260.531	2.6
260.911	2.99
261.292	3.3
261.672	3.08
262.052	3.11
262.432	3.3
262.813	3.01
263.193	3.44
263.573	3.45
263.953	3.07
264.333	3.24
264.713	2.81
265.093	3.37
265.473	2.98
265.853	2.78
266.233	4.71
266.612	3.52
266.992	4.4
267.372	3.42
267.752	3.68
268.131	3.51
268.511	3.05
268.89	3.89
269.27	3.14
269.649	3.31
270.029	3.24
270.408	3.5
270.787	3.24
271.167	3.32
271.546	3.55
271.925	3.12
272.304	2.76
272.683	3.3
273.062	3.09
273.441	2.84
273.82	3.26
274.199	3.52
274.578	3.29
274.957	2.9
275.336	3.18
275.715	3.2
276.093	3.14
276.472	3.25
276.851	3.25
277.229	2.41
277.608	3.02
277.986	3.37
278.365	3.07
278.743	3.2
279.122	2.95
279.5	3.24
279.878	3.17
280.257	2.78
280.635	3.16
281.013	4.07
281.391	2.93
281.769	2.98
282.147	3.01
282.525	3.17
282.903	2.87
283.281	2.82
283.659	2.85
284.037	3.12
284.415	3.06
284.792	3.24
285.17	2.59
285.548	2.62
285.925	3.68
286.303	3.11
286.68	3.27
287.058	3.25
287.435	2.88
287.813	3.05
288.19	3.2
288.567	2.94
288.945	3.31
289.322	3.21
289.699	3.3
290.076	3.72
290.453	3.89
290.83	3.24
291.207	3.37
291.584	3.29
291.961	3.36
292.338	3.28
292.715	3.2
293.092	3.51
293.469	3.41
293.845	3.74
294.222	4.14
294.599	3.73
294.975	3.31
295.352	3.45
295.728	3.76
296.105	3.26
296.481	3.62
296.858	3.79
297.234	3.92
297.61	3.22
297.986	3.79
298.363	3.78
298.739	4.11
299.115	3.76
299.491	3.57
299.867	3.7
300.243	3.75
300.619	3.92
300.995	4.06
301.371	3.99
301.746	3.69
302.122	3.79
302.498	4.21
302.874	4.25
303.249	4.18
303.625	4.13
304	4.42
304.376	4.09
304.751	4.63
305.127	4.54
305.502	4.38
305.878	4.1
306.253	3.91
306.628	4.31
307.003	4.36
307.378	4.33
307.754	4.45
308.129	4.15
308.504	4.57
308.879	4.61
309.254	4.63
309.629	4.08
310.003	4.83
310.378	4.38
310.753	4.28
311.128	4.42
311.502	4.66
311.877	4.77
312.252	4.44
312.626	4.95
313.001	4.47
313.375	4.69
313.75	4.74
314.124	4.73
314.498	4.65
314.873	4.49
315.247	4.56
315.621	4.97
315.995	4.71
316.369	4.61
316.743	5.11
317.117	5.34
317.491	4.65
317.865	5.34
318.239	5.49
318.613	5.17
318.987	4.95
319.361	5.26
319.734	5.6
320.108	5.24
320.482	5.14
320.855	5.15
321.229	4.74
321.602	5.2
321.976	4.99
322.349	5.28
322.723	4.69
323.096	5.28
323.469	5.54
323.843	4.97
324.216	5.62
324.589	5.99
324.962	5.3
325.335	5.42
325.708	6.28
326.081	5.62
326.454	6.01
326.827	5.59
327.2	5.35
327.573	5.78
327.945	5.73
328.318	5.57
328.691	5.29
329.063	5.46
329.436	5.88
329.809	5.36
330.181	6.02
330.553	5.75
330.926	6.04
331.298	5.81
331.671	6.23
332.043	6.15
332.415	6.39
332.787	5.93
333.159	6.53
333.532	6.03
333.904	5.63
334.276	5.87
334.648	6.16
335.02	6.18
335.391	6.23
335.763	6.69
336.135	6.13
336.507	6.42
336.879	6.42
337.25	6.51
337.622	6.57
337.993	6.46
338.365	6.28
338.736	6.47
339.108	6.27
339.479	6.39
339.851	6.45
340.222	6.28
340.593	6.49
340.964	6.67
341.336	6.1
341.707	6.63
342.078	7.14
342.449	6.56
342.82	6.64
343.191	6.87
343.562	6.9
343.933	6.85
344.303	6.28
344.674	6.97
345.045	6.94
345.416	6.69
345.786	7.08
346.157	6.89
346.527	6.8
346.898	6.94
347.268	7.14
347.639	6.84
348.009	6.87
348.38	6.82
348.75	6.78
349.12	7.2
349.49	7.04
349.861	7.57
350.231	7.17
350.601	6.91
350.971	6.91
351.341	7.05
351.711	6.84
352.081	7.16
352.45	7.47
352.82	7.42
353.19	7.07
353.56	7.01
353.929	7.55
354.299	7.64
354.669	7.5
355.038	7.56
355.408	7.54
355.777	7.47
356.147	7.16
356.516	7.27
356.885	7.74
357.254	7.64
357.624	8.02
357.993	7.9
358.362	7.38
358.731	7.58
359.1	7.63
359.469	7.57
359.838	7.61
360.207	8.18
360.576	7.62
360.945	8.25
361.314	8.34
361.682	7.88
362.051	7.59
362.42	7.83
362.788	7.95
363.157	8.07
363.525	7.76
363.894	8.07
364.262	8.03
364.631	8.33
364.999	8.08
365.367	7.95
365.735	8.12
366.104	8.08
366.472	7.87
366.84	8.45
367.208	8.3
367.576	8.05
367.944	8.34
368.312	8.38
368.68	8.53
369.048	8.29
369.416	8.34
369.783	8.59
370.151	8.92
370.519	8.52
370.886	8.72
371.254	8.74
371.621	8.57
371.989	8.76
372.356	8.94
372.724	8.67
373.091	8.79
373.458	8.72
373.826	9.25
374.193	9.13
374.56	8.7
374.927	9.2
375.294	9.02
375.661	8.9
376.028	9.03
376.395	8.99
376.762	9.01
377.129	9.17
377.496	9.07
377.863	8.78
378.229	8.84
378.596	9.24
378.963	8.99
379.329	8.97
379.696	9.15
380.062	9.44
380.429	9.19
380.795	9.62
381.161	9.52
381.528	9.63
381.894	9.4
382.26	9.17
382.626	9.77
382.993	9.93
383.359	9.54
383.725	9.67
384.091	9.73
384.457	9.65
384.823	9.45
385.188	9.8
385.554	9.66
385.92	9.8
386.286	10
386.651	10.13
387.017	9.9
387.383	9.86
387.748	9.7
388.114	9.89
388.479	9.96
388.845	10.02
389.21	9.91
389.575	10.09
389.94	10.35
390.306	10.26
390.671	10.56
391.036	10.33
391.401	10.52
391.766	10.27
392.131	10.28
392.496	10.32
392.861	10.3
393.226	10.31
393.591	10.11
393.956	10.36
394.32	10.45
394.685	10.48
395.05	10.39
395.414	10.56
395.779	10.45
396.143	10.53
396.508	10.53
396.872	10.85
397.236	10.65
397.601	10.78
397.965	10.9
398.329	10.86
398.694	10.88
399.058	11.02
399.422	11
399.786	10.86
400.15	11.15
400.514	10.9
400.878	11
401.242	11.07
401.605	11.42
401.969	11.08
402.333	11.06
402.697	11.06
403.06	11.06
403.424	11.45
403.787	11.14
404.151	11.13
404.514	11.3
404.878	11.26
405.241	11.2
405.604	11.33
405.968	11.2
406.331	11.3
406.694	11.39
407.057	11.35
407.42	11.31
407.783	11.38
408.146	11.66
408.509	11.82
408.872	11.75
409.235	11.68
409.598	11.71
409.961	11.51
410.323	11.98
410.686	11.86
411.049	11.85
411.411	11.95
411.774	11.77
412.136	11.8
412.499	12
412.861	12.28
413.223	12.09
413.586	11.92
413.948	11.99
414.31	11.87
414.672	12.06
415.035	12.3
415.397	12.47
415.759	12.27
416.121	12.29
416.483	12.52
416.845	12.47
417.206	12.14
417.568	12.28
417.93	12.27
418.292	12.55
418.653	12.39
419.015	12.32
419.377	12.36
419.738	12.12
420.1	12.3
420.461	12.22
420.822	12.49
421.184	12.42
421.545	12.34
421.906	12.47
422.267	12.31
422.629	12.27
422.99	12.25
423.351	12.52
423.712	12.58
424.073	12.59
424.434	12.66
424.795	12.94
425.155	12.73
425.516	12.53
425.877	12.49
426.238	12.5
426.598	12.68
426.959	12.84
427.32	12.95
427.68	13
428.041	13.11
428.401	13.3
428.761	13.38
429.122	13.46
429.482	13.4
429.842	13.52
430.202	13.66
430.563	13.6
430.923	13.54
431.283	13.49
431.643	13.52
432.003	13.6
432.363	13.78
432.722	13.57
433.082	13.55
433.442	13.76
433.802	13.71
434.161	13.55
434.521	13.69
434.881	13.5
435.24	13.41
435.6	13.71
435.959	13.59
436.319	13.9
436.678	13.83
437.037	14.02
437.396	14.12
437.756	14.06
438.115	13.95
438.474	14.14
438.833	13.96
439.192	14.04
439.551	14.05
439.91	14.05
440.269	14.02
440.628	14.12
440.987	13.99
441.345	13.95
441.704	13.96
442.063	13.94
442.421	14.16
442.78	14.11
443.138	14.17
443.497	14.35
443.855	14.56
444.214	14.49
444.572	14.5
444.93	14.49
445.288	14.51
445.647	14.58
446.005	14.59
446.363	14.38
446.721	14.38
447.079	14.35
447.437	14.35
447.795	14.32
448.153	14.22
448.51	14.34
448.868	14.56
449.226	14.68
449.584	14.74
449.941	14.98
450.299	15.11
450.656	15.04
451.014	15.11
451.371	15.2
451.729	15.14
452.086	15.28
452.443	15.36
452.801	15.29
453.158	15.28
453.515	15.19
453.872	15.14
454.229	15.23
454.586	15.29
454.943	15.27
455.3	15.31
455.657	15.4
456.014	15.46
456.371	15.4
456.727	15.47
457.084	15.47
457.441	15.57
457.797	15.63
458.154	15.65
458.51	15.75
458.867	15.82
459.223	15.84
459.58	15.76
459.936	15.49
460.292	15.68
460.648	15.58
461.005	15.49
461.361	15.46
461.717	15.3
462.073	15.41
462.429	15.74
462.785	16
463.141	16.03
463.496	16.2
463.852	16.15
464.208	16.34
464.564	16.3
464.919	16.42
465.275	16.4
465.631	16.43
465.986	16.57
466.342	16.26
466.697	16.36
467.052	16.27
467.408	16.39
467.763	16.32
468.118	16.33
468.473	16.42
468.829	16.51
469.184	16.47
469.539	16.38
469.894	16.56
470.249	16.75
470.603	16.65
470.958	16.76
471.313	16.65
471.668	16.84
472.023	16.76
472.377	17.01
472.732	16.68
473.086	16.97
473.441	16.99
473.795	16.96
474.15	16.92
474.504	16.97
474.859	16.88
475.213	17.06
475.567	17.26
475.921	17.19
476.275	17.25
476.63	17.41
476.984	17.29
477.338	17.42
477.692	17.3
478.045	17.48
478.399	17.28
478.753	17.42
479.107	17.4
479.461	17.44
479.814	17.46
480.168	17.56
480.521	17.49
480.875	17.48
481.228	17.56
481.582	17.74
481.935	17.71
482.289	17.52
482.642	17.42
482.995	17.71
483.348	17.57
483.701	17.46
484.055	17.47
484.408	17.55
484.761	17.25
485.114	16.8
485.466	16.48
485.819	16.48
486.172	16.82
486.525	17.23
486.878	17.48
487.23	17.78
487.583	17.9
487.936	17.79
488.288	17.63
488.641	17.3
488.993	17.17
489.345	17.12
489.698	17.29
490.05	17.5
490.402	17.58
490.754	17.95
491.107	18.12
491.459	18.4
491.811	18.52
492.163	18.41
492.515	18.39
492.866	17.9
493.218	17.55
493.57	17.59
493.922	17.79
494.274	18.21
494.625	18.59
494.977	18.73
495.328	18.79
495.68	19.03
496.031	19.14
496.383	19.06
496.734	19.05
497.086	19.07
497.437	19.1
497.788	19.15
498.139	18.84
498.49	18.86
498.842	18.89
499.193	18.83
499.544	18.97
499.894	18.95
500.245	19.16
500.596	19.06
500.947	19.28
501.298	19.42
501.648	19.46
501.999	19.48
502.35	19.55
502.7	19.74
503.051	19.7
503.401	19.74
503.752	19.69
504.102	19.67
504.452	19.57
504.803	19.7
505.153	19.8
505.503	19.76
505.853	19.83
506.203	19.66
506.553	19.85
506.903	19.79
507.253	19.95
507.603	20.02
507.953	20.08
508.303	19.96
508.652	20.08
509.002	20.23
509.352	19.81
509.701	19.83
510.051	19.91
510.4	19.77
510.75	19.83
511.099	20.08
511.449	20.1
511.798	20.19
512.147	20.26
512.496	20.26
512.846	20.45
513.195	20.6
513.544	20.37
513.893	20.33
514.242	20.47
514.591	20.39
514.939	20.47
515.288	20.53
515.637	20.75
515.986	20.88
516.334	20.95
516.683	20.9
517.032	21.03
517.38	20.81
517.729	21.09
518.077	21.05
518.426	20.86
518.774	21
519.122	20.77
519.47	20.85
519.819	20.68
520.167	20.61
520.515	20.54
520.863	20.68
521.211	20.92
521.559	21.08
521.907	21.25
522.255	21.21
522.602	21.44
522.95	21.47
523.298	21.63
523.645	21.6
523.993	21.57
524.341	21.73
524.688	21.72
525.036	21.63
525.383	21.68
525.73	21.84
526.078	21.82
526.425	21.64
526.772	21.53
527.119	21.22
527.466	21.07
527.814	21.23
528.161	21.55
528.508	21.69
528.854	21.81
529.201	21.7
529.548	21.56
529.895	20.97
530.242	20.68
530.588	20.66
530.935	21.04
531.282	21.47
531.628	21.72
531.975	21.89
532.321	21.99
532.667	22.23
533.014	22.24
533.36	22.24
533.706	22.19
534.052	22.23
534.399	22.06
534.745	21.56
535.091	21.39
535.437	21.75
535.783	21.92
536.129	22.36
536.474	22.67
536.82	22.89
537.166	22.88
537.512	22.76
537.857	22.61
538.203	22.36
538.549	22.14
538.894	22.47
539.239	22.76
539.585	22.94
539.93	23.22
540.276	23.36
540.621	23.33
540.966	23.38
541.311	23.25
541.656	23.25
542.001	22.95
542.346	22.88
542.691	22.35
543.036	22.03
543.381	22.15
543.726	22.41
544.071	22.76
544.415	23.11
544.76	23.18
545.105	23.06
545.449	23.29
545.794	23.56
546.138	23.53
546.483	23.62
546.827	23.77
547.171	23.57
547.516	23.62
547.86	23.63
548.204	23.46
548.548	23.29
548.892	23.62
549.236	23.74
549.58	24
549.924	24.15
550.268	24.27
550.612	24.52
550.956	24.52
551.3	24.51
551.643	24.77
551.987	24.78
552.33	24.48
552.674	24.69
553.017	24.59
553.361	24.61
553.704	24.4
554.048	24.4
554.391	24.51
554.734	24.31
555.077	24.37
555.42	24.64
555.764	24.79
556.107	25.01
556.45	24.91
556.793	25.15
557.135	25.16
557.478	25.02
557.821	25.1
558.164	25.27
558.507	25.2
558.849	25.07
559.192	25.39
559.534	25.28
559.877	25.29
560.219	25.24
560.562	25.12
560.904	25.35
561.246	25.45
561.589	25.5
561.931	25.46
562.273	25.66
562.615	25.58
562.957	25.47
563.299	25.68
563.641	25.52
563.983	25.6
564.325	25.94
564.667	25.91
565.008	25.85
565.35	25.91
565.692	26.18
566.033	25.77
566.375	25.73
566.716	26.05
567.058	25.81
567.399	25.71
567.741	25.6
568.082	25.72
568.423	25.74
568.764	25.94
569.105	26.06
569.447	26.18
569.788	26.23
570.129	26.22
570.47	26.37
570.811	26.28
571.151	26.49
571.492	26.33
571.833	26.36
572.174	26.59
572.514	26.65
572.855	26.49
573.195	26.36
573.536	26.16
573.876	26.33
574.217	26.47
574.557	26.43
574.898	26.74
575.238	26.9
575.578	26.9
575.918	26.83
576.258	26.92
576.598	26.84
576.938	26.74
577.278	26.77
577.618	27.02
577.958	26.96
578.298	27.21
578.638	27.42
578.977	27.38
579.317	26.99
579.657	27.61
579.996	27.44
580.336	27.63
580.675	27.65
581.014	27.3
581.354	27.4
581.693	27.67
582.032	27.7
582.372	27.4
582.711	27.67
583.05	27.85
583.389	27.69
583.728	27.65
584.067	28.27
584.406	28.04
584.745	27.91
585.083	27.99
585.422	27.91
585.761	27.92
586.1	27.97
586.438	28.1
586.777	28.25
587.115	28.26
587.454	28.3
587.792	28.06
588.13	27.92
588.469	28.34
588.807	28.23
589.145	28.25
589.483	28.21
589.821	28.4
590.159	28.6
590.497	28.42
590.835	28.58
591.173	28.47
591.511	28.63
591.849	28.5
592.187	28.61
592.524	28.73
592.862	28.65
593.2	28.8
593.537	28.7
593.875	28.71
594.212	28.97
594.55	28.79
594.887	29.21
595.224	28.99
595.561	28.86
595.899	29.07
596.236	29.1
596.573	29.02
596.91	29.05
597.247	29.16
597.584	29.09
597.921	29.1
598.258	29.11
598.594	28.44
598.931	28.41
599.268	28.97
599.604	29.04
599.941	29.2
600.277	29.42
600.614	29.61
600.95	29.47
601.287	29.65
601.623	29.72
601.959	29.67
602.296	29.65
602.632	29.52
602.968	29.81
603.304	29.68
603.64	29.76
603.976	29.7
604.312	30.03
604.648	29.55
604.984	29.46
605.319	29.34
605.655	29.67
605.991	29.54
606.326	29.24
606.662	29.28
606.998	29.47
607.333	30.03
607.668	29.91
608.004	30.52
608.339	30.36
608.674	30.68
609.01	30.54
609.345	30.36
609.68	30.51
610.015	30.42
610.35	30.09
610.685	29.84
611.02	29.86
611.355	29.7
611.689	29.95
612.024	30.34
612.359	30.5
612.694	30.61
613.028	30.8
613.363	30.59
613.697	30.78
614.032	30.98
614.366	31.02
614.7	31.01
615.035	30.91
615.369	30.97
615.703	31.14
616.037	31.29
616.371	30.81
616.705	30.87
617.039	31.17
617.373	30.87
617.707	30.5
618.041	30.84
618.375	30.86
618.709	31.38
619.042	31.19
619.376	31.26
619.71	31.18
620.043	31.19
620.377	31.35
620.71	31.11
621.043	31.45
621.377	31
621.71	31.55
622.043	31.43
622.376	31.32
622.709	31.9
623.043	31.15
623.376	31.5
623.709	31.72
624.041	31.5
624.374	31.83
624.707	31.73
625.04	31.46
625.373	31.93
625.705	31.91
626.038	31.92
626.37	32.27
626.703	32.28
627.035	31.99
627.368	31.97
627.7	32.09
628.032	31.64
628.365	31.93
628.697	31.94
629.029	31.9
629.361	32
629.693	32.14
630.025	31.98
630.357	32.41
630.689	32.1
631.021	32.43
631.353	32.32
631.684	32.37
632.016	32.23
632.348	32.58
632.679	32.92
633.011	32.34
633.342	32.09
633.674	32.7
634.005	32.21
634.336	32.38
634.668	32.87
634.999	32.4
635.33	32.5
635.661	32.38
635.992	32.43
636.323	32.65
636.654	32.61
636.985	32.64
637.316	32.73
637.647	33.09
637.977	32.85
638.308	32.9
638.639	32.91
638.969	33.11
639.3	32.79
639.63	33.16
639.961	33.3
640.291	33.14
640.622	33.22
640.952	33.35
641.282	33.27
641.612	33.25
641.943	32.99
642.273	33.1
642.603	33.37
642.933	33.41
643.263	33.37
643.592	33.5
643.922	33.14
644.252	33.41
644.582	33.62
644.911	34.28
645.241	33.4
645.571	32.91
645.9	33.46
646.23	33.4
646.559	33.66
646.888	33.47
647.218	33.45
647.547	33.38
647.876	33.99
648.205	33.96
648.534	33.2
648.863	33.41
649.192	33.64
649.521	33.94
649.85	33.52
650.179	34.1
650.508	33.73
650.837	33.34
651.165	34.04
651.494	33.91
651.822	34
652.151	33.7
652.479	33.95
652.808	34.23
653.136	33.93
653.465	33.6
653.793	34.64
654.121	34.05
654.449	34.05
654.777	33.99
655.105	34.38
655.433	34.6
655.761	34.36
656.089	34.57
656.417	34.71
656.745	34.32
657.073	34.82
657.4	35.03
657.728	34.84
658.056	34.4
658.383	34.21
658.711	34.49
659.038	34.51
659.365	34.78
659.693	34.7
660.02	34.36
660.347	34.74
660.674	34.53
661.001	34.6
661.329	34.53
661.656	34.58
661.982	34.93
662.309	35.01
662.636	34.85
662.963	35.13
663.29	35
663.616	34.49
663.943	35.04
664.27	35.28
664.596	35.15
664.923	34.7
665.249	34.83
665.576	35.29
665.902	35.19
666.228	35.09
666.554	35.17
666.881	35.52
667.207	35.33
667.533	35.32
667.859	35.21
668.185	35.16
668.511	35.8
668.837	35.42
669.162	35.25
669.488	35.21
669.814	35.77
670.139	35.55
670.465	35.48
670.791	35.37
671.116	35.64
671.442	35.2
671.767	35.71
672.092	35.08
672.418	35.82
672.743	35.33
673.068	35.55
673.393	35.82
673.718	35.87
674.043	36.11
