Data from 0013_chest_Reflection__1__06.txt Node

Date: Mon Oct 17 14:28:08 CDT 2022
User: ToomeyLab
Spectrometer: FLMS14357
Trigger mode: 0
Integration Time (sec): 1.000000E-2
Scans to average: 100
Electric dark correction enabled: true
Nonlinearity correction enabled: false
Boxcar width: 0
XAxis mode: Wavelengths
Number of Pixels in Spectrum: 2048
>>>>>Begin Spectral Data<<<<<
189.047	826.03
189.435	826.03
189.823	826.03
190.211	34.1
190.599	1108.45
190.987	-13.24
191.375	195.3
191.763	72.71
192.151	77.05
192.538	145.16
192.926	-78.69
193.314	90.7
193.702	241.35
194.089	-2.47
194.477	106.79
194.864	-28.86
195.252	-367.28
195.639	72.8
196.027	137.27
196.414	-69.89
196.801	-305.87
197.189	-8.87
197.576	251.21
197.963	20.45
198.351	-51.07
198.738	8.64
199.125	-31.76
199.512	-56.04
199.899	15.4
200.286	21.15
200.673	1.19
201.06	-22.17
201.447	23.31
201.833	13.97
202.22	38.78
202.607	-6.59
202.994	34.21
203.38	26.3
203.767	16.96
204.154	25.18
204.54	-22.41
204.927	12.79
205.313	3.43
205.699	4.59
206.086	-20.95
206.472	9.8
206.858	4.45
207.245	42.9
207.631	4.38
208.017	20.62
208.403	50.19
208.789	23.29
209.175	-5.61
209.561	0.03
209.947	-42.72
210.333	16.06
210.719	16.71
211.105	-0.35
211.491	2.46
211.876	-26.48
212.262	31.74
212.648	30.79
213.034	-16.66
213.419	21.16
213.805	19.44
214.19	2.51
214.576	12.41
214.961	9.56
215.346	10.72
215.732	-7.38
216.117	14.47
216.502	-12.28
216.888	-14.23
217.273	-14.47
217.658	6.74
218.043	-13.52
218.428	-9.93
218.813	-2.1
219.198	1.63
219.583	9.14
219.968	-11.95
220.353	0.53
220.738	9.86
221.122	15.08
221.507	-4.75
221.892	11.45
222.276	-0.42
222.661	4.92
223.046	-2.3
223.43	8.67
223.815	5.28
224.199	3.88
224.583	-2.01
224.968	0.15
225.352	-13.93
225.736	-1.22
226.121	0.36
226.505	-3.12
226.889	-2.52
227.273	1.87
227.657	4.62
228.041	1.01
228.425	0.51
228.809	1.23
229.193	1.33
229.577	3.24
229.961	4.31
230.344	1.81
230.728	1.63
231.112	2.27
231.495	1.95
231.879	3.25
232.263	1.47
232.646	3.26
233.03	0.89
233.413	-0.53
233.797	3.1
234.18	2.89
234.563	0.39
234.946	3.02
235.33	2.55
235.713	0.49
236.096	2.69
236.479	0.6
236.862	1.85
237.245	1.43
237.628	1.23
238.011	2.13
238.394	3.59
238.777	2.49
239.16	3.29
239.543	1.61
239.925	2.69
240.308	3.03
240.691	1.7
241.073	2.87
241.456	1.94
241.838	1.66
242.221	1.61
242.603	1.78
242.986	1.56
243.368	2.21
243.75	1.74
244.133	2.2
244.515	2.05
244.897	2.28
245.279	2.4
245.661	2.61
246.043	2.43
246.425	0.78
246.807	1.56
247.189	1.44
247.571	2.36
247.953	1.79
248.335	2.13
248.717	2.14
249.098	2.08
249.48	2.36
249.862	2.08
250.243	1.29
250.625	1.95
251.006	1.46
251.388	1.87
251.769	2.29
252.151	1.79
252.532	1.44
252.913	2.28
253.295	1.78
253.676	2.01
254.057	2.21
254.438	1.84
254.819	2.85
255.2	2.85
255.581	2.7
255.962	1.28
256.343	0.89
256.724	1.22
257.105	1.67
257.486	1.38
257.867	1.57
258.247	1.87
258.628	1.94
259.009	2.36
259.389	2.16
259.77	2.59
260.15	1.82
260.531	1.57
260.911	2.09
261.292	1.96
261.672	1.89
262.052	2.14
262.432	1.85
262.813	2.3
263.193	1.8
263.573	2.11
263.953	2.33
264.333	2.38
264.713	1.92
265.093	2.76
265.473	2.23
265.853	2.01
266.233	3.12
266.612	2.3
266.992	2.47
267.372	2.33
267.752	2.36
268.131	2.15
268.511	1.9
268.89	2.24
269.27	2.08
269.649	2.43
270.029	2.27
270.408	2.57
270.787	1.44
271.167	1.79
271.546	2.06
271.925	1.9
272.304	2.26
272.683	2.12
273.062	1.85
273.441	2.24
273.82	2.26
274.199	2.08
274.578	2.05
274.957	2.21
275.336	1.94
275.715	1.74
276.093	1.94
276.472	1.8
276.851	2.16
277.229	1.55
277.608	1.84
277.986	1.89
278.365	1.76
278.743	2.17
279.122	1.77
279.5	2.06
279.878	2.39
280.257	1.91
280.635	1.91
281.013	2.23
281.391	2.14
281.769	2.19
282.147	2.65
282.525	1.9
282.903	1.45
283.281	1.79
283.659	1.89
284.037	1.95
284.415	2.14
284.792	1.98
285.17	1.8
285.548	1.81
285.925	1.74
286.303	2.06
286.68	2.24
287.058	2.08
287.435	1.87
287.813	2.02
288.19	2.14
288.567	1.89
288.945	1.85
289.322	2.41
289.699	2.07
290.076	1.73
290.453	1.87
290.83	1.84
291.207	1.76
291.584	1.88
291.961	1.8
292.338	2.03
292.715	2.17
293.092	2.04
293.469	1.89
293.845	2.23
294.222	2.1
294.599	2.09
294.975	1.46
295.352	1.8
295.728	2.12
296.105	2.13
296.481	1.87
296.858	2.2
297.234	1.94
297.61	1.84
297.986	1.79
298.363	1.95
298.739	2.11
299.115	1.92
299.491	2.05
299.867	1.95
300.243	2.34
300.619	1.9
300.995	2.02
301.371	1.76
301.746	1.91
302.122	1.85
302.498	2.01
302.874	2.58
303.249	2.36
303.625	2.13
304	1.88
304.376	2.59
304.751	2.64
305.127	2.43
305.502	1.9
305.878	1.93
306.253	1.82
306.628	1.94
307.003	2.17
307.378	2.55
307.754	1.97
308.129	1.9
308.504	2.34
308.879	2.63
309.254	1.78
309.629	2.18
310.003	2.43
310.378	1.94
310.753	1.89
311.128	1.96
311.502	2.2
311.877	2.15
312.252	2.16
312.626	2.2
313.001	2.05
313.375	1.76
313.75	2.03
314.124	2.22
314.498	2.28
314.873	2.23
315.247	1.5
315.621	2.58
315.995	1.95
316.369	1.87
316.743	1.92
317.117	2.27
317.491	2.13
317.865	2.22
318.239	2.44
318.613	2.23
318.987	1.7
319.361	1.97
319.734	2.52
320.108	1.74
320.482	2.56
320.855	2.34
321.229	1.81
321.602	2.02
321.976	1.63
322.349	1.98
322.723	2.11
323.096	2.32
323.469	2.3
323.843	1.87
324.216	2.34
324.589	1.96
324.962	2.12
325.335	2.06
325.708	2.5
326.081	1.99
326.454	2.56
326.827	2.32
327.2	1.84
327.573	1.94
327.945	2.15
328.318	2.11
328.691	1.99
329.063	2.29
329.436	1.91
329.809	1.92
330.181	2.51
330.553	2.36
330.926	2.22
331.298	2.51
331.671	2.75
332.043	2.01
332.415	2.24
332.787	1.93
333.159	2.43
333.532	1.6
333.904	1.91
334.276	2.25
334.648	1.89
335.02	2.39
335.391	2.68
335.763	2.35
336.135	1.65
336.507	2.34
336.879	2.08
337.25	2.35
337.622	1.81
337.993	2.08
338.365	2.02
338.736	1.86
339.108	1.98
339.479	2.08
339.851	2.08
340.222	2.02
340.593	1.94
340.964	2.13
341.336	2.46
341.707	2.3
342.078	2.53
342.449	2.03
342.82	2.49
343.191	2.5
343.562	2.15
343.933	2.06
344.303	2.01
344.674	2.33
345.045	2.31
345.416	2.2
345.786	2.48
346.157	2.21
346.527	1.77
346.898	2.23
347.268	2.29
347.639	1.97
348.009	2.32
348.38	2.4
348.75	2.11
349.12	2.17
349.49	2.37
349.861	2.47
350.231	2.22
350.601	2.06
350.971	2.05
351.341	1.85
351.711	2.01
352.081	2.18
352.45	2.36
352.82	2.25
353.19	2.12
353.56	1.69
353.929	2.42
354.299	2.34
354.669	2.09
355.038	2.45
355.408	2.24
355.777	2.17
356.147	2
356.516	2.01
356.885	2.06
357.254	2.49
357.624	2.56
357.993	2.44
358.362	2.23
358.731	2.18
359.1	2.34
359.469	2.38
359.838	2.36
360.207	2.38
360.576	1.86
360.945	2.14
361.314	2.4
361.682	2.61
362.051	2.21
362.42	2.22
362.788	2.3
363.157	2.5
363.525	2.02
363.894	2.57
364.262	2.59
364.631	2.18
364.999	2.2
365.367	2.03
365.735	2.38
366.104	2.3
366.472	1.95
366.84	2.41
367.208	2.56
367.576	2.26
367.944	2.29
368.312	2.14
368.68	2.54
369.048	2.26
369.416	2.32
369.783	2.49
370.151	2.31
370.519	2.12
370.886	2.16
371.254	2.13
371.621	1.87
371.989	2.25
372.356	2.6
372.724	2.55
373.091	2.51
373.458	2.35
373.826	2.48
374.193	2.51
374.56	1.93
374.927	2.59
375.294	2.42
375.661	2.3
376.028	2.35
376.395	2.09
376.762	2.51
377.129	2.26
377.496	2.34
377.863	2.19
378.229	2.62
378.596	2.54
378.963	2.21
379.329	2.01
379.696	2.56
380.062	2.78
380.429	2.15
380.795	2.71
381.161	2.41
381.528	2.17
381.894	2.37
382.26	2.2
382.626	2.16
382.993	2.71
383.359	2.43
383.725	2.28
384.091	2.39
384.457	1.95
384.823	2.23
385.188	2.06
385.554	2.46
385.92	2.44
386.286	2.3
386.651	2.4
387.017	2.31
387.383	2.18
387.748	2.14
388.114	2.21
388.479	2.6
388.845	2.56
389.21	2.2
389.575	2.34
389.94	2.63
390.306	2.47
390.671	2.57
391.036	2.41
391.401	2.25
391.766	2.56
392.131	2.28
392.496	2.31
392.861	2.27
393.226	2.35
393.591	2.44
393.956	2.29
394.32	2.42
394.685	2.42
395.05	2.24
395.414	2.69
395.779	2.39
396.143	2.6
396.508	2.42
396.872	2.34
397.236	2.29
397.601	2.26
397.965	2.48
398.329	2.6
398.694	2.55
399.058	2.35
399.422	2.29
399.786	2.58
400.15	2.65
400.514	2.11
400.878	2.39
401.242	2.34
401.605	2.58
401.969	2.48
402.333	2.36
402.697	2.54
403.06	2.44
403.424	2.51
403.787	2.42
404.151	2.55
404.514	2.71
404.878	2.58
405.241	2.54
405.604	2.49
405.968	2.51
406.331	2.33
406.694	2.46
407.057	2.38
407.42	2.35
407.783	2.63
408.146	2.63
408.509	2.82
408.872	2.28
409.235	2.55
409.598	2.54
409.961	2.36
410.323	2.56
410.686	2.53
411.049	2.48
411.411	2.63
411.774	2.62
412.136	2.43
412.499	2.61
412.861	2.92
413.223	2.63
413.586	2.64
413.948	2.58
414.31	2.41
414.672	2.31
415.035	2.72
415.397	2.79
415.759	2.61
416.121	2.57
416.483	2.77
416.845	2.65
417.206	2.48
417.568	2.63
417.93	2.53
418.292	2.62
418.653	2.54
419.015	2.54
419.377	2.56
419.738	2.39
420.1	2.6
420.461	2.45
420.822	2.55
421.184	2.46
421.545	2.54
421.906	2.43
422.267	2.48
422.629	2.45
422.99	2.43
423.351	2.52
423.712	2.52
424.073	2.51
424.434	2.53
424.795	2.6
425.155	2.66
425.516	2.53
425.877	2.52
426.238	2.51
426.598	2.59
426.959	2.58
427.32	2.56
427.68	2.58
428.041	2.43
428.401	2.71
428.761	2.66
429.122	2.66
429.482	2.65
429.842	2.64
430.202	2.8
430.563	2.61
430.923	2.63
431.283	2.72
431.643	2.65
432.003	2.65
432.363	2.74
432.722	2.61
433.082	2.59
433.442	2.7
433.802	2.65
434.161	2.58
434.521	2.77
434.881	2.66
435.24	2.56
435.6	2.8
435.959	2.62
436.319	2.7
436.678	2.65
437.037	2.68
437.396	2.69
437.756	2.76
438.115	2.6
438.474	2.62
438.833	2.65
439.192	2.66
439.551	2.55
439.91	2.59
440.269	2.7
440.628	2.66
440.987	2.68
441.345	2.68
441.704	2.64
442.063	2.56
442.421	2.72
442.78	2.64
443.138	2.73
443.497	2.69
443.855	2.81
444.214	2.68
444.572	2.59
444.93	2.77
445.288	2.7
445.647	2.68
446.005	2.77
446.363	2.78
446.721	2.71
447.079	2.69
447.437	2.71
447.795	2.72
448.153	2.69
448.51	2.64
448.868	2.79
449.226	2.7
449.584	2.77
449.941	2.77
450.299	2.74
450.656	2.69
451.014	2.75
451.371	2.81
451.729	2.77
452.086	2.79
452.443	2.94
452.801	2.93
453.158	2.93
453.515	2.7
453.872	2.77
454.229	2.69
454.586	2.64
454.943	2.78
455.3	2.85
455.657	2.76
456.014	2.79
456.371	2.82
456.727	2.71
457.084	2.82
457.441	2.86
457.797	2.92
458.154	2.85
458.51	2.97
458.867	2.79
459.223	2.9
459.58	2.72
459.936	2.72
460.292	2.87
460.648	2.89
461.005	2.83
461.361	2.78
461.717	2.76
462.073	2.72
462.429	2.74
462.785	2.81
463.141	3
463.496	2.81
463.852	2.91
464.208	2.97
464.564	2.73
464.919	2.84
465.275	2.82
465.631	2.94
465.986	2.9
466.342	2.84
466.697	3.01
467.052	2.87
467.408	2.85
467.763	2.8
468.118	3.02
468.473	2.96
468.829	2.85
469.184	2.85
469.539	2.78
469.894	2.87
470.249	2.9
470.603	2.94
470.958	2.96
471.313	2.84
471.668	2.97
472.023	2.96
472.377	2.92
472.732	2.87
473.086	3.14
473.441	3.03
473.795	2.83
474.15	2.84
474.504	2.9
474.859	2.98
475.213	3.01
475.567	3.16
475.921	2.85
476.275	2.97
476.63	2.99
476.984	3.07
477.338	3.07
477.692	2.89
478.045	3.1
478.399	2.94
478.753	2.99
479.107	2.91
479.461	2.95
479.814	3.01
480.168	2.86
480.521	2.95
480.875	2.9
481.228	2.98
481.582	3.11
481.935	2.96
482.289	2.85
482.642	3.03
482.995	2.95
483.348	2.97
483.701	3.03
484.055	2.89
484.408	3.08
484.761	2.87
485.114	2.82
485.466	2.77
485.819	2.71
486.172	2.76
486.525	2.87
486.878	2.93
487.23	2.97
487.583	2.96
487.936	3
488.288	2.98
488.641	2.84
488.993	2.86
489.345	2.83
489.698	2.87
490.05	2.88
490.402	2.91
490.754	2.94
491.107	3.02
491.459	3.05
491.811	3.12
492.163	3.02
492.515	2.99
492.866	2.91
493.218	2.92
493.57	2.94
493.922	2.99
494.274	2.99
494.625	3.09
494.977	3.19
495.328	3.1
495.68	3.14
496.031	3.2
496.383	3.21
496.734	3.22
497.086	3.1
497.437	3.12
497.788	3.11
498.139	3.05
498.49	3.19
498.842	3.07
499.193	3.11
499.544	3.15
499.894	3.14
500.245	3.09
500.596	3.13
500.947	3.3
501.298	3.23
501.648	3.23
501.999	3.14
502.35	3.23
502.7	3.19
503.051	3.3
503.401	3.29
503.752	3.44
504.102	3.28
504.452	3.23
504.803	3.23
505.153	3.13
505.503	3.14
505.853	3.2
506.203	3.19
506.553	3.26
506.903	3.32
507.253	3.21
507.603	3.1
507.953	3.35
508.303	3.24
508.652	3.37
509.002	3.29
509.352	3.27
509.701	3.3
510.051	3.28
510.4	3.27
510.75	3.28
511.099	3.3
511.449	3.34
511.798	3.34
512.147	3.27
512.496	3.38
512.846	3.4
513.195	3.36
513.544	3.4
513.893	3.46
514.242	3.42
514.591	3.41
514.939	3.31
515.288	3.35
515.637	3.49
515.986	3.41
516.334	3.45
516.683	3.43
517.032	3.49
517.38	3.35
517.729	3.4
518.077	3.53
518.426	3.49
518.774	3.41
519.122	3.52
519.47	3.46
519.819	3.46
520.167	3.42
520.515	3.36
520.863	3.42
521.211	3.41
521.559	3.55
521.907	3.57
522.255	3.4
522.602	3.47
522.95	3.59
523.298	3.56
523.645	3.52
523.993	3.61
524.341	3.55
524.688	3.51
525.036	3.56
525.383	3.58
525.73	3.68
526.078	3.5
526.425	3.6
526.772	3.65
527.119	3.6
527.466	3.43
527.814	3.49
528.161	3.59
528.508	3.58
528.854	3.53
529.201	3.65
529.548	3.62
529.895	3.49
530.242	3.43
530.588	3.4
530.935	3.43
531.282	3.55
531.628	3.6
531.975	3.64
532.321	3.63
532.667	3.74
533.014	3.77
533.36	3.75
533.706	3.74
534.052	3.74
534.399	3.69
534.745	3.61
535.091	3.65
535.437	3.66
535.783	3.68
536.129	3.72
536.474	3.86
536.82	3.81
537.166	3.9
537.512	3.89
537.857	3.93
538.203	3.81
538.549	3.76
538.894	3.81
539.239	3.82
539.585	3.94
539.93	3.95
540.276	3.9
540.621	3.95
540.966	3.92
541.311	3.95
541.656	4.02
542.001	4.02
542.346	3.98
542.691	3.94
543.036	3.81
543.381	3.82
543.726	3.9
544.071	3.88
544.415	3.93
544.76	3.91
545.105	3.93
545.449	4.06
545.794	3.99
546.138	4.04
546.483	4.15
546.827	4.07
547.171	4.14
547.516	4.21
547.86	4.16
548.204	4.12
548.548	4.13
548.892	4.14
549.236	4.11
549.58	4.24
549.924	4.25
550.268	4.34
550.612	4.31
550.956	4.31
551.3	4.27
551.643	4.43
551.987	4.36
552.33	4.39
552.674	4.38
553.017	4.42
553.361	4.43
553.704	4.28
554.048	4.25
554.391	4.32
554.734	4.36
555.077	4.45
555.42	4.51
555.764	4.42
556.107	4.51
556.45	4.61
556.793	4.45
557.135	4.65
557.478	4.57
557.821	4.66
558.164	4.66
558.507	4.67
558.849	4.57
559.192	4.55
559.534	4.72
559.877	4.41
560.219	4.55
560.562	4.4
560.904	4.7
561.246	4.66
561.589	4.67
561.931	4.8
562.273	4.83
562.615	4.72
562.957	4.81
563.299	4.65
563.641	4.75
563.983	4.83
564.325	4.97
564.667	4.92
565.008	5.01
565.35	4.94
565.692	4.95
566.033	5.02
566.375	4.85
566.716	5.1
567.058	5.04
567.399	4.89
567.741	4.9
568.082	5
568.423	4.95
568.764	5.07
569.105	4.98
569.447	5.03
569.788	4.97
570.129	5.28
570.47	5.23
570.811	5.23
571.151	5.17
571.492	5.23
571.833	5.2
572.174	5.31
572.514	5.3
572.855	5.13
573.195	5.26
573.536	5.25
573.876	5.18
574.217	5.23
574.557	5.29
574.898	5.21
575.238	5.36
575.578	5.29
575.918	5.47
576.258	5.48
576.598	5.45
576.938	5.58
577.278	5.51
577.618	5.48
577.958	5.44
578.298	5.51
578.638	5.52
578.977	5.71
579.317	5.61
579.657	5.64
579.996	5.57
580.336	5.85
580.675	5.57
581.014	5.6
581.354	5.61
581.693	5.53
582.032	5.85
582.372	5.59
582.711	5.59
583.05	5.68
583.389	5.82
583.728	5.98
584.067	6.04
584.406	5.74
584.745	5.91
585.083	5.99
585.422	5.87
585.761	5.86
586.1	6.11
586.438	6.28
586.777	6.21
587.115	5.89
587.454	6
587.792	6.03
588.13	6.09
588.469	6.15
588.807	6.16
589.145	6.22
589.483	6.13
589.821	6.11
590.159	6.2
590.497	6.31
590.835	6.24
591.173	6.18
591.511	6.26
591.849	6.32
592.187	6.28
592.524	6.46
592.862	6.38
593.2	6.46
593.537	6.69
593.875	6.46
594.212	6.59
594.55	6.43
594.887	6.65
595.224	6.72
595.561	6.63
595.899	6.62
596.236	6.84
596.573	6.62
596.91	6.73
597.247	6.63
597.584	6.66
597.921	6.61
598.258	6.83
598.594	6.8
598.931	6.65
599.268	6.8
599.604	6.74
599.941	6.87
600.277	6.95
600.614	6.91
600.95	6.92
601.287	6.99
601.623	7.05
601.959	7.21
602.296	7.1
602.632	6.97
602.968	7.13
603.304	7.13
603.64	7.16
603.976	7.03
604.312	7.39
604.648	7.18
604.984	7.07
605.319	7.11
605.655	7.16
605.991	7.32
606.326	7.06
606.662	7.2
606.998	7.19
607.333	7.49
607.668	7.12
608.004	7.46
608.339	7.54
608.674	7.51
609.01	7.69
609.345	7.74
609.68	7.61
610.015	7.65
610.35	7.37
610.685	7.39
611.02	7.66
611.355	7.61
611.689	7.68
612.024	7.69
612.359	7.73
612.694	7.9
613.028	7.66
613.363	7.99
613.697	7.82
614.032	8.17
614.366	7.75
614.7	7.95
615.035	7.77
615.369	8.06
615.703	7.95
616.037	7.94
616.371	7.9
616.705	7.99
617.039	8.4
617.373	8.55
617.707	8.01
618.041	8.14
618.375	7.99
618.709	8.28
619.042	8.52
619.376	8.24
619.71	8.74
620.043	8.32
620.377	8.47
620.71	8.67
621.043	8.39
621.377	8.63
621.71	8.75
622.043	8.61
622.376	8.61
622.709	8.79
623.043	8.24
623.376	8.48
623.709	8.64
624.041	8.58
624.374	8.62
624.707	8.51
625.04	8.56
625.373	8.79
625.705	8.64
626.038	8.95
626.37	9.13
626.703	9.1
627.035	8.63
627.368	8.86
627.7	8.98
628.032	8.93
628.365	8.81
628.697	9.03
629.029	9.34
629.361	9.28
629.693	9.2
630.025	9.06
630.357	9.08
630.689	8.76
631.021	9.35
631.353	9.04
631.684	9.01
632.016	9.06
632.348	9.39
632.679	9.34
633.011	9.15
633.342	9.42
633.674	9.58
634.005	9.53
634.336	9.32
634.668	9.79
634.999	9.87
635.33	9.49
635.661	9.7
635.992	9.52
636.323	9.6
636.654	9.7
636.985	9.48
637.316	9.81
637.647	9.97
637.977	9.75
638.308	10.02
638.639	9.66
638.969	9.73
639.3	9.69
639.63	9.95
639.961	9.86
640.291	9.69
640.622	9.78
640.952	9.91
641.282	10.11
641.612	10.05
641.943	10.08
642.273	9.89
642.603	9.96
642.933	9.92
643.263	10.07
643.592	10.26
643.922	10.28
644.252	10.36
644.582	10.47
644.911	10.26
645.241	10.18
645.571	9.87
645.9	10.62
646.23	10.4
646.559	10.48
646.888	10.34
647.218	10.18
647.547	10.78
647.876	10.65
648.205	10.47
648.534	10.42
648.863	10.51
649.192	10.63
649.521	10.66
649.85	10.68
650.179	10.76
650.508	10.94
650.837	10.67
651.165	10.92
651.494	10.65
651.822	10.81
652.151	10.73
652.479	11.28
652.808	10.44
653.136	10.66
653.465	10.76
653.793	10.81
654.121	11.18
654.449	11.21
654.777	11.11
655.105	11.05
655.433	11.07
655.761	11.32
656.089	11.32
656.417	11
656.745	10.5
657.073	11.37
657.4	11.42
657.728	11.25
658.056	10.58
658.383	11.52
658.711	11.63
659.038	11.32
659.365	11.46
659.693	11.23
660.02	11.36
660.347	11.74
660.674	11.66
661.001	11.39
661.329	11.53
661.656	11.61
661.982	11.66
662.309	12.01
662.636	11.59
662.963	11.74
663.29	11.8
663.616	11.58
663.943	11.78
664.27	11.67
664.596	11.43
664.923	12.11
665.249	11.64
665.576	11.56
665.902	11.89
666.228	12.42
666.554	12.38
666.881	12.41
667.207	12.72
667.533	12.35
667.859	11.96
668.185	12.54
668.511	12.47
668.837	12.37
669.162	12.78
669.488	11.72
669.814	13.02
670.139	12.69
670.465	12.61
670.791	12.86
671.116	12.73
671.442	12.21
671.767	12.39
672.092	12.09
672.418	12.77
672.743	12.55
673.068	12.83
673.393	12.57
673.718	12.59
674.043	12.6
674.368	12.3
674.693	12.83
675.018	12.81
675.343	13.18
675.667	13.08
675.992	12.88
676.317	12.91
676.641	12.57
676.966	13.26
677.29	12.69
677.615	12.62
677.939	13.21
678.264	12.81
678.588	13.22
678.912	12.66
679.236	13.81
679.56	12.99
679.885	14.02
680.209	13.22
680.532	13.43
680.856	13.1
681.18	13.12
681.504	13.6
681.828	13.56
682.152	13.12
682.475	13.62
682.799	13.72
683.122	13.17
683.446	13.75
683.769	13.37
684.093	12.77
684.416	13.45
684.739	14.08
685.062	13.61
685.386	14.01
685.709	14.04
686.032	13.84
686.355	13.71
686.678	13.32
687.001	13.71
687.324	13.68
687.646	13.22
687.969	13.74
688.292	14.24
688.614	13.85
688.937	14.78
