Data from 0013_crown_Reflection__1__11.txt Node

Date: Mon Oct 17 14:30:01 CDT 2022
User: ToomeyLab
Spectrometer: FLMS14357
Trigger mode: 0
Integration Time (sec): 1.000000E-2
Scans to average: 100
Electric dark correction enabled: true
Nonlinearity correction enabled: false
Boxcar width: 0
XAxis mode: Wavelengths
Number of Pixels in Spectrum: 2048
>>>>>Begin Spectral Data<<<<<
189.047	7353.42
189.435	7353.42
189.823	7353.42
190.211	46.03
190.599	136.35
190.987	-214.91
191.375	53.22
191.763	240.75
192.151	84.12
192.538	-346.7
192.926	-118.08
193.314	95.72
193.702	-11.91
194.089	141
194.477	85.94
194.864	283.6
195.252	-303.24
195.639	-32.66
196.027	225.49
196.414	-104.8
196.801	-458.73
197.189	-15.29
197.576	223
197.963	-55.98
198.351	-124.02
198.738	22.42
199.125	-16.63
199.512	-131.62
199.899	-5.34
200.286	-5.8
200.673	-12.68
201.06	-20.97
201.447	8.31
201.833	14.71
202.22	6.78
202.607	-58.3
202.994	8.73
203.38	-19.72
203.767	9.39
204.154	2.71
204.54	-17.24
204.927	-7.16
205.313	-15.72
205.699	14.26
206.086	-32.32
206.472	16.74
206.858	-2.83
207.245	30.37
207.631	23.76
208.017	12.53
208.403	23.88
208.789	6.53
209.175	-13.92
209.561	-35.22
209.947	-32.7
210.333	14.52
210.719	-17.87
211.105	7.19
211.491	12.03
211.876	1.39
212.262	29.18
212.648	-1.2
213.034	-13.74
213.419	-3.67
213.805	-33.98
214.19	10.84
214.576	-22.48
214.961	-7.68
215.346	-20.46
215.732	-16.77
216.117	8.46
216.502	-1.06
216.888	1.68
217.273	-2.65
217.658	16.2
218.043	-12
218.428	9.11
218.813	15.92
219.198	12.71
219.583	-18.98
219.968	-1.61
220.353	7.05
220.738	-0.69
221.122	-5.15
221.507	-12.72
221.892	19.24
222.276	1.49
222.661	1.34
223.046	-0.88
223.43	-0.13
223.815	-10.79
224.199	1.36
224.583	-10.54
224.968	-4.68
225.352	-12.21
225.736	1.63
226.121	-3.66
226.505	-1.67
226.889	2.57
227.273	4.41
227.657	2.34
228.041	5.53
228.425	5.7
228.809	2.17
229.193	1.58
229.577	2.95
229.961	4.61
230.344	2.11
230.728	2.65
231.112	2.5
231.495	3.29
231.879	2.04
232.263	2.72
232.646	3.64
233.03	2.21
233.413	0.09
233.797	2.83
234.18	3.11
234.563	1.52
234.946	2.97
235.33	1.54
235.713	1.74
236.096	3.61
236.479	2.56
236.862	2.4
237.245	3.15
237.628	1.93
238.011	1.94
238.394	1.9
238.777	3.94
239.16	3.59
239.543	0.17
239.925	1.98
240.308	2.75
240.691	2.2
241.073	2.74
241.456	1.32
241.838	2.28
242.221	2.27
242.603	2.55
242.986	1.96
243.368	2.67
243.75	2.38
244.133	3.09
244.515	3.08
244.897	2.82
245.279	2.78
245.661	3.36
246.043	3.44
246.425	2.42
246.807	2.58
247.189	3.11
247.571	2.33
247.953	2.82
248.335	2.77
248.717	2.84
249.098	2.75
249.48	2.68
249.862	2.83
250.243	2.46
250.625	2.9
251.006	2.78
251.388	2.94
251.769	3.26
252.151	1.98
252.532	2.37
252.913	3.48
253.295	2.09
253.676	3.1
254.057	3.22
254.438	2.47
254.819	3.53
255.2	2.84
255.581	3.01
255.962	1.97
256.343	1.66
256.724	1.78
257.105	2.95
257.486	1.55
257.867	1.77
258.247	2.9
258.628	2.34
259.009	2.82
259.389	2.71
259.77	2.63
260.15	2.66
260.531	2.45
260.911	2.7
261.292	2.73
261.672	2.52
262.052	2.53
262.432	2.6
262.813	2.42
263.193	2.41
263.573	2.95
263.953	2.74
264.333	2.84
264.713	2.26
265.093	2.26
265.473	2.56
265.853	1.98
266.233	3.55
266.612	2.71
266.992	3.28
267.372	2.3
267.752	3.49
268.131	2.86
268.511	2.71
268.89	3.04
269.27	2.23
269.649	2.65
270.029	2.34
270.408	2.92
270.787	3.09
271.167	2.21
271.546	2.43
271.925	2.45
272.304	2.74
272.683	2.56
273.062	2.45
273.441	2.63
273.82	2.63
274.199	2.82
274.578	2.59
274.957	2.41
275.336	2.59
275.715	2.76
276.093	3.13
276.472	2.45
276.851	2.78
277.229	2.11
277.608	2.43
277.986	2.55
278.365	2.86
278.743	3.01
279.122	2.11
279.5	2.71
279.878	2.73
280.257	2.71
280.635	2.37
281.013	2.85
281.391	1.91
281.769	2.44
282.147	2.82
282.525	2.43
282.903	2.11
283.281	2.36
283.659	2.19
284.037	2.03
284.415	2.2
284.792	2.28
285.17	1.53
285.548	1.79
285.925	2.68
286.303	2.46
286.68	3.01
287.058	2.61
287.435	2.9
287.813	2.69
288.19	2.68
288.567	2.52
288.945	2.61
289.322	2.78
289.699	2.85
290.076	2.41
290.453	2.22
290.83	2.54
291.207	2.36
291.584	2.46
291.961	2.37
292.338	2.2
292.715	2.69
293.092	2.6
293.469	2.49
293.845	2.45
294.222	3.02
294.599	2.67
294.975	2.02
295.352	1.56
295.728	2.3
296.105	2.22
296.481	2.13
296.858	2.96
297.234	2.08
297.61	2.11
297.986	2.17
298.363	2.74
298.739	2.71
299.115	2.19
299.491	2.41
299.867	2.15
300.243	2.35
300.619	2.18
300.995	2.39
301.371	2.29
301.746	2.09
302.122	2.12
302.498	2.2
302.874	2.88
303.249	2.27
303.625	2.82
304	2.32
304.376	2.93
304.751	2.83
305.127	2.59
305.502	2.48
305.878	2.35
306.253	2.16
306.628	2.64
307.003	2.09
307.378	2.28
307.754	2.06
308.129	2.24
308.504	2.32
308.879	2.64
309.254	2.19
309.629	2.32
310.003	2.53
310.378	2.25
310.753	2.04
311.128	2.37
311.502	2.35
311.877	2.56
312.252	2.34
312.626	2.1
313.001	2.15
313.375	1.99
313.75	2.26
314.124	2.41
314.498	2.05
314.873	2.16
315.247	2.12
315.621	2.65
315.995	2.18
316.369	2.01
316.743	2.21
317.117	2.51
317.491	2.16
317.865	3.11
318.239	2.14
318.613	2.21
318.987	2.19
319.361	2.23
319.734	2.05
320.108	1.91
320.482	1.77
320.855	2.36
321.229	1.92
321.602	2
321.976	1.74
322.349	2.24
322.723	2.29
323.096	2.49
323.469	2.65
323.843	2.46
324.216	2.02
324.589	1.86
324.962	2.48
325.335	1.98
325.708	2.06
326.081	2.2
326.454	2.34
326.827	1.96
327.2	1.97
327.573	2.32
327.945	2.03
328.318	2.14
328.691	2.02
329.063	1.96
329.436	1.84
329.809	1.71
330.181	2.62
330.553	2.12
330.926	2.52
331.298	2.2
331.671	2.3
332.043	2.1
332.415	2.49
332.787	2.17
333.159	2.23
333.532	1.9
333.904	2.09
334.276	1.97
334.648	1.94
335.02	2.3
335.391	2.52
335.763	2.16
336.135	2.34
336.507	2.48
336.879	2.05
337.25	2.53
337.622	1.94
337.993	2.35
338.365	2.22
338.736	1.78
339.108	2.49
339.479	1.48
339.851	2.02
340.222	2.11
340.593	2.15
340.964	2.06
341.336	2.07
341.707	2.15
342.078	2.57
342.449	2.56
342.82	1.81
343.191	2.26
343.562	2.36
343.933	1.94
344.303	1.88
344.674	2.42
345.045	2.13
345.416	2.36
345.786	2.39
346.157	2.19
346.527	2.05
346.898	2.28
347.268	2.48
347.639	1.99
348.009	2.3
348.38	1.93
348.75	2.02
349.12	2.27
349.49	2.2
349.861	2.47
350.231	1.88
350.601	2.27
350.971	2.15
351.341	2.06
351.711	2.02
352.081	2.17
352.45	2.48
352.82	2.2
353.19	1.85
353.56	1.97
353.929	2.36
354.299	2.26
354.669	2
355.038	2.23
355.408	2.3
355.777	1.98
356.147	2.11
356.516	2.19
356.885	2.42
357.254	2.28
357.624	2.5
357.993	2.45
358.362	2.19
358.731	2.04
359.1	1.98
359.469	2.14
359.838	2.43
360.207	2.39
360.576	2.11
360.945	2.18
361.314	2.37
361.682	2.37
362.051	2.34
362.42	2.02
362.788	2.48
363.157	2.37
363.525	1.97
363.894	2.31
364.262	2.44
364.631	2.53
364.999	2.31
365.367	2.27
365.735	2.43
366.104	2.22
366.472	2.19
366.84	2.22
367.208	2.41
367.576	2.15
367.944	2.02
368.312	2.49
368.68	2.45
369.048	2.37
369.416	2.17
369.783	2.4
370.151	2.13
370.519	2.36
370.886	2.42
371.254	2.18
371.621	2.48
371.989	2.34
372.356	2.58
372.724	2.64
373.091	2.32
373.458	2.19
373.826	2.32
374.193	2.64
374.56	2.07
374.927	2.32
375.294	2.25
375.661	2.17
376.028	2.51
376.395	2.19
376.762	2.29
377.129	2.4
377.496	2.3
377.863	2.16
378.229	2.01
378.596	2.05
378.963	2.18
379.329	2.25
379.696	2.19
380.062	2.71
380.429	2.24
380.795	2.61
381.161	2.32
381.528	1.97
381.894	2.01
382.26	2.46
382.626	2.45
382.993	2.52
383.359	2.41
383.725	2.66
384.091	2.06
384.457	2.15
384.823	2.17
385.188	2.12
385.554	2.35
385.92	2.47
386.286	2.43
386.651	2.37
387.017	2.15
387.383	2.41
387.748	2.34
388.114	2.01
388.479	2.56
388.845	2.58
389.21	2.23
389.575	2.3
389.94	2.3
390.306	2.32
390.671	2.52
391.036	2.59
391.401	2.55
391.766	2.42
392.131	2.45
392.496	2.58
392.861	2.29
393.226	2.28
393.591	2.47
393.956	2.47
394.32	2.4
394.685	2.45
395.05	2.36
395.414	2.63
395.779	2.33
396.143	2.56
396.508	2.42
396.872	2.4
397.236	2.42
397.601	2.51
397.965	2.25
398.329	2.47
398.694	2.6
399.058	2.53
399.422	2.53
399.786	2.79
400.15	2.57
400.514	2.3
400.878	2.43
401.242	2.39
401.605	2.68
401.969	2.27
402.333	2.46
402.697	2.2
403.06	2.24
403.424	2.55
403.787	2.41
404.151	2.49
404.514	2.59
404.878	2.65
405.241	2.5
405.604	2.51
405.968	2.62
406.331	2.31
406.694	2.49
407.057	2.39
407.42	2.39
407.783	2.53
408.146	2.76
408.509	2.77
408.872	2.45
409.235	2.62
409.598	2.46
409.961	2.11
410.323	2.44
410.686	2.59
411.049	2.59
411.411	2.5
411.774	2.58
412.136	2.4
412.499	2.53
412.861	2.62
413.223	2.61
413.586	2.61
413.948	2.6
414.31	2.55
414.672	2.61
415.035	2.69
415.397	2.73
415.759	2.52
416.121	2.59
416.483	2.52
416.845	2.55
417.206	2.68
417.568	2.71
417.93	2.43
418.292	2.59
418.653	2.59
419.015	2.58
419.377	2.53
419.738	2.5
420.1	2.53
420.461	2.5
420.822	2.64
421.184	2.48
421.545	2.52
421.906	2.52
422.267	2.58
422.629	2.46
422.99	2.44
423.351	2.5
423.712	2.57
424.073	2.64
424.434	2.49
424.795	2.66
425.155	2.65
425.516	2.44
425.877	2.47
426.238	2.47
426.598	2.51
426.959	2.56
427.32	2.62
427.68	2.63
428.041	2.44
428.401	2.59
428.761	2.56
429.122	2.62
429.482	2.67
429.842	2.71
430.202	2.79
430.563	2.68
430.923	2.64
431.283	2.64
431.643	2.61
432.003	2.69
432.363	2.64
432.722	2.67
433.082	2.55
433.442	2.68
433.802	2.61
434.161	2.56
434.521	2.63
434.881	2.57
435.24	2.52
435.6	2.85
435.959	2.64
436.319	2.77
436.678	2.54
437.037	2.73
437.396	2.51
437.756	2.84
438.115	2.47
438.474	2.69
438.833	2.59
439.192	2.52
439.551	2.5
439.91	2.52
440.269	2.62
440.628	2.64
440.987	2.61
441.345	2.66
441.704	2.58
442.063	2.59
442.421	2.64
442.78	2.65
443.138	2.72
443.497	2.67
443.855	2.79
444.214	2.63
444.572	2.56
444.93	2.75
445.288	2.7
445.647	2.79
446.005	2.81
446.363	2.71
446.721	2.67
447.079	2.69
447.437	2.64
447.795	2.59
448.153	2.66
448.51	2.58
448.868	2.77
449.226	2.66
449.584	2.71
449.941	2.74
450.299	2.77
450.656	2.61
451.014	2.64
451.371	2.84
451.729	2.78
452.086	2.74
452.443	3
452.801	2.81
453.158	2.81
453.515	2.61
453.872	2.74
454.229	2.62
454.586	2.72
454.943	2.69
455.3	2.85
455.657	2.66
456.014	2.83
456.371	2.77
456.727	2.8
457.084	2.7
457.441	2.91
457.797	2.8
458.154	2.9
458.51	2.67
458.867	2.65
459.223	2.81
459.58	2.79
459.936	2.56
460.292	2.83
460.648	2.69
461.005	2.7
461.361	2.7
461.717	2.62
462.073	2.67
462.429	2.77
462.785	2.8
463.141	2.89
463.496	2.78
463.852	2.9
464.208	2.95
464.564	2.77
464.919	2.82
465.275	2.75
465.631	2.73
465.986	2.77
466.342	2.85
466.697	2.81
467.052	2.83
467.408	2.7
467.763	2.72
468.118	2.74
468.473	2.8
468.829	2.8
469.184	2.72
469.539	2.66
469.894	2.78
470.249	2.74
470.603	2.95
470.958	2.92
471.313	2.76
471.668	2.91
472.023	2.82
472.377	2.81
472.732	2.69
473.086	2.93
473.441	2.86
473.795	2.83
474.15	2.79
474.504	2.95
474.859	2.85
475.213	2.89
475.567	3.06
475.921	2.86
476.275	2.8
476.63	2.9
476.984	3.02
477.338	2.98
477.692	2.85
478.045	2.84
478.399	2.75
478.753	2.7
479.107	2.85
479.461	2.76
479.814	2.81
480.168	2.91
480.521	2.88
480.875	2.84
481.228	2.73
481.582	2.87
481.935	2.92
482.289	2.86
482.642	2.78
482.995	2.86
483.348	2.83
483.701	2.76
484.055	2.75
484.408	2.84
484.761	2.74
485.114	2.64
485.466	2.55
485.819	2.57
486.172	2.6
486.525	2.76
486.878	2.8
487.23	2.85
487.583	2.86
487.936	2.91
488.288	2.78
488.641	2.68
488.993	2.64
489.345	2.67
489.698	2.72
490.05	2.69
490.402	2.78
490.754	2.83
491.107	2.83
491.459	2.8
491.811	3
492.163	2.84
492.515	2.82
492.866	2.72
493.218	2.7
493.57	2.7
493.922	2.74
494.274	2.82
494.625	2.92
494.977	2.97
495.328	2.97
495.68	2.96
496.031	2.93
496.383	2.92
496.734	2.9
497.086	2.78
497.437	2.83
497.788	2.94
498.139	2.8
498.49	2.87
498.842	2.75
499.193	2.83
499.544	2.89
499.894	2.89
500.245	2.87
500.596	2.8
500.947	2.98
501.298	2.98
501.648	2.89
501.999	2.78
502.35	2.92
502.7	2.96
503.051	2.86
503.401	3.09
503.752	3.03
504.102	2.89
504.452	2.91
504.803	2.93
505.153	2.94
505.503	2.94
505.853	2.88
506.203	2.94
506.553	2.95
506.903	2.95
507.253	2.98
507.603	2.94
507.953	2.96
508.303	2.88
508.652	2.92
509.002	2.94
509.352	2.83
509.701	2.92
510.051	2.96
510.4	2.73
510.75	2.87
511.099	2.78
511.449	2.82
511.798	2.97
512.147	2.89
512.496	2.87
512.846	2.91
513.195	2.95
513.544	2.98
513.893	2.92
514.242	3.08
514.591	2.92
514.939	2.89
515.288	2.95
515.637	2.98
515.986	3.01
516.334	2.95
516.683	3.14
517.032	2.98
517.38	2.94
517.729	3.02
518.077	3.03
518.426	2.9
518.774	2.93
519.122	2.9
519.47	2.95
519.819	3.01
520.167	2.86
520.515	2.77
520.863	2.9
521.211	2.93
521.559	2.98
521.907	3.01
522.255	2.99
522.602	2.98
522.95	3.03
523.298	2.86
523.645	2.99
523.993	2.99
524.341	2.97
524.688	2.97
525.036	3.05
525.383	3.01
525.73	2.96
526.078	2.98
526.425	2.96
526.772	2.86
527.119	2.9
527.466	2.86
527.814	2.86
528.161	2.93
528.508	2.98
528.854	2.9
529.201	2.93
529.548	2.93
529.895	2.79
530.242	2.74
530.588	2.68
530.935	2.78
531.282	2.87
531.628	2.94
531.975	2.99
532.321	2.94
532.667	3.07
533.014	2.98
533.36	3.01
533.706	3.02
534.052	2.98
534.399	2.93
534.745	2.85
535.091	2.82
535.437	2.87
535.783	2.93
536.129	3
536.474	3.1
536.82	3.11
537.166	3.11
537.512	3.02
537.857	3.02
538.203	2.92
538.549	2.9
538.894	2.91
539.239	2.98
539.585	3.03
539.93	3.04
540.276	2.96
540.621	3
540.966	3.05
541.311	3.04
541.656	2.98
542.001	3.02
542.346	2.96
542.691	2.94
543.036	2.77
543.381	2.82
543.726	2.83
544.071	2.93
544.415	3.02
544.76	3.02
545.105	2.93
545.449	3
545.794	3.02
546.138	3.02
546.483	3.1
546.827	3.08
547.171	2.93
547.516	3.08
547.86	3.02
548.204	2.99
548.548	2.9
548.892	2.96
549.236	3.06
549.58	3.04
549.924	3.04
550.268	3.13
550.612	3.09
550.956	3.24
551.3	3.07
551.643	3.11
551.987	3.03
552.33	3.13
552.674	3.12
553.017	3.07
553.361	3.08
553.704	2.96
554.048	2.92
554.391	3.01
554.734	3.06
555.077	3
555.42	3.08
555.764	3.1
556.107	3.03
556.45	3.1
556.793	3.2
557.135	3.17
557.478	3.16
557.821	3.1
558.164	3.05
558.507	3.17
558.849	3.13
559.192	3.05
559.534	3.04
559.877	3.01
560.219	2.89
560.562	2.87
560.904	3.06
561.246	3.01
561.589	3.04
561.931	3.11
562.273	3.08
562.615	2.92
562.957	3.22
563.299	3.08
563.641	3.05
563.983	2.97
564.325	3.31
564.667	3.28
565.008	3.16
565.35	3.17
565.692	3.16
566.033	2.98
566.375	2.85
566.716	3.09
567.058	3.04
567.399	2.94
567.741	2.99
568.082	3
568.423	2.97
568.764	3.03
569.105	2.94
569.447	2.97
569.788	3.14
570.129	3.2
570.47	3.13
570.811	3.15
571.151	3.03
571.492	3.23
571.833	2.99
572.174	3.11
572.514	3
572.855	3.09
573.195	2.99
573.536	2.9
573.876	3.02
574.217	3.11
574.557	3.02
574.898	3.02
575.238	3.07
575.578	3.25
575.918	3.01
576.258	3.11
576.598	2.98
576.938	3.17
577.278	2.99
577.618	3.09
577.958	2.97
578.298	3.08
578.638	3.22
578.977	3.19
579.317	3.06
579.657	3.05
579.996	2.98
580.336	3.19
580.675	2.97
581.014	2.87
581.354	3.11
581.693	2.96
582.032	3.04
582.372	2.97
582.711	3.08
583.05	3.06
583.389	3.04
583.728	3.06
584.067	3.03
584.406	2.85
584.745	3.32
585.083	3.39
585.422	3.03
585.761	3.23
586.1	3.13
586.438	3.36
586.777	3.13
587.115	3.06
587.454	3.11
587.792	3.24
588.13	3.04
588.469	3.1
588.807	3.19
589.145	3.18
589.483	3
589.821	3.16
590.159	3.18
590.497	3.17
590.835	3.13
591.173	3.21
591.511	3.12
591.849	2.92
592.187	3.08
592.524	3.03
592.862	3.22
593.2	3.16
593.537	3.25
593.875	2.97
594.212	3.14
594.55	2.98
594.887	3.09
595.224	3.37
595.561	3.12
595.899	3.23
596.236	3.43
596.573	3.18
596.91	3.26
597.247	3.22
597.584	3.11
597.921	3.38
598.258	3.18
598.594	3.05
598.931	3.01
599.268	3.08
599.604	3
599.941	2.99
600.277	3.22
600.614	3.16
600.95	3.12
601.287	3.05
601.623	3.05
601.959	3.21
602.296	3.17
602.632	2.86
602.968	3.17
603.304	3.1
603.64	3.08
603.976	3.12
604.312	3.43
604.648	3.16
604.984	3.18
605.319	3.19
605.655	3.14
605.991	3.14
606.326	3.18
606.662	3.14
606.998	3.16
607.333	3.11
607.668	3.02
608.004	3.22
608.339	3.29
608.674	3.32
609.01	3.22
609.345	3.52
609.68	3.29
610.015	3.35
610.35	2.8
610.685	2.91
611.02	3.17
611.355	3.19
611.689	3.03
612.024	3.36
612.359	3.04
612.694	3.15
613.028	3.06
613.363	3.33
613.697	3
614.032	3.56
614.366	3.06
614.7	3.29
615.035	3.12
615.369	3.49
615.703	3.21
616.037	3.38
616.371	3.26
616.705	3.08
617.039	3.79
617.373	3.14
617.707	3.06
618.041	3.2
618.375	3.1
618.709	3.41
619.042	3.3
619.376	2.94
619.71	3.34
620.043	3.29
620.377	3.22
620.71	3.32
621.043	3.45
621.377	3.46
621.71	3.28
622.043	3.42
622.376	3.17
622.709	3.36
623.043	3.36
623.376	3.22
623.709	3.33
624.041	3.09
624.374	3.24
624.707	3.04
625.04	3.31
625.373	3.23
625.705	3.25
626.038	3.17
626.37	3.14
626.703	3.51
627.035	3.53
627.368	3.21
627.7	3.05
628.032	3.11
628.365	3.02
628.697	3.33
629.029	3.16
629.361	3.18
629.693	3.27
630.025	3.26
630.357	3.18
630.689	3.16
631.021	3.19
631.353	2.95
631.684	3.08
632.016	3.15
632.348	3.55
632.679	3.38
633.011	3
633.342	3.15
633.674	3.5
634.005	3.11
634.336	3.13
634.668	3.48
634.999	3.19
635.33	3.13
635.661	3.23
635.992	3.39
636.323	3.32
636.654	3.38
636.985	2.96
637.316	3.12
637.647	3.23
637.977	3.17
638.308	3.32
638.639	3.15
638.969	3.11
639.3	3.1
639.63	3.46
639.961	3.48
640.291	3.17
640.622	3.03
640.952	3.28
641.282	3.25
641.612	3.26
641.943	3.35
642.273	3.28
642.603	2.99
642.933	3.2
643.263	3.33
643.592	3.14
643.922	3.33
644.252	3.31
644.582	3.73
644.911	3.63
645.241	3.87
645.571	3.03
645.9	3.3
646.23	3.1
646.559	3.18
646.888	3.28
647.218	3.06
647.547	3.31
647.876	3.24
648.205	3.27
648.534	3.43
648.863	3.03
649.192	3.33
649.521	3.19
649.85	3.15
650.179	3.41
650.508	3.01
650.837	3.17
651.165	3.37
651.494	3.64
651.822	3.29
652.151	3.17
652.479	3.31
652.808	2.84
653.136	3.14
653.465	3.11
653.793	3.32
654.121	3.23
654.449	3.5
654.777	2.96
655.105	3.05
655.433	2.94
655.761	3.41
656.089	3.29
656.417	3.05
656.745	3.27
657.073	3.46
657.4	3.34
657.728	2.86
658.056	2.84
658.383	3.4
658.711	3.05
659.038	3.01
659.365	3.35
659.693	2.9
660.02	3.15
660.347	3.37
660.674	3.07
661.001	3.11
661.329	3.5
661.656	3.17
661.982	3.13
662.309	3.57
662.636	3.54
662.963	3.33
663.29	3.27
663.616	3.46
663.943	3
664.27	3.36
664.596	3.04
664.923	3.27
665.249	3.18
665.576	3.39
665.902	2.92
666.228	3.24
666.554	2.99
666.881	3.21
667.207	3.37
667.533	3.91
667.859	3.32
668.185	3.46
668.511	3.58
668.837	3.26
669.162	3.7
669.488	3.39
669.814	3.81
670.139	3.32
670.465	3.57
670.791	3.43
671.116	4.03
671.442	3.49
671.767	3.27
672.092	3.15
672.418	3.24
672.743	3.35
673.068	3.66
673.393	2.98
673.718	3.25
674.043	3.33
674.368	3.49
674.693	2.9
675.018	3.5
675.343	3.28
675.667	3.71
675.992	2.84
676.317	3.2
676.641	3.01
676.966	3.58
677.29	3.57
677.615	2.92
677.939	3.06
678.264	3.2
678.588	3.69
678.912	3.4
679.236	4.01
679.56	3.18
679.885	3.76
680.209	3.28
680.532	3.04
680.856	3.43
681.18	3.45
681.504	3.52
681.828	3.74
682.152	3.11
682.475	3.53
682.799	3.2
683.122	3.53
683.446	3.62
683.769	3.75
684.093	3.1
684.416	3.74
684.739	3.34
685.062	3.99
685.386	3.92
685.709	3.43
686.032	3.76
686.355	3.28
686.678	2.9
687.001	3.17
687.324	3.48
687.646	2.76
687.969	3.74
688.292	4.01
688.614	3.45
688.937	3.67
689.26	3.91
689.582	2.73
689.904	3.73
690.227	3.72
690.549	3.51
690.871	3.29
691.194	3.18
691.516	3.71
691.838	3.02
692.16	3.59
692.482	3.49
