Data from 0013_forehead_Reflection__2__17.txt Node

Date: Mon Oct 17 14:31:44 CDT 2022
User: ToomeyLab
Spectrometer: FLMS14357
Trigger mode: 0
Integration Time (sec): 1.000000E-2
Scans to average: 100
Electric dark correction enabled: true
Nonlinearity correction enabled: false
Boxcar width: 0
XAxis mode: Wavelengths
Number of Pixels in Spectrum: 2048
>>>>>Begin Spectral Data<<<<<
189.047	-863.01
189.435	-863.01
189.823	-863.01
190.211	-12.66
190.599	659.73
190.987	-50.87
191.375	158.22
191.763	306.17
192.151	53.5
192.538	-270.13
192.926	-300.96
193.314	30.87
193.702	197.25
194.089	19.54
194.477	138.21
194.864	107.86
195.252	-270.81
195.639	174.56
196.027	162.54
196.414	-218.73
196.801	287.79
197.189	91.44
197.576	83.06
197.963	-144.2
198.351	-224.94
198.738	37.94
199.125	-34.82
199.512	-80.23
199.899	11.08
200.286	-2.66
200.673	25.41
201.06	-25.17
201.447	27.92
201.833	38.69
202.22	37.99
202.607	43.47
202.994	5.78
203.38	27.23
203.767	11.13
204.154	34.87
204.54	15.59
204.927	45.41
205.313	2.93
205.699	50.12
206.086	0.47
206.472	36.58
206.858	15.45
207.245	28.39
207.631	12.08
208.017	33.66
208.403	22.8
208.789	16.81
209.175	26.86
209.561	-12.59
209.947	-25.13
210.333	25.95
210.719	17.86
211.105	23.47
211.491	13.46
211.876	-8.12
212.262	29.9
212.648	23.8
213.034	22.08
213.419	18.2
213.805	6.4
214.19	22.56
214.576	37.04
214.961	1.7
215.346	23.52
215.732	-5.03
216.117	24.13
216.502	21.48
216.888	8.6
217.273	-18
217.658	30.95
218.043	6.01
218.428	-3.87
218.813	13.95
219.198	12.13
219.583	-2.08
219.968	14.9
220.353	15.71
220.738	7.77
221.122	9.56
221.507	13.37
221.892	6.82
222.276	6.36
222.661	10.1
223.046	8.62
223.43	13.35
223.815	2.5
224.199	9.07
224.583	-2.09
224.968	-1.46
225.352	-7.3
225.736	7.08
226.121	-6.88
226.505	5.28
226.889	5.42
227.273	3.87
227.657	7.66
228.041	4.97
228.425	4.39
228.809	3.01
229.193	3.45
229.577	5.32
229.961	4.15
230.344	2.44
230.728	2.42
231.112	2.96
231.495	3.06
231.879	3.94
232.263	2.54
232.646	4.53
233.03	3.07
233.413	1.33
233.797	3.54
234.18	5.17
234.563	2.58
234.946	3.9
235.33	3.52
235.713	2.29
236.096	2.25
236.479	3.75
236.862	2.45
237.245	2.59
237.628	1.12
238.011	3.53
238.394	4.27
238.777	5.27
239.16	4.19
239.543	3.37
239.925	4.26
240.308	3.13
240.691	3.33
241.073	3.44
241.456	2.91
241.838	3.25
242.221	2.07
242.603	2.59
242.986	2.48
243.368	2.85
243.75	2.55
244.133	2.69
244.515	2.87
244.897	3.35
245.279	3.74
245.661	3.21
246.043	3.23
246.425	2.29
246.807	3.2
247.189	3.04
247.571	3.09
247.953	2.52
248.335	2.62
248.717	2.72
249.098	3.09
249.48	2.98
249.862	2.69
250.243	2.5
250.625	3.24
251.006	2.73
251.388	2.97
251.769	3.78
252.151	2.93
252.532	3.31
252.913	3.22
253.295	1.91
253.676	3.12
254.057	3.12
254.438	2.86
254.819	3.29
255.2	4.21
255.581	3.02
255.962	2.46
256.343	2.82
256.724	3.01
257.105	2.76
257.486	2.82
257.867	2.95
258.247	3.14
258.628	2.91
259.009	3.65
259.389	2.69
259.77	3.18
260.15	2.97
260.531	2.47
260.911	2.74
261.292	2.83
261.672	2.65
262.052	2.7
262.432	2.65
262.813	2.75
263.193	3.15
263.573	3.18
263.953	2.78
264.333	2.99
264.713	2.77
265.093	3.03
265.473	2.78
265.853	2.79
266.233	3.87
266.612	3.03
266.992	3.96
267.372	2.95
267.752	3.16
268.131	3.37
268.511	2.74
268.89	2.97
269.27	2.83
269.649	2.73
270.029	2.65
270.408	3.49
270.787	2.86
271.167	2.69
271.546	2.71
271.925	2.57
272.304	3.5
272.683	2.84
273.062	2.6
273.441	2.33
273.82	2.47
274.199	3.26
274.578	2.89
274.957	2.59
275.336	2.69
275.715	2.66
276.093	2.53
276.472	3
276.851	2.88
277.229	2.39
277.608	2.57
277.986	2.6
278.365	3.44
278.743	3.06
279.122	2.54
279.5	3.18
279.878	2.66
280.257	2.6
280.635	2.54
281.013	2.85
281.391	2.63
281.769	2.82
282.147	2.93
282.525	3
282.903	2.54
283.281	2.66
283.659	2.7
284.037	2.34
284.415	2.92
284.792	2.42
285.17	2.29
285.548	3
285.925	3.05
286.303	2.79
286.68	2.83
287.058	3.16
287.435	2.8
287.813	2.67
288.19	2.73
288.567	2.6
288.945	2.62
289.322	3.32
289.699	3.03
290.076	2.99
290.453	2.52
290.83	2.84
291.207	3.08
291.584	2.95
291.961	3.04
292.338	3.02
292.715	2.94
293.092	2.78
293.469	2.94
293.845	3.43
294.222	3.63
294.599	3.43
294.975	2.72
295.352	2.85
295.728	3.11
296.105	2.98
296.481	2.98
296.858	3.35
297.234	2.92
297.61	2.98
297.986	2.87
298.363	2.91
298.739	3.47
299.115	2.96
299.491	2.99
299.867	2.98
300.243	3.68
300.619	2.85
300.995	3.05
301.371	3.38
301.746	2.9
302.122	3.12
302.498	3.51
302.874	3.41
303.249	3.72
303.625	3.63
304	3.27
304.376	3.66
304.751	3.95
305.127	3.67
305.502	3.53
305.878	3.79
306.253	3.73
306.628	3.89
307.003	3.58
307.378	3.79
307.754	3.75
308.129	3.85
308.504	3.74
308.879	3.85
309.254	3.93
309.629	3.39
310.003	4.31
310.378	3.92
310.753	3.79
311.128	3.83
311.502	4.17
311.877	3.91
312.252	3.84
312.626	3.76
313.001	3.63
313.375	3.9
313.75	3.82
314.124	3.97
314.498	3.97
314.873	4.13
315.247	4.04
315.621	4.39
315.995	3.95
316.369	4.09
316.743	4.36
317.117	4.61
317.491	4.44
317.865	4.57
318.239	4.98
318.613	4.79
318.987	4.42
319.361	4.54
319.734	4.69
320.108	4.42
320.482	4.61
320.855	4.2
321.229	4.06
321.602	5.01
321.976	4.36
322.349	4.64
322.723	4.48
323.096	4.54
323.469	5.08
323.843	4.89
324.216	4.83
324.589	4.89
324.962	4.88
325.335	5
325.708	5.38
326.081	5.01
326.454	5.51
326.827	5.03
327.2	4.91
327.573	4.82
327.945	4.66
328.318	5.38
328.691	5.42
329.063	4.85
329.436	5.11
329.809	5.22
330.181	5.52
330.553	5.18
330.926	5.36
331.298	5.28
331.671	6.02
332.043	5.82
332.415	5.93
332.787	5.58
333.159	5.54
333.532	5.51
333.904	5.35
334.276	5.54
334.648	5.07
335.02	5.42
335.391	5.96
335.763	5.65
336.135	5.57
336.507	6.37
336.879	5.83
337.25	6
337.622	5.88
337.993	6.1
338.365	5.86
338.736	5.97
339.108	6.17
339.479	5.68
339.851	6.11
340.222	5.74
340.593	6.11
340.964	5.92
341.336	5.93
341.707	6.14
342.078	5.88
342.449	6.23
342.82	6.08
343.191	6.27
343.562	6.44
343.933	6.44
344.303	6.09
344.674	7.01
345.045	6.89
345.416	6.48
345.786	6.67
346.157	6.3
346.527	6.67
346.898	6.86
347.268	7.01
347.639	6.73
348.009	6.84
348.38	6.74
348.75	6.41
349.12	6.82
349.49	6.75
349.861	7.32
350.231	6.68
350.601	6.56
350.971	7.17
351.341	6.58
351.711	6.94
352.081	7.03
352.45	7.42
352.82	7.64
353.19	6.99
353.56	6.98
353.929	7.3
354.299	7.18
354.669	7.54
355.038	7.62
355.408	7.59
355.777	7.24
356.147	7.31
356.516	7.57
356.885	7.86
357.254	7.49
357.624	8.04
357.993	7.77
358.362	7.53
358.731	7.5
359.1	7.56
359.469	7.74
359.838	7.78
360.207	8.01
360.576	7.88
360.945	8.02
361.314	7.9
361.682	8.18
362.051	7.78
362.42	8.02
362.788	8.11
363.157	8.16
363.525	7.91
363.894	8.31
364.262	8.28
364.631	8.24
364.999	8.12
365.367	8.29
365.735	8.17
366.104	8.26
366.472	8.01
366.84	8.54
367.208	8.73
367.576	8.65
367.944	8.45
368.312	8.45
368.68	8.87
369.048	8.7
369.416	8.86
369.783	8.66
370.151	8.66
370.519	8.93
370.886	9.2
371.254	9.02
371.621	8.8
371.989	9.15
372.356	9.2
372.724	9
373.091	9.02
373.458	9.17
373.826	9.3
374.193	9.4
374.56	9.35
374.927	9.45
375.294	9.36
375.661	9.57
376.028	9.67
376.395	9.27
376.762	9.49
377.129	9.58
377.496	9.32
377.863	9.51
378.229	9.69
378.596	9.68
378.963	9.65
379.329	9.93
379.696	9.72
380.062	9.96
380.429	9.71
380.795	10.1
381.161	10.04
381.528	9.82
381.894	10.12
382.26	9.98
382.626	10.39
382.993	10.45
383.359	10.34
383.725	10.52
384.091	10.66
384.457	10.3
384.823	10.29
385.188	10.22
385.554	10.76
385.92	10.46
386.286	10.55
386.651	10.57
387.017	10.35
387.383	10.57
387.748	10.82
388.114	10.67
388.479	10.87
388.845	10.98
389.21	10.99
389.575	11.15
389.94	10.93
390.306	11.31
390.671	11.23
391.036	11.11
391.401	11.05
391.766	11.29
392.131	11.33
392.496	11.34
392.861	10.98
393.226	11.17
393.591	11.26
393.956	11.41
394.32	11.73
394.685	11.52
395.05	11.54
395.414	11.79
395.779	11.51
396.143	11.7
396.508	11.59
396.872	11.65
397.236	11.95
397.601	11.88
397.965	11.6
398.329	11.92
398.694	12.06
399.058	11.88
399.422	11.89
399.786	12.31
400.15	12.13
400.514	12.14
400.878	12.26
401.242	12.17
401.605	12.47
401.969	12.36
402.333	12.5
402.697	12.44
403.06	12.5
403.424	12.45
403.787	12.52
404.151	12.55
404.514	12.52
404.878	12.57
405.241	12.57
405.604	12.76
405.968	12.82
406.331	12.44
406.694	12.81
407.057	12.54
407.42	12.69
407.783	12.91
408.146	13.19
408.509	13.26
408.872	13.08
409.235	13.13
409.598	13.09
409.961	12.97
410.323	13.46
410.686	13.43
411.049	13.31
411.411	13.63
411.774	13.42
412.136	13.53
412.499	13.48
412.861	13.59
413.223	13.77
413.586	13.5
413.948	13.68
414.31	13.61
414.672	13.86
415.035	14.04
415.397	14.06
415.759	13.92
416.121	14.19
416.483	14.15
416.845	13.97
417.206	13.81
417.568	14.06
417.93	14
418.292	13.99
418.653	14.1
419.015	14.09
419.377	14.06
419.738	13.87
420.1	14.08
420.461	14.11
420.822	14.25
421.184	14.12
421.545	14.07
421.906	14.21
422.267	14.06
422.629	14.12
422.99	14.21
423.351	14.23
423.712	14.3
424.073	14.36
424.434	14.52
424.795	14.65
425.155	14.66
425.516	14.43
425.877	14.41
426.238	14.42
426.598	14.38
426.959	14.61
427.32	14.91
427.68	14.95
428.041	15.02
428.401	15.21
428.761	15.39
429.122	15.44
429.482	15.55
429.842	15.42
430.202	15.68
430.563	15.53
430.923	15.76
431.283	15.7
431.643	15.56
432.003	15.76
432.363	15.77
432.722	15.88
433.082	15.72
433.442	15.81
433.802	15.78
434.161	15.72
434.521	15.93
434.881	15.72
435.24	15.65
435.6	15.76
435.959	15.86
436.319	16.12
436.678	16.21
437.037	16.15
437.396	16.25
437.756	16.46
438.115	16.15
438.474	16.34
438.833	16.34
439.192	16.36
439.551	16.23
439.91	16.28
440.269	16.37
440.628	16.28
440.987	16.38
441.345	16.26
441.704	16.29
442.063	16.39
442.421	16.51
442.78	16.43
443.138	16.6
443.497	16.64
443.855	16.88
444.214	16.9
444.572	16.93
444.93	17.14
445.288	17.04
445.647	17.04
446.005	17
446.363	17.15
446.721	16.91
447.079	16.88
447.437	16.88
447.795	16.84
448.153	16.73
448.51	16.8
448.868	17.04
449.226	17.04
449.584	17.06
449.941	17.52
450.299	17.62
450.656	17.55
451.014	17.57
451.371	17.85
451.729	17.87
452.086	17.84
452.443	18.11
452.801	17.87
453.158	18.1
453.515	18.1
453.872	17.97
454.229	17.84
454.586	17.98
454.943	18.03
455.3	18.31
455.657	18.12
456.014	18.25
456.371	18.1
456.727	18.25
457.084	18.37
457.441	18.4
457.797	18.42
458.154	18.51
458.51	18.54
458.867	18.69
459.223	18.66
459.58	18.57
459.936	18.7
460.292	18.63
460.648	18.53
461.005	18.59
461.361	18.29
461.717	18.28
462.073	18.34
462.429	18.54
462.785	18.82
463.141	18.86
463.496	19.05
463.852	18.99
464.208	19.28
464.564	19.34
464.919	19.22
465.275	19.24
465.631	19.43
465.986	19.65
466.342	19.47
466.697	19.59
467.052	19.5
467.408	19.49
467.763	19.48
468.118	19.54
468.473	19.77
468.829	19.4
469.184	19.61
469.539	19.6
469.894	19.66
470.249	19.77
470.603	19.76
470.958	20
471.313	19.74
471.668	20.11
472.023	19.93
472.377	20.17
472.732	20.03
473.086	20.31
473.441	20.24
473.795	20.31
474.15	20.35
474.504	20.35
474.859	20.23
475.213	20.58
475.567	20.48
475.921	20.68
476.275	20.49
476.63	20.6
476.984	20.98
477.338	20.79
477.692	20.88
478.045	20.83
478.399	20.81
478.753	20.94
479.107	20.86
479.461	20.89
479.814	20.89
480.168	20.83
480.521	20.97
480.875	20.94
481.228	20.91
481.582	21.18
481.935	21.17
482.289	21.06
482.642	21.16
482.995	21.16
483.348	21.08
483.701	21.13
484.055	21.16
484.408	21.1
484.761	20.89
485.114	20.59
485.466	20.35
485.819	20.23
486.172	20.19
486.525	20.35
486.878	20.56
487.23	20.71
487.583	20.98
487.936	21.25
488.288	21.2
488.641	21
488.993	20.97
489.345	20.94
489.698	20.9
490.05	20.94
490.402	21
490.754	21.21
491.107	21.41
491.459	21.77
491.811	22.06
492.163	22.09
492.515	22.07
492.866	21.75
493.218	21.49
493.57	21.48
493.922	21.46
494.274	21.69
494.625	21.83
494.977	22.13
495.328	22.33
495.68	22.66
496.031	22.86
496.383	22.69
496.734	22.79
497.086	22.76
497.437	22.93
497.788	23.04
498.139	22.85
498.49	22.75
498.842	22.78
499.193	22.97
499.544	22.86
499.894	22.96
500.245	23.01
500.596	23.11
500.947	23.16
501.298	23.38
501.648	23.49
501.999	23.51
502.35	23.68
502.7	23.67
503.051	23.63
503.401	23.86
503.752	23.9
504.102	23.86
504.452	23.86
504.803	23.96
505.153	23.84
505.503	23.96
505.853	23.98
506.203	23.9
506.553	24.01
506.903	23.92
507.253	24.1
507.603	24.12
507.953	24.34
508.303	24.16
508.652	24.3
509.002	24.34
509.352	24.26
509.701	24.36
510.051	24.2
510.4	23.96
510.75	24.14
511.099	24.28
511.449	24.34
511.798	24.26
512.147	24.56
512.496	24.53
512.846	24.73
513.195	24.73
513.544	24.71
513.893	24.65
514.242	24.86
514.591	24.72
514.939	24.82
515.288	24.98
515.637	25.07
515.986	25.08
516.334	25.29
516.683	25.48
517.032	25.43
517.38	25.36
517.729	25.59
518.077	25.49
518.426	25.52
518.774	25.5
519.122	25.58
519.47	25.44
519.819	25.4
520.167	25.24
520.515	24.98
520.863	25.14
521.211	25.1
521.559	25.24
521.907	25.56
522.255	25.7
522.602	25.81
522.95	25.97
523.298	26.01
523.645	26.25
523.993	26.29
524.341	26.41
524.688	26.33
525.036	26.39
525.383	26.29
525.73	26.5
526.078	26.52
526.425	26.33
526.772	26.33
527.119	26.27
527.466	26.02
527.814	26.06
528.161	26.02
528.508	26.28
528.854	26.27
529.201	26.34
529.548	26.3
529.895	26.01
530.242	25.8
530.588	25.67
530.935	25.71
531.282	25.67
531.628	25.79
531.975	25.84
532.321	26.15
532.667	26.57
533.014	26.61
533.36	26.96
533.706	26.94
534.052	27.05
534.399	26.94
534.745	26.59
535.091	26.44
535.437	26.54
535.783	26.56
536.129	26.62
536.474	26.93
536.82	27.11
537.166	27.44
537.512	27.54
537.857	27.53
538.203	27.29
538.549	27.21
538.894	27.57
539.239	27.42
539.585	27.44
539.93	27.75
540.276	27.9
540.621	28.14
540.966	28.2
541.311	28.39
541.656	28.31
542.001	28.31
542.346	28.21
542.691	27.73
543.036	27.45
543.381	27.37
543.726	27.46
544.071	27.48
544.415	27.61
544.76	27.77
545.105	27.97
545.449	28.23
545.794	28.37
546.138	28.34
546.483	28.35
546.827	28.45
547.171	28.6
547.516	28.69
547.86	28.83
548.204	28.52
548.548	28.69
548.892	28.75
549.236	28.86
549.58	29
549.924	29.1
550.268	29.35
550.612	29.27
550.956	29.78
551.3	29.65
551.643	29.76
551.987	29.69
552.33	29.68
552.674	29.71
553.017	29.86
553.361	29.76
553.704	29.77
554.048	29.75
554.391	29.6
554.734	29.6
555.077	29.63
555.42	29.88
555.764	29.98
556.107	30.06
556.45	30.26
556.793	30.3
557.135	30.23
557.478	30.44
557.821	30.28
558.164	30.6
558.507	30.51
558.849	30.44
559.192	30.51
559.534	30.37
559.877	30.49
560.219	30.66
560.562	30.66
560.904	30.92
561.246	31
561.589	30.92
561.931	30.73
562.273	30.97
562.615	30.91
562.957	31.13
563.299	30.96
563.641	31.17
563.983	30.92
564.325	31.19
564.667	31.39
565.008	31.52
565.35	31.28
565.692	31.72
566.033	31.36
566.375	31.5
566.716	31.39
567.058	31.43
567.399	31.43
567.741	31.5
568.082	31.2
568.423	31.47
568.764	31.38
569.105	31.26
569.447	31.52
569.788	31.69
570.129	31.98
570.47	31.97
570.811	32.09
571.151	31.97
571.492	31.84
571.833	31.99
572.174	32.17
572.514	32.17
572.855	32.21
573.195	32.08
573.536	32.01
573.876	32.09
574.217	32
574.557	32.26
574.898	32.08
575.238	32.38
575.578	32.47
575.918	32.43
576.258	32.56
576.598	32.5
576.938	32.6
577.278	32.59
577.618	32.52
577.958	32.46
578.298	32.65
578.638	32.89
578.977	32.97
579.317	32.95
579.657	32.83
579.996	33.05
580.336	33.18
580.675	33.14
581.014	32.89
581.354	33.05
581.693	33.02
582.032	33.33
582.372	33.62
582.711	33.61
583.05	33.35
583.389	33.46
583.728	33.87
584.067	33.93
584.406	33.45
584.745	33.72
585.083	34.06
585.422	33.79
585.761	33.87
586.1	34.05
586.438	33.76
586.777	33.82
587.115	33.76
587.454	34.09
587.792	33.88
588.13	34.07
588.469	34.34
588.807	33.97
589.145	34.24
589.483	34.25
589.821	34.31
590.159	34.27
590.497	34.43
590.835	34.2
591.173	34.31
591.511	34.29
591.849	34.44
592.187	34.56
592.524	34.58
592.862	34.75
593.2	34.74
593.537	34.59
593.875	34.67
594.212	34.76
594.55	34.7
594.887	35.01
595.224	34.91
595.561	34.9
595.899	35.05
596.236	34.99
596.573	35.16
596.91	34.92
597.247	35.17
597.584	35.15
597.921	35.54
598.258	35.44
598.594	35.01
598.931	34.89
599.268	34.96
599.604	34.9
599.941	35.11
600.277	35.12
600.614	35.51
600.95	35.43
601.287	35.62
601.623	35.42
601.959	35.83
602.296	35.65
602.632	35.73
602.968	35.67
603.304	35.84
603.64	35.92
603.976	35.6
604.312	36.03
604.648	36.02
604.984	35.94
605.319	35.73
605.655	36.02
605.991	35.71
606.326	35.6
606.662	35.65
606.998	35.84
607.333	36.02
607.668	35.83
608.004	35.96
608.339	36.54
608.674	36.45
609.01	36.49
609.345	36.43
609.68	36.7
610.015	36.77
610.35	36.61
610.685	36.34
611.02	36.27
611.355	36.37
611.689	36.18
612.024	36.4
612.359	36.52
612.694	36.64
613.028	36.88
613.363	36.83
613.697	36.83
614.032	37.31
614.366	37.14
614.7	37.07
615.035	37.12
615.369	36.98
615.703	37.26
616.037	37.56
616.371	37
616.705	37.59
617.039	37.74
617.373	37.68
617.707	37.07
618.041	37.58
618.375	37.26
618.709	37.76
619.042	37.51
619.376	37.51
619.71	37.79
620.043	37.55
620.377	37.65
620.71	37.87
621.043	37.68
621.377	37.74
621.71	38.32
622.043	37.93
622.376	37.89
622.709	38.14
623.043	37.82
623.376	37.84
623.709	37.42
624.041	37.56
624.374	38.42
624.707	38.27
625.04	37.96
625.373	38.41
625.705	38.02
626.038	38.43
626.37	38.77
626.703	38.67
627.035	38.42
627.368	38.33
627.7	38.62
628.032	38.41
628.365	38.44
628.697	38.38
629.029	38.82
629.361	38.47
629.693	38.71
630.025	38.57
630.357	38.54
630.689	38.6
631.021	38.57
631.353	39
631.684	38.8
632.016	38.98
632.348	39.09
632.679	38.71
633.011	38.74
633.342	38.77
633.674	39.21
634.005	38.87
634.336	39.07
634.668	39.7
634.999	39.05
635.33	39.18
635.661	39.32
635.992	39.25
636.323	39.38
636.654	39.49
636.985	38.88
637.316	39.11
637.647	39.28
637.977	39.02
638.308	39.21
638.639	39.6
638.969	39.4
639.3	39.18
639.63	39.53
639.961	39.48
640.291	39.9
640.622	39.83
640.952	40
641.282	39.82
641.612	40.03
641.943	39.56
642.273	39.89
642.603	39.9
642.933	39.97
643.263	39.93
643.592	39.68
643.922	39.91
644.252	39.77
644.582	40.32
644.911	40.83
645.241	40.22
645.571	40.01
645.9	39.99
646.23	40.34
646.559	40.34
646.888	40.4
647.218	40.4
647.547	40.42
647.876	40.96
648.205	40.39
648.534	40.09
648.863	40.13
649.192	40.43
649.521	40.88
649.85	40.28
650.179	40.72
650.508	40.65
650.837	40.32
651.165	41.05
651.494	40.5
651.822	40.3
652.151	40.86
652.479	41.1
652.808	40.91
653.136	41.21
653.465	41.18
653.793	41.09
654.121	41.09
654.449	41.16
654.777	41.24
655.105	40.77
655.433	41.27
655.761	41.38
656.089	40.89
656.417	41.08
656.745	41.18
657.073	41.37
657.4	41.59
657.728	41.31
658.056	40.86
658.383	41.37
658.711	41.53
659.038	41.26
659.365	41.89
659.693	41.7
660.02	41.8
660.347	41.65
660.674	41.77
661.001	41.68
661.329	41.71
661.656	41.97
661.982	41.66
662.309	42.02
662.636	42.38
662.963	41.84
663.29	41.65
663.616	41.95
663.943	41.38
664.27	41.76
664.596	41.92
664.923	42.01
665.249	42.3
665.576	42.26
665.902	42.42
666.228	42.15
666.554	41.7
666.881	42.18
667.207	42.55
667.533	41.96
667.859	42.1
668.185	42.13
668.511	42.87
668.837	42.51
669.162	42.18
669.488	42.15
669.814	42.42
670.139	42.34
670.465	43.03
670.791	42.55
671.116	42.51
671.442	42.66
671.767	42.44
672.092	42.1
672.418	42.44
672.743	42.89
673.068	42.69
