Data from 0013_forehead_Reflection__3__18.txt Node

Date: Mon Oct 17 14:31:55 CDT 2022
User: ToomeyLab
Spectrometer: FLMS14357
Trigger mode: 0
Integration Time (sec): 1.000000E-2
Scans to average: 100
Electric dark correction enabled: true
Nonlinearity correction enabled: false
Boxcar width: 0
XAxis mode: Wavelengths
Number of Pixels in Spectrum: 2048
>>>>>Begin Spectral Data<<<<<
189.047	3793.15
189.435	3793.15
189.823	3793.15
190.211	-41.18
190.599	52.94
190.987	-132.35
191.375	146.63
191.763	472.34
192.151	102.3
192.538	-156.94
192.926	124.45
193.314	80
193.702	-42.04
194.089	-209.04
194.477	109.86
194.864	-29.26
195.252	-563.58
195.639	12.05
196.027	104.71
196.414	-178.36
196.801	-581.3
197.189	6.99
197.576	327.78
197.963	-191.47
198.351	-185.93
198.738	35.55
199.125	14.82
199.512	-4.06
199.899	6.71
200.286	30.29
200.673	17.6
201.06	-9.7
201.447	41.39
201.833	51.56
202.22	29.4
202.607	-66.57
202.994	18.05
203.38	-17.24
203.767	12.84
204.154	34.98
204.54	-34.02
204.927	-0.56
205.313	12.27
205.699	19.69
206.086	-28.5
206.472	6.23
206.858	5.75
207.245	7.2
207.631	31.77
208.017	32.07
208.403	64.12
208.789	4.58
209.175	-0.39
209.561	-23.63
209.947	-65.04
210.333	50.49
210.719	15.23
211.105	19.31
211.491	27.4
211.876	-18.99
212.262	19.12
212.648	12.17
213.034	-8.62
213.419	5.93
213.805	-8.47
214.19	16.76
214.576	25.47
214.961	-15.88
215.346	-2.03
215.732	3.48
216.117	13.45
216.502	3.21
216.888	-14.58
217.273	2.47
217.658	16.36
218.043	-3.9
218.428	-7.94
218.813	10.91
219.198	-1.1
219.583	-16.91
219.968	0.82
220.353	8.04
220.738	8.64
221.122	8.49
221.507	12.08
221.892	21.62
222.276	6.77
222.661	-5.74
223.046	6.7
223.43	7.48
223.815	1.48
224.199	-5.08
224.583	-3.57
224.968	4.91
225.352	-9.34
225.736	3.93
226.121	-1.01
226.505	2.31
226.889	2
227.273	5.6
227.657	6.91
228.041	4.08
228.425	2.27
228.809	3.88
229.193	2.94
229.577	3.3
229.961	4.43
230.344	1.86
230.728	2.44
231.112	2.55
231.495	2.58
231.879	2.65
232.263	2.17
232.646	3.31
233.03	3
233.413	-0.19
233.797	3.8
234.18	1.97
234.563	-0.78
234.946	1.4
235.33	2.75
235.713	1.49
236.096	2.45
236.479	2.19
236.862	2.57
237.245	0.88
237.628	2.6
238.011	2.15
238.394	2.78
238.777	3.56
239.16	2.64
239.543	2.87
239.925	3.76
240.308	2.08
240.691	1.97
241.073	2.87
241.456	1.48
241.838	1.81
242.221	1.31
242.603	2.98
242.986	2.34
243.368	2.36
243.75	2.58
244.133	2.42
244.515	2.36
244.897	2.8
245.279	2.54
245.661	2.73
246.043	3.13
246.425	1.71
246.807	2.18
247.189	2.74
247.571	2.47
247.953	2.2
248.335	2.58
248.717	2.4
249.098	2.47
249.48	2.51
249.862	2.45
250.243	2.01
250.625	2.85
251.006	1.92
251.388	2.82
251.769	2.8
252.151	2.51
252.532	2.26
252.913	2.01
253.295	2.06
253.676	2.46
254.057	2.69
254.438	2.33
254.819	3.97
255.2	3.77
255.581	2.1
255.962	1.28
256.343	2.96
256.724	1.87
257.105	2.05
257.486	1.89
257.867	1.95
258.247	2.64
258.628	3
259.009	2.65
259.389	2.31
259.77	3
260.15	2.92
260.531	1.91
260.911	2.3
261.292	2.48
261.672	2.26
262.052	2.4
262.432	2.34
262.813	2.44
263.193	2.53
263.573	2.46
263.953	2.14
264.333	2.19
264.713	2.1
265.093	2.76
265.473	2.8
265.853	2.82
266.233	3.19
266.612	2.29
266.992	3.1
267.372	2.28
267.752	2.81
268.131	2.68
268.511	2.62
268.89	2.54
269.27	2.44
269.649	2.68
270.029	2.38
270.408	2.79
270.787	2.2
271.167	2.32
271.546	2.93
271.925	2.49
272.304	2.83
272.683	2.35
273.062	2.35
273.441	2.27
273.82	2.31
274.199	2.6
274.578	2.9
274.957	1.99
275.336	2.68
275.715	2.66
276.093	2.65
276.472	1.91
276.851	2.93
277.229	2.43
277.608	2.7
277.986	2.08
278.365	2.75
278.743	2.61
279.122	2.56
279.5	2.71
279.878	2.54
280.257	2.04
280.635	2.38
281.013	2.46
281.391	2.62
281.769	2.31
282.147	3.09
282.525	2.63
282.903	2.09
283.281	2.35
283.659	2.08
284.037	2.38
284.415	2.56
284.792	2.23
285.17	1.94
285.548	2.27
285.925	2.89
286.303	2.35
286.68	2.22
287.058	2.62
287.435	2.32
287.813	2.31
288.19	2.36
288.567	2.48
288.945	2.41
289.322	3.18
289.699	2.7
290.076	2.49
290.453	2.36
290.83	2.45
291.207	2.5
291.584	2.18
291.961	2.17
292.338	2.48
292.715	2.53
293.092	2.87
293.469	2.31
293.845	2.69
294.222	2.8
294.599	3.17
294.975	2.35
295.352	2.4
295.728	2.43
296.105	2.44
296.481	2.81
296.858	3.44
297.234	2.56
297.61	2.56
297.986	2.46
298.363	2.24
298.739	2.92
299.115	2.62
299.491	2.77
299.867	2.94
300.243	2.94
300.619	2.84
300.995	2.9
301.371	3.15
301.746	2.74
302.122	2.5
302.498	2.96
302.874	3.09
303.249	2.94
303.625	3.12
304	3.04
304.376	3.45
304.751	3.63
305.127	3.22
305.502	3.16
305.878	3.14
306.253	2.92
306.628	3.39
307.003	3.13
307.378	3.14
307.754	2.87
308.129	2.8
308.504	3.34
308.879	3.26
309.254	3.62
309.629	3.05
310.003	3.41
310.378	3.67
310.753	2.86
311.128	3.48
311.502	3.56
311.877	3.65
312.252	3.53
312.626	3.53
313.001	3.61
313.375	3.33
313.75	3.57
314.124	3.69
314.498	3.6
314.873	3.66
315.247	3.9
315.621	4.51
315.995	3.89
316.369	3.71
316.743	4.22
317.117	3.96
317.491	3.52
317.865	4.42
318.239	4.23
318.613	4.43
318.987	3.22
319.361	3.65
319.734	4.3
320.108	4.29
320.482	4.43
320.855	4
321.229	4.22
321.602	4.11
321.976	3.45
322.349	4.16
322.723	4.11
323.096	4.52
323.469	4.26
323.843	4.26
324.216	4.83
324.589	4.13
324.962	4.31
325.335	4.38
325.708	4.52
326.081	4.82
326.454	4.77
326.827	4.15
327.2	4.22
327.573	4.44
327.945	4.48
328.318	4.86
328.691	4.57
329.063	4.03
329.436	4.85
329.809	4.83
330.181	5.21
330.553	4.46
330.926	4.88
331.298	5.08
331.671	5.52
332.043	5.2
332.415	4.74
332.787	4.99
333.159	5.54
333.532	5.3
333.904	5.04
334.276	5.39
334.648	4.96
335.02	5.28
335.391	4.76
335.763	5.42
336.135	5.22
336.507	5.71
336.879	5.3
337.25	6.03
337.622	5.03
337.993	5.64
338.365	5.54
338.736	5.28
339.108	5.59
339.479	5.44
339.851	5.94
340.222	5.68
340.593	5.45
340.964	5.9
341.336	5.52
341.707	5.92
342.078	6.05
342.449	5.66
342.82	5.75
343.191	5.55
343.562	5.58
343.933	5.62
344.303	5.86
344.674	6.32
345.045	6.16
345.416	6.09
345.786	6.19
346.157	5.88
346.527	6.48
346.898	6.14
347.268	6.21
347.639	6.12
348.009	6.15
348.38	6.45
348.75	6.14
349.12	5.96
349.49	6.14
349.861	6.83
350.231	6.63
350.601	6.3
350.971	6.57
351.341	6.54
351.711	5.91
352.081	6.7
352.45	6.65
352.82	7.01
353.19	6.44
353.56	6.6
353.929	6.62
354.299	6.7
354.669	6.88
355.038	7.24
355.408	7.09
355.777	6.81
356.147	6.83
356.516	7.33
356.885	7.18
357.254	6.99
357.624	7.34
357.993	7.24
358.362	6.99
358.731	7.11
359.1	7.2
359.469	7.1
359.838	7.43
360.207	7.3
360.576	7.48
360.945	7.49
361.314	7.26
361.682	7.46
362.051	7.41
362.42	7.47
362.788	7.47
363.157	7.51
363.525	7.41
363.894	7.53
364.262	7.61
364.631	7.74
364.999	7.76
365.367	7.56
365.735	7.62
366.104	7.94
366.472	7.52
366.84	7.89
367.208	7.91
367.576	8.05
367.944	7.97
368.312	8.03
368.68	8.53
369.048	8.17
369.416	8.1
369.783	8.04
370.151	8.43
370.519	8.48
370.886	8.7
371.254	8.39
371.621	8.31
371.989	8.63
372.356	8.5
372.724	8.64
373.091	8.57
373.458	8.47
373.826	8.73
374.193	8.8
374.56	8.6
374.927	8.67
375.294	8.89
375.661	9.09
376.028	9.14
376.395	8.91
376.762	9.17
377.129	9.09
377.496	8.64
377.863	8.94
378.229	9.29
378.596	9
378.963	8.95
379.329	9.04
379.696	9.21
380.062	9.39
380.429	9.23
380.795	9.63
381.161	9.37
381.528	9.38
381.894	9.27
382.26	9.63
382.626	9.47
382.993	9.78
383.359	9.8
383.725	9.92
384.091	9.74
384.457	10.07
384.823	9.54
385.188	9.74
385.554	9.96
385.92	9.89
386.286	10.04
386.651	10.12
387.017	9.76
387.383	10.21
387.748	10.06
388.114	9.95
388.479	10.52
388.845	10.57
389.21	10.01
389.575	10.37
389.94	10.19
390.306	10.65
390.671	10.77
391.036	10.73
391.401	10.56
391.766	10.47
392.131	10.76
392.496	10.78
392.861	10.65
393.226	10.53
393.591	10.52
393.956	10.76
394.32	10.76
394.685	10.89
395.05	10.8
395.414	11.05
395.779	11.01
396.143	11.11
396.508	11
396.872	11.01
397.236	11.13
397.601	11.26
397.965	11.27
398.329	11.79
398.694	11.44
399.058	11.43
399.422	11.48
399.786	11.61
400.15	11.57
400.514	11.47
400.878	11.62
401.242	11.68
401.605	11.79
401.969	11.8
402.333	11.71
402.697	11.69
403.06	11.66
403.424	12.12
403.787	11.77
404.151	11.98
404.514	12.07
404.878	12.06
405.241	11.95
405.604	12.03
405.968	12.17
406.331	11.9
406.694	12.16
407.057	12.01
407.42	12.1
407.783	12.3
408.146	12.42
408.509	12.65
408.872	12.34
409.235	12.62
409.598	12.52
409.961	12.61
410.323	12.65
410.686	12.74
411.049	12.66
411.411	12.87
411.774	12.79
412.136	12.81
412.499	12.95
412.861	13.01
413.223	13.09
413.586	13.03
413.948	13.31
414.31	13.28
414.672	13.05
415.035	13.21
415.397	13.36
415.759	13.3
416.121	13.27
416.483	13.41
416.845	13.22
417.206	13.27
417.568	13.17
417.93	13.41
418.292	13.44
418.653	13.21
419.015	13.51
419.377	13.4
419.738	13.27
420.1	13.53
420.461	13.29
420.822	13.47
421.184	13.38
421.545	13.47
421.906	13.52
422.267	13.39
422.629	13.26
422.99	13.41
423.351	13.55
423.712	13.68
424.073	13.76
424.434	13.74
424.795	13.94
425.155	13.79
425.516	13.77
425.877	13.72
426.238	13.78
426.598	13.84
426.959	13.92
427.32	14.08
427.68	14.23
428.041	14.26
428.401	14.44
428.761	14.7
429.122	14.71
429.482	14.74
429.842	14.74
430.202	14.86
430.563	14.77
430.923	14.72
431.283	14.96
431.643	14.98
432.003	14.97
432.363	15.14
432.722	15.05
433.082	15.06
433.442	15.07
433.802	15.07
434.161	14.92
434.521	15.07
434.881	15.03
435.24	14.85
435.6	15.16
435.959	15.09
436.319	15.35
436.678	15.45
437.037	15.52
437.396	15.61
437.756	15.83
438.115	15.61
438.474	15.64
438.833	15.66
439.192	15.51
439.551	15.45
439.91	15.56
440.269	15.64
440.628	15.55
440.987	15.48
441.345	15.52
441.704	15.67
442.063	15.54
442.421	15.66
442.78	15.73
443.138	15.85
443.497	15.91
443.855	16.05
444.214	16.3
444.572	16.2
444.93	16.35
445.288	16.36
445.647	16.31
446.005	16.24
446.363	16.33
446.721	16.18
447.079	16.11
447.437	16.06
447.795	16.07
448.153	15.96
448.51	16.06
448.868	16.18
449.226	16.4
449.584	16.41
449.941	16.66
450.299	16.91
450.656	16.8
451.014	16.93
451.371	17.05
451.729	17.1
452.086	17.15
452.443	17.36
452.801	17.3
453.158	17.4
453.515	17.3
453.872	17.23
454.229	17.07
454.586	17.33
454.943	17.27
455.3	17.36
455.657	17.46
456.014	17.6
456.371	17.55
456.727	17.48
457.084	17.36
457.441	17.68
457.797	17.74
458.154	17.83
458.51	17.91
458.867	17.98
459.223	17.94
459.58	17.91
459.936	17.77
460.292	17.82
460.648	17.96
461.005	17.66
461.361	17.44
461.717	17.45
462.073	17.61
462.429	17.69
462.785	18.08
463.141	18.14
463.496	18.11
463.852	18.35
464.208	18.64
464.564	18.61
464.919	18.42
465.275	18.44
465.631	18.75
465.986	18.68
466.342	18.62
466.697	18.87
467.052	18.69
467.408	18.77
467.763	18.61
468.118	18.8
468.473	18.87
468.829	18.72
469.184	18.74
469.539	18.76
469.894	18.97
470.249	19.04
470.603	19.19
470.958	19.21
471.313	18.97
471.668	19.35
472.023	19.11
472.377	19.3
472.732	19.26
473.086	19.33
473.441	19.43
473.795	19.48
474.15	19.31
474.504	19.48
474.859	19.65
475.213	19.71
475.567	19.94
475.921	19.69
476.275	19.79
476.63	20.05
476.984	20.01
477.338	20.24
477.692	20.07
478.045	20.04
478.399	20.09
478.753	20
479.107	20.04
479.461	20.04
479.814	20.2
480.168	20.14
480.521	20.12
480.875	20.17
481.228	20.4
481.582	20.52
481.935	20.39
482.289	20.38
482.642	20.34
482.995	20.34
483.348	20.25
483.701	20.4
484.055	20.12
484.408	20.24
484.761	20.04
485.114	19.64
485.466	19.44
485.819	19.29
486.172	19.39
486.525	19.65
486.878	19.86
487.23	20.13
487.583	20.4
487.936	20.49
488.288	20.39
488.641	20.18
488.993	20.07
489.345	20.14
489.698	20.12
490.05	20.13
490.402	20.22
490.754	20.47
491.107	20.81
491.459	21.11
491.811	21.27
492.163	21.33
492.515	21.26
492.866	20.97
493.218	20.63
493.57	20.58
493.922	20.59
494.274	20.94
494.625	21.23
494.977	21.53
495.328	21.67
495.68	22.02
496.031	22.09
496.383	22.22
496.734	22.19
497.086	22.11
497.437	22.13
497.788	22.31
498.139	22.02
498.49	21.91
498.842	22
499.193	21.95
499.544	22.01
499.894	22.1
500.245	22.29
500.596	22.24
500.947	22.46
501.298	22.6
501.648	22.64
501.999	22.6
502.35	22.84
502.7	22.92
503.051	22.95
503.401	22.92
503.752	23.07
504.102	23.14
504.452	23.1
504.803	23.22
505.153	23.15
505.503	22.99
505.853	23.12
506.203	23.12
506.553	23.29
506.903	23.31
507.253	23.23
507.603	23.36
507.953	23.44
508.303	23.54
508.652	23.47
509.002	23.61
509.352	23.46
509.701	23.38
510.051	23.38
510.4	23.28
510.75	23.29
511.099	23.44
511.449	23.48
511.798	23.57
512.147	23.75
512.496	23.82
512.846	23.84
513.195	23.96
513.544	23.93
513.893	23.87
514.242	23.85
514.591	23.97
514.939	23.98
515.288	24.08
515.637	24.46
515.986	24.34
516.334	24.33
516.683	24.53
517.032	24.64
517.38	24.6
517.729	24.67
518.077	24.61
518.426	24.66
518.774	24.78
519.122	24.71
519.47	24.57
519.819	24.42
520.167	24.26
520.515	24.28
520.863	24.34
521.211	24.41
521.559	24.52
521.907	24.84
522.255	24.81
522.602	24.94
522.95	25.1
523.298	25.3
523.645	25.45
523.993	25.36
524.341	25.64
524.688	25.68
525.036	25.62
525.383	25.69
525.73	25.59
526.078	25.59
526.425	25.62
526.772	25.52
527.119	25.32
527.466	25.11
527.814	25.14
528.161	25.27
528.508	25.43
528.854	25.65
529.201	25.56
529.548	25.45
529.895	25.09
530.242	24.79
530.588	24.68
530.935	24.82
531.282	24.97
531.628	24.99
531.975	25.22
532.321	25.54
532.667	25.78
533.014	26
533.36	26.12
533.706	26.11
534.052	26.18
534.399	26.03
534.745	25.68
535.091	25.58
535.437	25.67
535.783	25.82
536.129	25.95
536.474	26.31
536.82	26.5
537.166	26.81
537.512	26.78
537.857	26.75
538.203	26.65
538.549	26.33
538.894	26.47
539.239	26.69
539.585	26.72
539.93	27.03
540.276	27.18
540.621	27.33
540.966	27.55
541.311	27.6
541.656	27.64
542.001	27.43
542.346	27.24
542.691	26.76
543.036	26.48
543.381	26.48
543.726	26.53
544.071	26.66
544.415	26.88
544.76	27.09
545.105	27.17
545.449	27.28
545.794	27.58
546.138	27.56
546.483	27.85
546.827	27.85
547.171	27.86
547.516	27.86
547.86	27.91
548.204	27.8
548.548	27.81
548.892	27.92
549.236	27.99
549.58	28.19
549.924	28.47
550.268	28.61
550.612	28.78
550.956	28.98
551.3	29
551.643	29.19
551.987	29.02
552.33	28.99
552.674	29.06
553.017	29.29
553.361	29.19
553.704	29.1
554.048	28.97
554.391	28.94
554.734	28.89
555.077	28.86
555.42	29.2
555.764	29.28
556.107	29.33
556.45	29.51
556.793	29.51
557.135	29.7
557.478	29.55
557.821	29.74
558.164	29.67
558.507	29.87
558.849	29.85
559.192	29.9
559.534	29.8
559.877	29.85
560.219	29.91
560.562	29.68
560.904	29.91
561.246	30.33
561.589	30.23
561.931	30.08
562.273	30.38
562.615	30.32
562.957	30.44
563.299	30.14
563.641	30.43
563.983	30.33
564.325	30.49
564.667	30.47
565.008	30.74
565.35	30.73
565.692	30.85
566.033	30.97
566.375	30.77
566.716	30.75
567.058	30.73
567.399	30.63
567.741	30.47
568.082	30.69
568.423	30.59
568.764	30.63
569.105	30.6
569.447	30.88
569.788	30.87
570.129	31.13
570.47	31.35
570.811	30.99
571.151	31.24
571.492	31.4
571.833	31.23
572.174	31.25
572.514	31.46
572.855	31.42
573.195	31.2
573.536	31.02
573.876	31.16
574.217	31.33
574.557	31.29
574.898	31.3
575.238	31.53
575.578	31.65
575.918	31.65
576.258	31.78
576.598	31.69
576.938	31.81
577.278	31.89
577.618	31.92
577.958	31.72
578.298	32.04
578.638	32.11
578.977	32.58
579.317	32.13
579.657	32.22
579.996	32.37
580.336	32.44
580.675	32.25
581.014	32.35
581.354	32.5
581.693	32.73
582.032	32.45
582.372	32.92
582.711	32.68
583.05	32.7
583.389	32.82
583.728	32.93
584.067	33.05
584.406	32.9
584.745	32.99
585.083	33.18
585.422	33.22
585.761	33.3
586.1	33.14
586.438	33.26
586.777	33.46
587.115	33.09
587.454	33.56
587.792	33.46
588.13	33.39
588.469	33.59
588.807	33.37
589.145	33.72
589.483	33.55
589.821	33.45
590.159	33.55
590.497	33.57
590.835	33.65
591.173	33.4
591.511	33.66
591.849	33.57
592.187	33.57
592.524	33.77
592.862	34.06
593.2	33.81
593.537	34.18
593.875	34.06
594.212	34.3
594.55	34.45
594.887	34.15
595.224	34.4
595.561	34.45
595.899	34.31
596.236	34.13
596.573	34.3
596.91	34.26
597.247	34.37
597.584	34.77
597.921	34.82
598.258	34.49
598.594	34.19
598.931	34.16
599.268	34.14
599.604	34.08
599.941	34.14
600.277	34.41
600.614	34.94
600.95	34.75
601.287	35.16
601.623	35.39
601.959	35.37
602.296	35.23
602.632	35.48
602.968	35.41
603.304	35.26
603.64	35.07
603.976	35.12
604.312	35.5
604.648	35.37
604.984	35.06
605.319	35.16
605.655	35.28
605.991	35.17
606.326	34.81
606.662	34.87
606.998	35.05
607.333	35.23
607.668	35.17
608.004	35.32
608.339	35.69
608.674	35.96
609.01	35.85
609.345	36
609.68	36.2
610.015	36.01
610.35	35.85
610.685	35.4
611.02	35.73
611.355	35.53
611.689	35.76
612.024	35.93
612.359	35.72
612.694	35.97
613.028	35.83
613.363	36.23
613.697	36.16
614.032	36.75
614.366	36.47
614.7	36.57
615.035	36.82
615.369	36.72
615.703	36.78
616.037	36.8
616.371	36.71
616.705	36.69
617.039	36.95
617.373	36.84
617.707	36.96
618.041	36.67
618.375	36.9
618.709	37.31
619.042	36.98
619.376	36.77
619.71	36.7
620.043	37.23
620.377	37.31
620.71	36.87
621.043	37
621.377	37.29
621.71	37.35
622.043	37.28
622.376	37.39
622.709	37.7
623.043	37.19
623.376	36.97
623.709	37.4
624.041	37.25
624.374	38.02
624.707	37.51
625.04	37.01
625.373	37.97
625.705	37.52
626.038	37.74
626.37	38.24
626.703	37.84
627.035	38
627.368	37.9
627.7	37.7
628.032	37.94
628.365	37.77
628.697	38
629.029	37.94
629.361	37.79
629.693	38.07
630.025	38.01
630.357	37.84
630.689	37.79
631.021	38.01
631.353	38.19
631.684	38.4
632.016	37.89
632.348	38.95
632.679	38.35
633.011	37.94
633.342	38.49
633.674	38.57
634.005	38.37
634.336	38.55
634.668	38.77
634.999	38.63
635.33	38.59
635.661	38.45
635.992	38.44
636.323	38.98
636.654	38.74
636.985	38.43
637.316	38.88
637.647	38.96
637.977	38.59
638.308	38.89
638.639	39.13
638.969	38.8
639.3	38.84
639.63	39.15
639.961	38.82
640.291	39.43
640.622	39.2
640.952	39.31
641.282	39.4
641.612	39.54
641.943	39.03
642.273	39.64
642.603	38.96
642.933	39.61
643.263	39.3
643.592	39.37
643.922	39.31
644.252	39.87
644.582	39.85
644.911	40.12
645.241	40
645.571	39.68
645.9	40.12
646.23	39.51
646.559	40.05
646.888	39.66
647.218	40.06
647.547	39.75
647.876	39.94
648.205	40.38
648.534	39.78
648.863	39.67
649.192	40.18
649.521	40.3
649.85	39.68
650.179	40.15
650.508	40.11
650.837	40.5
651.165	40.69
651.494	40.32
651.822	39.67
652.151	40.49
652.479	40.63
652.808	40.47
653.136	40.35
653.465	40.52
653.793	40.63
654.121	40.65
654.449	40.39
654.777	40.2
655.105	40.14
655.433	40.36
655.761	40.29
656.089	40.49
656.417	40.95
656.745	40.39
657.073	40.52
657.4	40.85
657.728	40.78
658.056	40.55
658.383	40.82
658.711	41.44
659.038	40.82
659.365	41.16
659.693	40.91
660.02	40.79
660.347	40.91
660.674	40.87
661.001	41.11
661.329	40.69
661.656	40.96
661.982	41.56
662.309	41.19
662.636	41.23
662.963	41.16
663.29	41.65
663.616	41.52
663.943	41.52
664.27	41.64
664.596	41.35
664.923	41.51
665.249	41.37
665.576	41.78
665.902	41.63
666.228	42.26
666.554	42.04
666.881	41.8
667.207	41.84
667.533	41.19
667.859	41.47
668.185	41.77
668.511	42.42
668.837	42.11
669.162	42.22
669.488	42.02
669.814	41.68
670.139	41.65
670.465	41.75
670.791	41.46
671.116	42.24
671.442	42.03
671.767	42.15
672.092	41.77
672.418	42.44
672.743	42.02
673.068	42.53
673.393	42.58
673.718	42.33
