Data from 0341_forehead_Reflection__4__278.txt Node

Date: Fri Oct 20 22:54:49 CDT 2023
User: ToomeyLab
Spectrometer: FLMS14357
Trigger mode: 0
Integration Time (sec): 1.000000E-2
Scans to average: 100
Electric dark correction enabled: true
Nonlinearity correction enabled: false
Boxcar width: 0
XAxis mode: Wavelengths
Number of Pixels in Spectrum: 2048
>>>>>Begin Spectral Data<<<<<
189.047	42.85
189.435	42.85
189.823	42.85
190.211	-59.24
190.599	83.02
190.987	223.38
191.375	195.65
191.763	131.66
192.151	135.63
192.538	4070.69
192.926	61.42
193.314	82.19
193.702	85.63
194.089	138.29
194.477	398.49
194.864	-564.04
195.252	88.4
195.639	-2273.08
196.027	197.48
196.414	41.4
196.801	102.51
197.189	-167.1
197.576	47.21
197.963	302.96
198.351	75.28
198.738	-16.2
199.125	80.69
199.512	30.65
199.899	19.13
200.286	52.59
200.673	40.53
201.06	26.99
201.447	-0.18
201.833	50.7
202.22	32.41
202.607	40.72
202.994	35.61
203.38	30.93
203.767	26.32
204.154	53.13
204.54	60.94
204.927	34.71
205.313	38.3
205.699	65
206.086	44.22
206.472	69.14
206.858	41.46
207.245	25.13
207.631	1.48
208.017	26.02
208.403	-7.77
208.789	22.68
209.175	8.85
209.561	21.19
209.947	-2.06
210.333	21.85
210.719	16.48
211.105	53.08
211.491	28.87
211.876	11.14
212.262	43.01
212.648	22.98
213.034	-0.8
213.419	40.82
213.805	10.85
214.19	15.93
214.576	10.96
214.961	24.02
215.346	44.61
215.732	9.67
216.117	-10.08
216.502	30.91
216.888	11.88
217.273	18.13
217.658	44.22
218.043	53.79
218.428	26.49
218.813	20.73
219.198	24.91
219.583	-0.56
219.968	27.98
220.353	38.27
220.738	14.51
221.122	-1.92
221.507	15.52
221.892	20.87
222.276	12.53
222.661	24.95
223.046	7.73
223.43	16.86
223.815	11.88
224.199	30.32
224.583	7.26
224.968	0.54
225.352	8.81
225.736	-7.64
226.121	6.53
226.505	-2.7
226.889	17.66
227.273	2.59
227.657	10.55
228.041	9.02
228.425	3.32
228.809	1.9
229.193	2.84
229.577	3.45
229.961	4.25
230.344	2.8
230.728	2.21
231.112	3.85
231.495	2.27
231.879	2.88
232.263	4.25
232.646	2.73
233.03	3.79
233.413	2.76
233.797	3.08
234.18	3.06
234.563	4.6
234.946	6.5
235.33	4.2
235.713	4.44
236.096	4.08
236.479	3.92
236.862	3.09
237.245	2.26
237.628	3.45
238.011	4.8
238.394	2.93
238.777	3.96
239.16	3.44
239.543	4.86
239.925	5.3
240.308	4.6
240.691	2.82
241.073	4.38
241.456	3.77
241.838	4.52
242.221	4.99
242.603	3.41
242.986	3.83
243.368	3.34
243.75	3.04
244.133	2.82
244.515	2.93
244.897	3.25
245.279	3.18
245.661	3.76
246.043	2.91
246.425	3.07
246.807	3.49
247.189	3.73
247.571	3.01
247.953	2.89
248.335	3.27
248.717	2.8
249.098	2.59
249.48	2.86
249.862	3.02
250.243	3.64
250.625	3.01
251.006	3.27
251.388	3.12
251.769	3.83
252.151	3.52
252.532	3.53
252.913	3.44
253.295	2
253.676	3.43
254.057	3.28
254.438	2.74
254.819	3.32
255.2	3.15
255.581	2.9
255.962	3.36
256.343	3.21
256.724	3.33
257.105	3.48
257.486	3.39
257.867	3.75
258.247	3.77
258.628	3.92
259.009	2.9
259.389	2.92
259.77	3.01
260.15	3.77
260.531	3.56
260.911	3.12
261.292	2.87
261.672	3.16
262.052	3.1
262.432	2.97
262.813	3.02
263.193	3.26
263.573	2.8
263.953	3.68
264.333	3.46
264.713	3.54
265.093	4.02
265.473	3.51
265.853	3.14
266.233	2.87
266.612	3.3
266.992	3.37
267.372	2.52
267.752	3.32
268.131	3.1
268.511	3
268.89	2.69
269.27	2.87
269.649	2.78
270.029	2.99
270.408	3.15
270.787	3.44
271.167	3.09
271.546	3.47
271.925	3.49
272.304	3.56
272.683	3.59
273.062	3.38
273.441	3.34
273.82	3.09
274.199	3.23
274.578	2.96
274.957	3.08
275.336	3.27
275.715	3.47
276.093	2.62
276.472	3.17
276.851	3.12
277.229	3.38
277.608	2.35
277.986	3
278.365	3.5
278.743	3.52
279.122	3.04
279.5	3.17
279.878	2.7
280.257	3.18
280.635	3.07
281.013	3.67
281.391	3.27
281.769	3.09
282.147	2.71
282.525	3.29
282.903	3.28
283.281	2.87
283.659	3.27
284.037	3.12
284.415	2.64
284.792	2.72
285.17	3.09
285.548	3.06
285.925	2.88
286.303	3.13
286.68	3.25
287.058	3.74
287.435	3.45
287.813	2.75
288.19	2.79
288.567	2.96
288.945	3.34
289.322	3.52
289.699	2.3
290.076	3.54
290.453	3.36
290.83	3.05
291.207	3.88
291.584	3.16
291.961	3.42
292.338	3.23
292.715	3.35
293.092	3.33
293.469	3.68
293.845	3.32
294.222	3.25
294.599	3.63
294.975	3.9
295.352	3.54
295.728	3.82
296.105	3.3
296.481	3.99
296.858	3.65
297.234	3.7
297.61	2.97
297.986	3.49
298.363	3.82
298.739	3.63
299.115	3.44
299.491	3.77
299.867	3.6
300.243	3.68
300.619	3.69
300.995	3.95
301.371	3.92
301.746	4.02
302.122	3.8
302.498	3.72
302.874	4.01
303.249	3.94
303.625	3.86
304	4.28
304.376	4.34
304.751	3.84
305.127	3.94
305.502	4.24
305.878	4.45
306.253	4.26
306.628	4.09
307.003	4.36
307.378	4.21
307.754	4.61
308.129	4.58
308.504	4.92
308.879	4.23
309.254	4.82
309.629	4.41
310.003	4.27
310.378	4.9
310.753	4.92
311.128	5.07
311.502	4.67
311.877	5.01
312.252	5.06
312.626	5.38
313.001	5.07
313.375	5.23
313.75	5.05
314.124	4.53
314.498	5.2
314.873	4.9
315.247	5.27
315.621	5.11
315.995	5.66
316.369	4.99
316.743	5.35
317.117	5.59
317.491	4.8
317.865	5.64
318.239	6.24
318.613	5.65
318.987	5.57
319.361	5
319.734	5.64
320.108	5.73
320.482	5.55
320.855	6.19
321.229	6.4
321.602	5.83
321.976	6.42
322.349	6.79
322.723	6.32
323.096	6.52
323.469	5.93
323.843	6.43
324.216	6.66
324.589	5.93
324.962	6.4
325.335	6.58
325.708	5.94
326.081	6.78
326.454	6.32
326.827	6.98
327.2	6.48
327.573	7.01
327.945	6.55
328.318	6.4
328.691	6.96
329.063	7.28
329.436	6.29
329.809	6.76
330.181	7.26
330.553	6.83
330.926	7.01
331.298	7.14
331.671	6.75
332.043	7.5
332.415	7.5
332.787	7.5
333.159	7.24
333.532	7.28
333.904	7.85
334.276	7.51
334.648	7.3
335.02	7.67
335.391	7.62
335.763	7.5
336.135	8.11
336.507	7.59
336.879	7.59
337.25	7.36
337.622	7.66
337.993	8.03
338.365	8.07
338.736	7.54
339.108	8.25
339.479	7.79
339.851	8.03
340.222	7.33
340.593	7.2
340.964	7.89
341.336	8.08
341.707	8.03
342.078	8.06
342.449	8.05
342.82	7.91
343.191	7.96
343.562	8.23
343.933	8.6
344.303	8.2
344.674	8.62
345.045	8.3
345.416	8.72
345.786	8.41
346.157	8.69
346.527	8.34
346.898	8.38
347.268	8.69
347.639	8.86
348.009	8.17
348.38	8.88
348.75	8.62
349.12	8.45
349.49	8.97
349.861	9.34
350.231	8.51
350.601	8.88
350.971	8.86
351.341	9.15
351.711	9.62
352.081	8.86
352.45	9.16
352.82	9.37
353.19	9.41
353.56	9.25
353.929	9.45
354.299	9.15
354.669	9.42
355.038	9.26
355.408	9.8
355.777	9.4
356.147	9.14
356.516	8.87
356.885	9.19
357.254	9.75
357.624	9.68
357.993	9.57
358.362	9.68
358.731	9.33
359.1	9.39
359.469	9.1
359.838	9.58
360.207	9.56
360.576	10.06
360.945	9.68
361.314	9.82
361.682	10.09
362.051	10
362.42	9.67
362.788	10.08
363.157	9.98
363.525	10.02
363.894	9.89
364.262	9.99
364.631	10.12
364.999	10.2
365.367	10.42
365.735	10.31
366.104	10.34
366.472	10.35
366.84	10.56
367.208	10.64
367.576	10.39
367.944	10.58
368.312	11.03
368.68	10.79
369.048	10.8
369.416	10.81
369.783	11.09
370.151	10.93
370.519	10.86
370.886	11.24
371.254	10.88
371.621	11.21
371.989	10.85
372.356	11.23
372.724	11.13
373.091	11.32
373.458	10.93
373.826	10.91
374.193	10.97
374.56	11.11
374.927	11.33
375.294	11.4
375.661	11.55
376.028	11.45
376.395	11.86
376.762	11.57
377.129	11.45
377.496	11.64
377.863	12.02
378.229	11.84
378.596	11.74
378.963	11.67
379.329	11.94
379.696	11.72
380.062	11.89
380.429	11.82
380.795	11.75
381.161	11.87
381.528	12.32
381.894	11.78
382.26	12.05
382.626	12.34
382.993	12.1
383.359	12.23
383.725	12.41
384.091	12.22
384.457	12.45
384.823	12.25
385.188	12.81
385.554	12.49
385.92	12.5
386.286	12.59
386.651	12.38
387.017	12.53
387.383	12.61
387.748	12.34
388.114	12.39
388.479	12.77
388.845	13.22
389.21	12.91
389.575	12.65
389.94	12.59
390.306	12.71
390.671	12.81
391.036	12.86
391.401	13.18
391.766	13.21
392.131	13.06
392.496	13.37
392.861	13.33
393.226	12.92
393.591	13.15
393.956	13.19
394.32	13.56
394.685	13.09
395.05	13.67
395.414	13.21
395.779	13.36
396.143	13.32
396.508	13.44
396.872	13.49
397.236	13.45
397.601	13.64
397.965	13.69
398.329	13.77
398.694	13.63
399.058	13.58
399.422	13.87
399.786	13.84
400.15	13.8
400.514	13.78
400.878	14.1
401.242	14.04
401.605	14.05
401.969	13.94
402.333	14.1
402.697	14.03
403.06	14.41
403.424	14.35
403.787	14.18
404.151	14.43
404.514	14.4
404.878	14.43
405.241	14.28
405.604	14.17
405.968	14.23
406.331	14.24
406.694	14.32
407.057	14.21
407.42	14.44
407.783	14.48
408.146	14.29
408.509	14.29
408.872	14.85
409.235	14.7
409.598	14.62
409.961	14.67
410.323	14.72
410.686	14.63
411.049	14.8
411.411	14.67
411.774	14.65
412.136	14.94
412.499	14.76
412.861	14.81
413.223	15.04
413.586	14.83
413.948	15.12
414.31	15.03
414.672	14.9
415.035	14.82
415.397	15.18
415.759	15.05
416.121	15.03
416.483	15.35
416.845	15.38
417.206	15.25
417.568	15.43
417.93	15.44
418.292	15.24
418.653	15.33
419.015	15.17
419.377	15.26
419.738	15.15
420.1	15.22
420.461	15.36
420.822	15.37
421.184	15.45
421.545	15.51
421.906	15.4
422.267	15.42
422.629	15.5
422.99	15.37
423.351	15.52
423.712	15.49
424.073	15.69
424.434	15.69
424.795	15.94
425.155	15.97
425.516	15.94
425.877	15.82
426.238	15.85
426.598	15.97
426.959	15.91
427.32	16.09
427.68	16.21
428.041	16.28
428.401	16.41
428.761	16.59
429.122	16.42
429.482	16.64
429.842	16.81
430.202	16.93
430.563	16.91
430.923	16.96
431.283	16.88
431.643	17.13
432.003	17.31
432.363	17.02
432.722	17.07
433.082	17.27
433.442	17.33
433.802	17.62
434.161	17.13
434.521	17.52
434.881	17.53
435.24	17.65
435.6	17.43
435.959	17.55
436.319	17.68
436.678	17.75
437.037	17.79
437.396	18
437.756	17.89
438.115	17.84
438.474	18.24
438.833	18.21
439.192	17.92
439.551	17.94
439.91	18.26
440.269	18.37
440.628	18.41
440.987	18.17
441.345	18.32
441.704	18.35
442.063	18.42
442.421	18.29
442.78	18.41
443.138	18.48
443.497	18.53
443.855	18.72
444.214	18.72
444.572	18.84
444.93	18.87
445.288	19.03
445.647	19.18
446.005	18.87
446.363	18.95
446.721	18.96
447.079	19.13
447.437	19.05
447.795	18.92
448.153	19.08
448.51	19.03
448.868	18.83
449.226	19.14
449.584	19.17
449.941	19.15
450.299	19.27
450.656	19.45
451.014	19.62
451.371	19.76
451.729	19.61
452.086	19.89
452.443	19.87
452.801	20.01
453.158	20.11
453.515	20.03
453.872	20.26
454.229	20.27
454.586	20.08
454.943	20.2
455.3	20.31
455.657	20.34
456.014	20.48
456.371	20.46
456.727	20.52
457.084	20.5
457.441	20.86
457.797	20.7
458.154	20.81
458.51	20.84
458.867	20.78
459.223	20.94
459.58	20.77
459.936	21.04
460.292	21.12
460.648	20.98
461.005	20.82
461.361	20.98
461.717	20.71
462.073	20.79
462.429	20.91
462.785	20.89
463.141	21.18
463.496	21.19
463.852	21.44
464.208	21.62
464.564	21.5
464.919	21.85
465.275	22
465.631	21.96
465.986	22.02
466.342	21.99
466.697	22.08
467.052	21.95
467.408	21.97
467.763	22.13
468.118	22.4
468.473	22.2
468.829	22.07
469.184	22.46
469.539	22.58
469.894	22.38
470.249	22.51
470.603	22.63
470.958	22.6
471.313	22.9
471.668	22.82
472.023	22.87
472.377	22.77
472.732	22.74
473.086	22.93
473.441	22.96
473.795	23.2
474.15	23.12
474.504	23.16
474.859	23.1
475.213	23.43
475.567	23.34
475.921	23.39
476.275	23.38
476.63	23.68
476.984	23.56
477.338	23.62
477.692	23.54
478.045	23.63
478.399	23.73
478.753	23.66
479.107	23.82
479.461	23.62
479.814	23.82
480.168	23.79
480.521	23.84
480.875	23.98
481.228	23.97
481.582	24.22
481.935	23.9
482.289	24.18
482.642	24.08
482.995	24.15
483.348	24.19
483.701	24.13
484.055	24.25
484.408	24.07
484.761	23.94
485.114	23.6
485.466	23.47
485.819	23.31
486.172	23.3
486.525	23.35
486.878	23.52
487.23	23.71
487.583	23.83
487.936	24.06
488.288	24.28
488.641	24.24
488.993	24.09
489.345	23.95
489.698	23.99
490.05	24.05
490.402	24.03
490.754	24.28
491.107	24.38
491.459	24.64
491.811	24.78
492.163	24.97
492.515	25.07
492.866	25.11
493.218	24.87
493.57	24.69
493.922	24.69
494.274	24.72
494.625	24.99
494.977	25.11
495.328	25.39
495.68	25.74
496.031	25.79
496.383	25.97
496.734	26.05
497.086	26.16
497.437	26.23
497.788	26.36
498.139	26.46
498.49	26.3
498.842	26.21
499.193	26.27
499.544	26.33
499.894	26.34
500.245	26.27
500.596	26.3
500.947	26.67
501.298	26.7
501.648	26.73
501.999	26.93
502.35	27.03
502.7	27.12
503.051	27.15
503.401	27.29
503.752	27.35
504.102	27.29
504.452	27.3
504.803	27.65
505.153	27.59
505.503	27.49
505.853	27.59
506.203	27.46
506.553	27.57
506.903	27.55
507.253	27.8
507.603	27.66
507.953	28.04
508.303	27.91
508.652	28.01
509.002	27.88
509.352	28.11
509.701	28.09
510.051	28.04
510.4	27.97
510.75	28.07
511.099	27.96
511.449	28.04
511.798	28.12
512.147	28.1
512.496	28.17
512.846	28.37
513.195	28.38
513.544	28.45
513.893	28.37
514.242	28.44
514.591	28.58
514.939	28.59
515.288	28.48
515.637	28.8
515.986	28.96
516.334	28.92
516.683	29
517.032	28.97
517.38	28.95
517.729	29.22
518.077	29.17
518.426	29.22
518.774	29.09
519.122	29.21
519.47	29.13
519.819	28.96
520.167	28.83
520.515	28.97
520.863	28.91
521.211	28.94
521.559	29.08
521.907	29.16
522.255	29.37
522.602	29.56
522.95	29.49
523.298	29.7
523.645	29.71
523.993	29.86
524.341	30.14
524.688	30.02
525.036	29.93
525.383	30.16
525.73	30.33
526.078	30.4
526.425	30.19
526.772	30.24
527.119	29.9
527.466	29.91
527.814	29.92
528.161	29.95
528.508	29.96
528.854	29.91
529.201	30.05
529.548	30.03
529.895	30.04
530.242	29.78
530.588	29.43
530.935	29.58
531.282	29.69
531.628	29.79
531.975	29.83
532.321	30
532.667	30.23
533.014	30.55
533.36	30.69
533.706	30.77
534.052	30.8
534.399	30.79
534.745	30.69
535.091	30.58
535.437	30.5
535.783	30.61
536.129	30.81
536.474	30.86
536.82	31.02
537.166	31.42
537.512	31.38
537.857	31.46
538.203	31.4
538.549	31.43
538.894	31.45
539.239	31.3
539.585	31.47
539.93	31.66
540.276	31.96
540.621	31.97
540.966	32.14
541.311	32.48
541.656	32.43
542.001	32.55
542.346	32.42
542.691	31.96
543.036	31.87
543.381	31.55
543.726	31.54
544.071	31.69
544.415	31.83
544.76	32.01
545.105	32.14
545.449	32.19
545.794	32.38
546.138	32.47
546.483	32.65
546.827	32.84
547.171	33.01
547.516	32.95
547.86	33.12
548.204	32.98
548.548	33.23
548.892	33.15
549.236	33.23
549.58	33.22
549.924	33.53
550.268	33.48
550.612	33.69
550.956	34.02
551.3	33.86
551.643	34.17
551.987	34.22
552.33	34.24
552.674	34.27
553.017	34.34
553.361	34.42
553.704	34.49
554.048	34.58
554.391	34.52
554.734	34.55
555.077	34.49
555.42	34.36
555.764	34.57
556.107	34.76
556.45	34.72
556.793	34.67
557.135	34.96
557.478	34.92
557.821	35.14
558.164	35.38
558.507	35.28
558.849	35.36
559.192	35.48
559.534	35.48
559.877	35.55
560.219	35.49
560.562	35.77
560.904	35.39
561.246	35.54
561.589	35.48
561.931	35.78
562.273	35.88
562.615	35.82
562.957	36
563.299	35.95
563.641	35.9
563.983	35.98
564.325	36.03
564.667	36.27
565.008	36.28
565.35	36.19
565.692	36.33
566.033	36.54
566.375	36.36
566.716	36.7
567.058	36.47
567.399	36.46
567.741	36.39
568.082	36.45
568.423	36.34
568.764	36.3
569.105	36.45
569.447	36.5
569.788	36.42
570.129	36.61
570.47	37.08
570.811	37.17
571.151	37.12
571.492	37.36
571.833	37.17
572.174	37.17
572.514	37.06
572.855	37.09
573.195	37.23
573.536	37.33
573.876	37.25
574.217	37.26
574.557	37.15
574.898	37.39
575.238	37.26
575.578	37.47
575.918	37.67
576.258	37.43
576.598	37.77
576.938	37.78
577.278	37.8
577.618	37.62
577.958	37.78
578.298	38.03
578.638	38.09
578.977	38.13
579.317	38.32
579.657	38.04
579.996	38.19
580.336	38.59
580.675	38.83
581.014	38.72
581.354	38.77
581.693	39.05
582.032	39.04
582.372	39.22
582.711	39.18
583.05	39.33
583.389	39.29
583.728	39.31
584.067	39.29
584.406	39.29
584.745	39.51
585.083	39.46
585.422	39.42
585.761	39.72
586.1	39.53
586.438	39.64
586.777	39.64
587.115	39.84
587.454	40.02
587.792	39.74
588.13	40.1
588.469	40.2
588.807	39.85
589.145	39.96
589.483	39.87
589.821	40.2
590.159	40.32
590.497	40.25
590.835	40.17
591.173	40.29
591.511	40.35
591.849	40.24
592.187	40.39
592.524	40.35
592.862	40.53
593.2	40.61
593.537	40.67
593.875	40.74
594.212	40.67
594.55	41.06
594.887	40.87
595.224	40.69
595.561	41.06
595.899	40.91
596.236	40.86
596.573	41.14
596.91	41.19
597.247	41.35
597.584	41.24
597.921	41.44
598.258	41.46
598.594	41.39
598.931	41.21
599.268	41.1
599.604	41.4
599.941	41.08
600.277	41.4
600.614	41.64
600.95	41.42
601.287	41.87
601.623	41.89
601.959	41.97
602.296	42.49
602.632	41.98
602.968	41.92
603.304	42.05
603.64	42.09
603.976	42.29
604.312	42.4
604.648	42.66
604.984	42.41
605.319	42.46
605.655	42.28
605.991	42.26
606.326	42.21
606.662	42.11
606.998	41.93
607.333	42.1
607.668	42.29
608.004	42.71
608.339	42.67
608.674	42.81
609.01	42.96
609.345	43.45
609.68	43.18
610.015	43.23
610.35	43.39
610.685	43.54
611.02	43.12
611.355	43.31
611.689	42.93
612.024	43.31
612.359	42.83
612.694	43.1
613.028	43.6
613.363	43.99
613.697	43.7
614.032	43.63
614.366	43.94
614.7	44.29
615.035	44.24
615.369	44.47
615.703	43.7
616.037	44.24
616.371	44.1
616.705	44.77
617.039	44.31
617.373	44.71
617.707	45.08
618.041	44.85
618.375	44.69
618.709	44.59
619.042	44.63
619.376	45.34
619.71	44.86
620.043	44.98
620.377	45.17
620.71	45.45
621.043	45.15
621.377	44.5
621.71	45.03
622.043	45.29
622.376	45.45
622.709	45.18
623.043	45.38
623.376	44.98
623.709	45.51
624.041	45.24
624.374	45.43
624.707	45.75
625.04	45.7
625.373	45.66
625.705	45.8
626.038	46.14
626.37	45.56
626.703	45.78
627.035	45.59
627.368	45.87
627.7	46.39
628.032	46.27
628.365	46.15
628.697	45.97
629.029	45.91
629.361	46.29
629.693	45.63
630.025	46.22
630.357	45.89
630.689	46.23
631.021	46.32
631.353	46.05
631.684	46.02
632.016	46.71
632.348	46.61
632.679	46.36
633.011	47.19
633.342	46.6
633.674	46.73
634.005	46.89
634.336	46.76
634.668	46.9
634.999	47.38
635.33	46.73
635.661	47.16
635.992	47.19
636.323	47
636.654	47.1
636.985	47.14
637.316	47.02
637.647	47.23
637.977	46.83
638.308	47.84
638.639	47.35
638.969	47.55
639.3	47.22
639.63	48.15
639.961	47.44
640.291	48.27
640.622	47.54
640.952	48.3
641.282	48.01
641.612	48.3
641.943	48.53
642.273	47.8
642.603	48.43
642.933	48.45
643.263	48.52
643.592	48.43
643.922	49.1
644.252	48.26
644.582	48.11
644.911	48.87
645.241	48.59
645.571	48.77
645.9	48.49
646.23	48.38
646.559	48.96
646.888	49.32
647.218	48.9
647.547	48.76
647.876	49.03
648.205	49.43
648.534	48.7
648.863	49.69
649.192	48.93
649.521	48.97
649.85	49.2
650.179	49.27
650.508	49.31
650.837	50.16
651.165	49.6
651.494	49.73
651.822	49.18
652.151	50.01
652.479	48.84
652.808	49.35
653.136	49.46
653.465	49.97
653.793	49.44
654.121	49.6
654.449	50.09
654.777	49.89
655.105	49.49
655.433	50.36
655.761	49.74
656.089	50.41
656.417	49.46
656.745	50.87
657.073	51.01
657.4	50.79
657.728	50.54
658.056	50.09
658.383	50.78
658.711	50.86
659.038	51.19
659.365	50.98
659.693	50.62
660.02	50.74
660.347	50.54
660.674	50.52
661.001	50.68
661.329	50.34
661.656	50.73
661.982	50.29
662.309	50.75
662.636	50.83
662.963	50.36
663.29	50.48
663.616	51.29
663.943	51.55
664.27	51.61
664.596	51.21
664.923	50.53
665.249	50.88
665.576	51.86
665.902	50.62
666.228	51.27
666.554	50.82
666.881	51.65
667.207	52.45
667.533	51.47
667.859	51.52
668.185	52.24
668.511	52.28
668.837	51.57
669.162	52.59
669.488	51.85
669.814	51.54
670.139	51.84
670.465	51.93
670.791	51.48
671.116	51.88
671.442	52.18
671.767	51.65
672.092	52.03
