Data from 0341_crown_Reflection__4__273.txt Node

Date: Fri Oct 20 22:53:35 CDT 2023
User: ToomeyLab
Spectrometer: FLMS14357
Trigger mode: 0
Integration Time (sec): 1.000000E-2
Scans to average: 100
Electric dark correction enabled: true
Nonlinearity correction enabled: false
Boxcar width: 0
XAxis mode: Wavelengths
Number of Pixels in Spectrum: 2048
>>>>>Begin Spectral Data<<<<<
189.047	-23.25
189.435	-23.25
189.823	-23.25
190.211	380.95
190.599	-76.55
190.987	165.86
191.375	151.67
191.763	134.96
192.151	-184.1
192.538	-2896.55
192.926	-28.11
193.314	75.91
193.702	25.11
194.089	89.28
194.477	312.61
194.864	-1188.3
195.252	48.92
195.639	-512.82
196.027	155.28
196.414	136.64
196.801	14
197.189	-299.91
197.576	99.2
197.963	374.08
198.351	57.85
198.738	3.04
199.125	57.78
199.512	6.28
199.899	34.98
200.286	-36.45
200.673	13.37
201.06	5.69
201.447	-21.13
201.833	33.76
202.22	32.95
202.607	53.42
202.994	23.11
203.38	-25.43
203.767	24.75
204.154	35.2
204.54	67.28
204.927	20.21
205.313	-6.32
205.699	41.45
206.086	-7.11
206.472	35.89
206.858	38.94
207.245	-12.32
207.631	23.34
208.017	29.99
208.403	26.86
208.789	29.46
209.175	-38.32
209.561	36.24
209.947	-24.64
210.333	11.32
210.719	7.74
211.105	-9.95
211.491	-16.3
211.876	-31.96
212.262	11.23
212.648	17.79
213.034	17.68
213.419	-8.71
213.805	-0.29
214.19	-8.3
214.576	-32.06
214.961	20.6
215.346	28.53
215.732	10.11
216.117	-42.86
216.502	9.75
216.888	-1.1
217.273	-1.34
217.658	-18.11
218.043	0.11
218.428	1.97
218.813	11.44
219.198	2.86
219.583	-45.96
219.968	-33.89
220.353	39.32
220.738	-0.78
221.122	-12.23
221.507	1.75
221.892	-5.62
222.276	18.86
222.661	23.24
223.046	10.72
223.43	6.55
223.815	6.25
224.199	18.8
224.583	-11.3
224.968	5.45
225.352	5.1
225.736	3.88
226.121	-4.26
226.505	1.19
226.889	2.97
227.273	4.86
227.657	5.4
228.041	3.58
228.425	4.35
228.809	2.81
229.193	0.66
229.577	1.67
229.961	2.11
230.344	3.45
230.728	2.29
231.112	2.96
231.495	2.12
231.879	2.78
232.263	2.96
232.646	1.98
233.03	1.87
233.413	1.09
233.797	1.23
234.18	2.17
234.563	2.19
234.946	2.69
235.33	2.71
235.713	2.68
236.096	2.45
236.479	1.91
236.862	2.06
237.245	2
237.628	3.61
238.011	2.81
238.394	0.96
238.777	3.14
239.16	2.99
239.543	4.43
239.925	2.87
240.308	1.64
240.691	1.93
241.073	3.62
241.456	2.16
241.838	1.63
242.221	2.76
242.603	2.37
242.986	3.26
243.368	1.99
243.75	2.37
244.133	2.11
244.515	2.37
244.897	2.63
245.279	2.7
245.661	2.42
246.043	1.98
246.425	2.16
246.807	1.84
247.189	2.71
247.571	1.19
247.953	2.56
248.335	2.61
248.717	2.18
249.098	2.31
249.48	2.06
249.862	2.58
250.243	2.81
250.625	2.45
251.006	2.69
251.388	2.21
251.769	2.5
252.151	2
252.532	2.61
252.913	2.3
253.295	1.41
253.676	2.43
254.057	2.18
254.438	2.44
254.819	2.31
255.2	2.9
255.581	2.54
255.962	2.67
256.343	1.64
256.724	1.47
257.105	2.07
257.486	2.81
257.867	2.32
258.247	2.55
258.628	1.65
259.009	1.55
259.389	1.84
259.77	1.49
260.15	2.5
260.531	2.17
260.911	2.26
261.292	1.92
261.672	2.32
262.052	2.35
262.432	2.2
262.813	2.27
263.193	2.11
263.573	1.8
263.953	2.18
264.333	2.57
264.713	2.51
265.093	2.72
265.473	2.52
265.853	1.31
266.233	2.65
266.612	1.82
266.992	2.19
267.372	1.95
267.752	2.08
268.131	2.14
268.511	2.15
268.89	1.98
269.27	1.96
269.649	1.79
270.029	2.14
270.408	2.08
270.787	2.2
271.167	2.66
271.546	2.72
271.925	2.7
272.304	2.66
272.683	2.36
273.062	2.29
273.441	2.42
273.82	2.6
274.199	2.33
274.578	2.35
274.957	2.2
275.336	2.17
275.715	2.32
276.093	2.16
276.472	2.1
276.851	2.44
277.229	2.66
277.608	2.01
277.986	2.04
278.365	2.48
278.743	2.01
279.122	2.4
279.5	2.1
279.878	1.25
280.257	2.47
280.635	2.3
281.013	2.56
281.391	2.82
281.769	1.92
282.147	1.67
282.525	2.09
282.903	1.95
283.281	1.9
283.659	2.21
284.037	2.42
284.415	1.14
284.792	2.02
285.17	2.09
285.548	2.21
285.925	2.26
286.303	1.93
286.68	1.76
287.058	2.56
287.435	2.01
287.813	1.83
288.19	2.05
288.567	2.29
288.945	2.37
289.322	2.26
289.699	1.74
290.076	2.71
290.453	2.57
290.83	1.91
291.207	2.79
291.584	1.88
291.961	2.07
292.338	1.7
292.715	2.29
293.092	2.34
293.469	2.13
293.845	1.89
294.222	2.16
294.599	2.16
294.975	2.5
295.352	2.41
295.728	2.23
296.105	1.81
296.481	2.08
296.858	2.17
297.234	1.92
297.61	1.85
297.986	1.81
298.363	2
298.739	1.97
299.115	1.92
299.491	2.11
299.867	2.46
300.243	2.2
300.619	1.98
300.995	1.96
301.371	2.06
301.746	2.07
302.122	1.88
302.498	2.09
302.874	1.92
303.249	2.38
303.625	2.25
304	2.11
304.376	1.75
304.751	1.41
305.127	1.64
305.502	2.26
305.878	2.19
306.253	2.07
306.628	2.27
307.003	2.3
307.378	1.94
307.754	2.13
308.129	2.46
308.504	2.28
308.879	2.34
309.254	2.4
309.629	1.41
310.003	1.31
310.378	2.48
310.753	2.05
311.128	2.22
311.502	2.04
311.877	2.32
312.252	1.98
312.626	2.11
313.001	1.8
313.375	1.86
313.75	2.07
314.124	1.87
314.498	2.08
314.873	1.53
315.247	2.25
315.621	2.23
315.995	2.39
316.369	1.78
316.743	2.21
317.117	2.03
317.491	1.23
317.865	2.26
318.239	2.56
318.613	2.19
318.987	2.59
319.361	1.24
319.734	1.99
320.108	1.52
320.482	2.33
320.855	2.41
321.229	2.72
321.602	2.31
321.976	2.01
322.349	2.65
322.723	2.08
323.096	2.33
323.469	2.03
323.843	2.23
324.216	2.17
324.589	1.91
324.962	2.86
325.335	2.06
325.708	2.05
326.081	2.26
326.454	2.44
326.827	2.46
327.2	2.44
327.573	2.69
327.945	2.18
328.318	2.09
328.691	2.21
329.063	2.87
329.436	1.63
329.809	2.41
330.181	2.88
330.553	2.31
330.926	2.38
331.298	1.76
331.671	1.39
332.043	1.82
332.415	2.05
332.787	2.49
333.159	1.88
333.532	1.96
333.904	2.58
334.276	1.95
334.648	2.29
335.02	2.42
335.391	1.86
335.763	2.49
336.135	2.04
336.507	2.36
336.879	2.46
337.25	2.29
337.622	2.71
337.993	2.73
338.365	1.94
338.736	2.45
339.108	2.42
339.479	1.95
339.851	2.21
340.222	2.03
340.593	1.68
340.964	1.93
341.336	2.7
341.707	1.87
342.078	2.07
342.449	1.82
342.82	2.26
343.191	2.35
343.562	2.41
343.933	2.19
344.303	2.36
344.674	2.9
345.045	2.45
345.416	2.86
345.786	2.47
346.157	2.54
346.527	2.41
346.898	1.91
347.268	2.16
347.639	2.46
348.009	2.16
348.38	2.47
348.75	2.14
349.12	1.95
349.49	2.41
349.861	2.76
350.231	1.56
350.601	2.26
350.971	2.66
351.341	2.25
351.711	2.89
352.081	1.92
352.45	2.08
352.82	2.62
353.19	2.48
353.56	2.4
353.929	2.07
354.299	2.33
354.669	2.37
355.038	2.3
355.408	2.44
355.777	2.22
356.147	2.19
356.516	2.03
356.885	2.48
357.254	2.23
357.624	2.34
357.993	1.83
358.362	2.28
358.731	2.17
359.1	1.79
359.469	2.08
359.838	2.5
360.207	2.29
360.576	2.67
360.945	2.15
361.314	2.28
361.682	2.26
362.051	2.3
362.42	2.13
362.788	2.47
363.157	2.24
363.525	2.25
363.894	2.24
364.262	2.09
364.631	2.48
364.999	2.17
365.367	2.31
365.735	2.25
366.104	2.18
366.472	2.15
366.84	2.43
367.208	2.35
367.576	2.32
367.944	2.45
368.312	2.15
368.68	2.44
369.048	2.44
369.416	2.39
369.783	2.45
370.151	2.39
370.519	2.36
370.886	2.47
371.254	2.51
371.621	2.69
371.989	1.94
372.356	2.23
372.724	2.74
373.091	2.46
373.458	2.15
373.826	2.45
374.193	2.22
374.56	2.5
374.927	2.29
375.294	2.86
375.661	2.22
376.028	2.28
376.395	2.44
376.762	2.28
377.129	2.29
377.496	2.35
377.863	2.55
378.229	2.82
378.596	2.57
378.963	2.55
379.329	2.39
379.696	2.23
380.062	2.56
380.429	2.19
380.795	2.34
381.161	2.43
381.528	2.96
381.894	2.41
382.26	2.49
382.626	2.71
382.993	2.45
383.359	2.62
383.725	2.42
384.091	2.76
384.457	2.54
384.823	2.32
385.188	2.74
385.554	2.33
385.92	2.43
386.286	2.35
386.651	2.36
387.017	2.44
387.383	2.42
387.748	2.09
388.114	2.33
388.479	2.32
388.845	2.59
389.21	2.2
389.575	2.26
389.94	2.37
390.306	2.61
390.671	2.34
391.036	2.49
391.401	2.64
391.766	2.53
392.131	2.35
392.496	2.45
392.861	2.47
393.226	2.33
393.591	2.46
393.956	2.54
394.32	2.33
394.685	2.38
395.05	2.73
395.414	2.76
395.779	2.52
396.143	2.42
396.508	2.37
396.872	2.59
397.236	2.37
397.601	2.28
397.965	2.24
398.329	2.32
398.694	2.64
399.058	2.01
399.422	2.25
399.786	2.24
400.15	2.47
400.514	2.2
400.878	2.57
401.242	2.44
401.605	2.53
401.969	2.33
402.333	2.47
402.697	2.41
403.06	2.29
403.424	2.67
403.787	2.6
404.151	2.57
404.514	2.33
404.878	2.51
405.241	2.5
405.604	2.36
405.968	2.56
406.331	2.35
406.694	2.31
407.057	2.41
407.42	2.82
407.783	2.46
408.146	2.37
408.509	2.42
408.872	2.66
409.235	2.37
409.598	2.61
409.961	2.47
410.323	2.3
410.686	2.19
411.049	2.52
411.411	2.47
411.774	2.34
412.136	2.42
412.499	2.41
412.861	2.82
413.223	2.65
413.586	2.49
413.948	2.57
414.31	2.7
414.672	2.47
415.035	2.63
415.397	2.69
415.759	2.34
416.121	2.53
416.483	2.66
416.845	2.32
417.206	2.46
417.568	2.69
417.93	2.34
418.292	2.15
418.653	2.58
419.015	2.39
419.377	2.27
419.738	2.42
420.1	2.4
420.461	2.29
420.822	2.33
421.184	2.49
421.545	2.45
421.906	2.34
422.267	2.39
422.629	2.39
422.99	2.26
423.351	2.4
423.712	2.31
424.073	2.45
424.434	2.3
424.795	2.41
425.155	2.42
425.516	2.51
425.877	2.39
426.238	2.31
426.598	2.46
426.959	2.25
427.32	2.33
427.68	2.43
428.041	2.37
428.401	2.51
428.761	2.51
429.122	2.42
429.482	2.43
429.842	2.48
430.202	2.46
430.563	2.44
430.923	2.5
431.283	2.37
431.643	2.5
432.003	2.75
432.363	2.34
432.722	2.45
433.082	2.34
433.442	2.33
433.802	2.81
434.161	2.3
434.521	2.48
434.881	2.5
435.24	2.49
435.6	2.47
435.959	2.46
436.319	2.46
436.678	2.68
437.037	2.48
437.396	2.52
437.756	2.57
438.115	2.46
438.474	2.61
438.833	2.62
439.192	2.37
439.551	2.42
439.91	2.51
440.269	2.61
440.628	2.52
440.987	2.43
441.345	2.4
441.704	2.41
442.063	2.46
442.421	2.37
442.78	2.41
443.138	2.6
443.497	2.58
443.855	2.54
444.214	2.47
444.572	2.53
444.93	2.56
445.288	2.54
445.647	2.66
446.005	2.35
446.363	2.51
446.721	2.46
447.079	2.69
447.437	2.4
447.795	2.38
448.153	2.43
448.51	2.39
448.868	2.4
449.226	2.4
449.584	2.44
449.941	2.45
450.299	2.52
450.656	2.41
451.014	2.47
451.371	2.5
451.729	2.43
452.086	2.5
452.443	2.6
452.801	2.47
453.158	2.51
453.515	2.62
453.872	2.52
454.229	2.52
454.586	2.47
454.943	2.59
455.3	2.45
455.657	2.59
456.014	2.47
456.371	2.48
456.727	2.5
457.084	2.57
457.441	2.5
457.797	2.72
458.154	2.46
458.51	2.5
458.867	2.56
459.223	2.43
459.58	2.45
459.936	2.43
460.292	2.41
460.648	2.33
461.005	2.4
461.361	2.45
461.717	2.34
462.073	2.41
462.429	2.47
462.785	2.46
463.141	2.62
463.496	2.51
463.852	2.6
464.208	2.62
464.564	2.55
464.919	2.45
465.275	2.72
465.631	2.62
465.986	2.56
466.342	2.68
466.697	2.53
467.052	2.41
467.408	2.43
467.763	2.68
468.118	2.8
468.473	2.57
468.829	2.47
469.184	2.58
469.539	2.58
469.894	2.62
470.249	2.43
470.603	2.49
470.958	2.75
471.313	2.63
471.668	2.62
472.023	2.61
472.377	2.54
472.732	2.41
473.086	2.71
473.441	2.61
473.795	2.79
474.15	2.47
474.504	2.42
474.859	2.69
475.213	2.61
475.567	2.54
475.921	2.62
476.275	2.59
476.63	2.69
476.984	2.54
477.338	2.4
477.692	2.57
478.045	2.5
478.399	2.6
478.753	2.53
479.107	2.61
479.461	2.5
479.814	2.73
480.168	2.63
480.521	2.62
480.875	2.55
481.228	2.63
481.582	2.62
481.935	2.53
482.289	2.68
482.642	2.56
482.995	2.4
483.348	2.63
483.701	2.58
484.055	2.47
484.408	2.46
484.761	2.46
485.114	2.38
485.466	2.46
485.819	2.37
486.172	2.27
486.525	2.34
486.878	2.4
487.23	2.44
487.583	2.42
487.936	2.42
488.288	2.42
488.641	2.53
488.993	2.44
489.345	2.41
489.698	2.37
490.05	2.39
490.402	2.41
490.754	2.44
491.107	2.45
491.459	2.55
491.811	2.54
492.163	2.45
492.515	2.58
492.866	2.51
493.218	2.38
493.57	2.45
493.922	2.41
494.274	2.46
494.625	2.45
494.977	2.49
495.328	2.55
495.68	2.56
496.031	2.49
496.383	2.66
496.734	2.59
497.086	2.55
497.437	2.59
497.788	2.47
498.139	2.64
498.49	2.54
498.842	2.47
499.193	2.66
499.544	2.69
499.894	2.58
500.245	2.48
500.596	2.55
500.947	2.57
501.298	2.62
501.648	2.67
501.999	2.65
502.35	2.61
502.7	2.71
503.051	2.71
503.401	2.66
503.752	2.74
504.102	2.71
504.452	2.58
504.803	2.59
505.153	2.72
505.503	2.59
505.853	2.72
506.203	2.64
506.553	2.68
506.903	2.57
507.253	2.58
507.603	2.66
507.953	2.69
508.303	2.52
508.652	2.6
509.002	2.66
509.352	2.74
509.701	2.66
510.051	2.53
510.4	2.53
510.75	2.6
511.099	2.61
511.449	2.66
511.798	2.71
512.147	2.59
512.496	2.57
512.846	2.64
513.195	2.65
513.544	2.6
513.893	2.57
514.242	2.57
514.591	2.55
514.939	2.54
515.288	2.55
515.637	2.51
515.986	2.71
516.334	2.63
516.683	2.58
517.032	2.56
517.38	2.47
517.729	2.68
518.077	2.66
518.426	2.59
518.774	2.49
519.122	2.65
519.47	2.62
519.819	2.55
520.167	2.45
520.515	2.57
520.863	2.57
521.211	2.55
521.559	2.57
521.907	2.5
522.255	2.63
522.602	2.66
522.95	2.5
523.298	2.57
523.645	2.58
523.993	2.58
524.341	2.7
524.688	2.67
525.036	2.72
525.383	2.58
525.73	2.72
526.078	2.69
526.425	2.78
526.772	2.59
527.119	2.59
527.466	2.57
527.814	2.64
528.161	2.56
528.508	2.56
528.854	2.51
529.201	2.47
529.548	2.6
529.895	2.53
530.242	2.54
530.588	2.42
530.935	2.38
531.282	2.49
531.628	2.47
531.975	2.47
532.321	2.57
532.667	2.58
533.014	2.59
533.36	2.59
533.706	2.63
534.052	2.67
534.399	2.55
534.745	2.45
535.091	2.59
535.437	2.54
535.783	2.5
536.129	2.55
536.474	2.59
536.82	2.63
537.166	2.59
537.512	2.66
537.857	2.67
538.203	2.56
538.549	2.64
538.894	2.54
539.239	2.54
539.585	2.57
539.93	2.64
540.276	2.65
540.621	2.62
540.966	2.69
541.311	2.75
541.656	2.68
542.001	2.79
542.346	2.64
542.691	2.57
543.036	2.51
543.381	2.47
543.726	2.44
544.071	2.51
544.415	2.52
544.76	2.56
545.105	2.64
545.449	2.59
545.794	2.63
546.138	2.63
546.483	2.68
546.827	2.71
547.171	2.65
547.516	2.63
547.86	2.75
548.204	2.54
548.548	2.71
548.892	2.66
549.236	2.69
549.58	2.51
549.924	2.6
550.268	2.68
550.612	2.77
550.956	2.74
551.3	2.65
551.643	2.68
551.987	2.74
552.33	2.64
552.674	2.69
553.017	2.61
553.361	2.84
553.704	2.92
554.048	2.73
554.391	2.79
554.734	2.78
555.077	2.62
555.42	2.72
555.764	2.65
556.107	2.87
556.45	2.73
556.793	2.5
557.135	2.8
557.478	2.5
557.821	2.77
558.164	2.85
558.507	2.61
558.849	2.75
559.192	2.74
559.534	2.96
559.877	2.76
560.219	2.93
560.562	2.72
560.904	2.57
561.246	2.88
561.589	2.61
561.931	2.83
562.273	2.7
562.615	2.94
562.957	2.86
563.299	2.82
563.641	2.65
563.983	2.73
564.325	2.46
564.667	2.72
565.008	2.67
565.35	2.77
565.692	2.64
566.033	2.75
566.375	2.96
566.716	2.72
567.058	2.64
567.399	2.83
567.741	2.78
568.082	2.91
568.423	2.75
568.764	2.61
569.105	2.82
569.447	2.63
569.788	2.82
570.129	2.72
570.47	2.81
570.811	2.73
571.151	2.78
571.492	3.02
571.833	2.85
572.174	2.8
572.514	2.88
572.855	2.77
573.195	2.78
573.536	2.65
573.876	2.96
574.217	2.67
574.557	2.72
574.898	2.72
575.238	2.61
575.578	2.81
575.918	2.61
576.258	2.86
576.598	2.86
576.938	2.81
577.278	2.72
577.618	2.62
577.958	2.66
578.298	2.61
578.638	2.94
578.977	2.81
579.317	2.84
579.657	2.76
579.996	2.9
580.336	2.8
580.675	2.72
581.014	2.76
581.354	2.83
581.693	2.7
582.032	3
582.372	2.86
582.711	2.82
583.05	3.02
583.389	2.84
583.728	2.87
584.067	3.01
584.406	2.78
584.745	2.97
585.083	2.9
585.422	2.82
585.761	2.89
586.1	2.75
586.438	2.51
586.777	2.99
587.115	2.79
587.454	2.79
587.792	2.82
588.13	3.08
588.469	2.82
588.807	2.62
589.145	2.66
589.483	2.68
589.821	3.03
590.159	2.82
590.497	2.86
590.835	2.84
591.173	2.72
591.511	2.83
591.849	2.58
592.187	2.81
592.524	2.73
592.862	2.79
593.2	2.83
593.537	2.72
593.875	2.85
594.212	2.78
594.55	2.95
594.887	2.93
595.224	2.81
595.561	2.74
595.899	2.77
596.236	2.82
596.573	2.93
596.91	3.01
597.247	2.84
597.584	2.8
597.921	2.56
598.258	3.01
598.594	3.08
598.931	2.74
599.268	2.68
599.604	2.89
599.941	2.89
600.277	2.69
600.614	2.83
600.95	2.95
601.287	2.75
601.623	2.95
601.959	3.07
602.296	2.87
602.632	2.7
602.968	2.68
603.304	3.14
603.64	2.72
603.976	2.76
604.312	3.02
604.648	2.97
604.984	3.07
605.319	2.95
605.655	2.61
605.991	2.97
606.326	2.8
606.662	2.64
606.998	2.72
607.333	2.75
607.668	2.54
608.004	2.84
608.339	2.69
608.674	2.78
609.01	2.85
609.345	2.91
609.68	2.81
610.015	2.81
610.35	3.03
610.685	3.3
611.02	2.91
611.355	2.79
611.689	2.79
612.024	2.92
612.359	2.88
612.694	2.91
613.028	2.91
613.363	2.95
613.697	2.99
614.032	3.02
614.366	2.58
614.7	2.94
615.035	3
615.369	3.12
615.703	2.85
616.037	3.08
616.371	2.77
616.705	3.12
617.039	2.93
617.373	2.94
617.707	3.05
618.041	2.92
618.375	2.72
618.709	3.18
619.042	2.96
619.376	3.31
619.71	2.95
620.043	3.12
620.377	3.14
620.71	3.16
621.043	3.21
621.377	2.98
621.71	2.55
622.043	2.89
622.376	3.12
622.709	3.34
623.043	2.95
623.376	2.93
623.709	2.82
624.041	3.07
624.374	3.09
624.707	2.88
625.04	3.17
625.373	3.02
625.705	2.67
626.038	2.82
626.37	2.55
626.703	2.94
627.035	2.94
627.368	3.14
627.7	3.48
628.032	2.73
628.365	3.07
628.697	3.16
629.029	2.81
629.361	2.98
629.693	2.8
630.025	3.07
630.357	2.92
630.689	2.8
631.021	3.23
631.353	3.01
631.684	2.86
632.016	2.73
632.348	2.92
632.679	2.42
633.011	3.15
633.342	3.2
633.674	3.04
634.005	3.01
634.336	3.19
634.668	2.8
634.999	2.61
635.33	2.71
635.661	3.22
635.992	2.99
636.323	3.12
636.654	3.15
636.985	2.73
637.316	2.97
637.647	2.56
637.977	2.87
638.308	3.06
638.639	3.17
638.969	3.14
639.3	2.6
639.63	2.54
639.961	2.53
640.291	2.9
640.622	2.95
640.952	3.18
641.282	2.81
641.612	3.07
641.943	3.26
642.273	2.68
642.603	3.53
642.933	3.07
643.263	3.21
643.592	2.65
643.922	3.46
644.252	2.56
644.582	3.04
644.911	3.04
645.241	3.12
645.571	3.64
645.9	2.72
646.23	2.79
646.559	2.99
646.888	3.38
647.218	2.86
647.547	3.2
647.876	3.15
648.205	3.08
648.534	3.02
648.863	3.19
649.192	2.68
649.521	3.24
649.85	2.93
650.179	2.92
650.508	2.88
650.837	2.97
651.165	3.12
651.494	2.54
651.822	3.17
652.151	3.04
652.479	2.92
652.808	3.16
653.136	2.63
653.465	3.31
653.793	3.25
654.121	3.46
654.449	3.06
654.777	2.99
655.105	2.7
655.433	3.4
655.761	3.04
656.089	3.12
656.417	3.2
656.745	3.26
657.073	3.17
657.4	3.72
657.728	3.34
658.056	3.18
658.383	3.13
658.711	3.09
659.038	3.26
659.365	3.58
659.693	3.47
660.02	3.21
660.347	3.37
660.674	3.35
661.001	2.64
661.329	3.2
661.656	2.91
661.982	3.37
662.309	3.2
662.636	3.48
662.963	3.23
663.29	2.99
663.616	3.1
663.943	2.95
664.27	3.19
664.596	2.85
664.923	3.05
665.249	2.85
665.576	3.19
665.902	3.07
666.228	3.19
666.554	3.11
666.881	2.78
667.207	3.2
667.533	3.25
667.859	3.46
668.185	3.64
668.511	3.26
668.837	3.87
669.162	3.19
669.488	3.01
669.814	3.15
670.139	3.53
670.465	3.23
670.791	3.31
671.116	3.27
671.442	3.25
671.767	2.96
672.092	3.01
672.418	2.78
672.743	3.6
673.068	3.77
673.393	2.75
673.718	2.79
674.043	3.27
674.368	2.74
674.693	3.59
675.018	4.11
675.343	2.97
675.667	3.65
675.992	2.85
676.317	3.48
676.641	3.53
676.966	3.24
677.29	3.71
677.615	2.86
677.939	2.97
678.264	3.34
678.588	2.65
678.912	3.26
679.236	3.03
679.56	3.55
679.885	3.13
680.209	3.61
680.532	3.02
680.856	3.02
681.18	2.64
681.504	2.85
681.828	3.46
682.152	3.4
682.475	2.79
682.799	3.43
683.122	3.4
683.446	3.3
683.769	3.2
684.093	3.71
684.416	3.54
684.739	3.12
685.062	2.8
685.386	3.09
685.709	2.95
686.032	2.82
686.355	3.89
686.678	3.25
687.001	3.32
687.324	3.08
687.646	3.42
687.969	3.36
688.292	3.49
688.614	3.93
688.937	3.13
689.26	3.92
689.582	2.87
689.904	3.11
690.227	3.4
690.549	3.94
690.871	4.2
691.194	4.11
691.516	4.06
691.838	3.39
