Data from 0341_forehead_Reflection__3__277.txt Node

Date: Fri Oct 20 22:54:38 CDT 2023
User: ToomeyLab
Spectrometer: FLMS14357
Trigger mode: 0
Integration Time (sec): 1.000000E-2
Scans to average: 100
Electric dark correction enabled: true
Nonlinearity correction enabled: false
Boxcar width: 0
XAxis mode: Wavelengths
Number of Pixels in Spectrum: 2048
>>>>>Begin Spectral Data<<<<<
189.047	28.85
189.435	28.85
189.823	28.85
190.211	413.03
190.599	112.66
190.987	71.99
191.375	170.75
191.763	152.3
192.151	-18.62
192.538	-1398.28
192.926	74.6
193.314	78.78
193.702	70.22
194.089	123.45
194.477	93.34
194.864	770.47
195.252	59.22
195.639	-661.11
196.027	-30.69
196.414	96.76
196.801	61.51
197.189	-16.61
197.576	50.68
197.963	159.3
198.351	103.11
198.738	19.36
199.125	52.75
199.512	32.04
199.899	28.87
200.286	3.73
200.673	34.05
201.06	49.61
201.447	28.68
201.833	45.37
202.22	14.83
202.607	74.36
202.994	25.35
203.38	28.33
203.767	21.24
204.154	54.85
204.54	73.51
204.927	23.34
205.313	22.16
205.699	75.3
206.086	22.34
206.472	52.29
206.858	49.05
207.245	-56.52
207.631	38.42
208.017	18.05
208.403	86.19
208.789	31.73
209.175	-38.86
209.561	25.04
209.947	-9.06
210.333	41.39
210.719	49.27
211.105	35.13
211.491	35.9
211.876	-9.32
212.262	58.07
212.648	18.45
213.034	12.03
213.419	21.85
213.805	27.98
214.19	-13
214.576	39.23
214.961	31.12
215.346	51.38
215.732	7.64
216.117	10.54
216.502	22.29
216.888	13.51
217.273	-8.79
217.658	16.52
218.043	27.57
218.428	34.85
218.813	55.81
219.198	5.4
219.583	-11.31
219.968	-20.24
220.353	30.21
220.738	20.96
221.122	3.53
221.507	15.44
221.892	3.11
222.276	18.23
222.661	46.77
223.046	-1.18
223.43	17.27
223.815	15.01
224.199	15.21
224.583	-0.22
224.968	2.74
225.352	-0.32
225.736	-3.97
226.121	13.65
226.505	1.09
226.889	17.65
227.273	16.31
227.657	9.99
228.041	12.09
228.425	10.56
228.809	10.17
229.193	6.11
229.577	10.11
229.961	5.83
230.344	4.62
230.728	4.05
231.112	5.36
231.495	4.35
231.879	4.85
232.263	6
232.646	4.15
233.03	3.99
233.413	5.17
233.797	5.15
234.18	5.91
234.563	5.35
234.946	5.44
235.33	6.27
235.713	5.87
236.096	6.02
236.479	5.23
236.862	3.89
237.245	4.35
237.628	5.24
238.011	5.09
238.394	4.55
238.777	7.06
239.16	5.72
239.543	6.69
239.925	7.18
240.308	5.29
240.691	4.66
241.073	4.51
241.456	6.19
241.838	5.65
242.221	6.45
242.603	5.77
242.986	5.18
243.368	5.81
243.75	4.57
244.133	4.4
244.515	4.61
244.897	4.81
245.279	5.02
245.661	4.7
246.043	3.95
246.425	4.98
246.807	4.95
247.189	5.18
247.571	3.78
247.953	4.31
248.335	4.89
248.717	4.15
249.098	4.36
249.48	4.28
249.862	4.69
250.243	5.17
250.625	4.91
251.006	4.64
251.388	4.78
251.769	4.9
252.151	3.98
252.532	5.64
252.913	5.02
253.295	3.89
253.676	4.89
254.057	4.49
254.438	4.94
254.819	4.88
255.2	4.6
255.581	4.55
255.962	4.82
256.343	5.98
256.724	3.85
257.105	5.21
257.486	4.45
257.867	5.45
258.247	3.66
258.628	5.31
259.009	4.13
259.389	4.3
259.77	4.29
260.15	5.06
260.531	5.24
260.911	5.15
261.292	4.43
261.672	4.73
262.052	4.66
262.432	4.52
262.813	4.34
263.193	4.69
263.573	4.57
263.953	4.62
264.333	5.09
264.713	4.54
265.093	5.04
265.473	4.63
265.853	4.86
266.233	5.54
266.612	5.5
266.992	5.16
267.372	4.56
267.752	5.1
268.131	5.12
268.511	4.84
268.89	4.37
269.27	4.57
269.649	4.13
270.029	4.74
270.408	5.12
270.787	4.77
271.167	4.61
271.546	5.12
271.925	4.83
272.304	4.93
272.683	4.93
273.062	4.75
273.441	4.69
273.82	4.68
274.199	5.04
274.578	4.69
274.957	5.03
275.336	4.43
275.715	4.96
276.093	4.68
276.472	4.87
276.851	5.02
277.229	4.61
277.608	3.77
277.986	4.3
278.365	4.77
278.743	4.1
279.122	4.43
279.5	4.41
279.878	4.62
280.257	4.2
280.635	4.52
281.013	4.72
281.391	5.08
281.769	4.98
282.147	4.52
282.525	4.77
282.903	4.16
283.281	4.76
283.659	4.78
284.037	4.23
284.415	4.04
284.792	4.53
285.17	4.52
285.548	4.62
285.925	4.43
286.303	4.48
286.68	4.38
287.058	4.69
287.435	4.56
287.813	4.16
288.19	4.61
288.567	4.72
288.945	4.72
289.322	4.66
289.699	4.39
290.076	5.01
290.453	4.61
290.83	4.7
291.207	5.09
291.584	4.16
291.961	4.94
292.338	4.52
292.715	4.62
293.092	4.42
293.469	5.16
293.845	4.63
294.222	4.82
294.599	4.94
294.975	5.52
295.352	4.98
295.728	5.16
296.105	4.99
296.481	4.91
296.858	4.85
297.234	5.63
297.61	4.73
297.986	4.87
298.363	5.32
298.739	4.96
299.115	4.99
299.491	5.22
299.867	5.29
300.243	5.21
300.619	5.13
300.995	5.32
301.371	5.65
301.746	5.34
302.122	5.6
302.498	5.26
302.874	5.33
303.249	5.15
303.625	5.81
304	5.84
304.376	5.35
304.751	5.21
305.127	5.49
305.502	6.29
305.878	5.58
306.253	6.07
306.628	5.69
307.003	6.28
307.378	5.61
307.754	6.13
308.129	6.64
308.504	6.17
308.879	6.38
309.254	6.81
309.629	6.31
310.003	6.01
310.378	6.74
310.753	6.44
311.128	7.21
311.502	6.56
311.877	6.84
312.252	6.45
312.626	6.63
313.001	6.71
313.375	6.45
313.75	6.76
314.124	6.44
314.498	6.95
314.873	6.66
315.247	6.95
315.621	7.15
315.995	7.24
316.369	6.93
316.743	7.03
317.117	7.05
317.491	6.36
317.865	7.22
318.239	7.82
318.613	7.74
318.987	7.41
319.361	6.92
319.734	7.34
320.108	7.37
320.482	7.74
320.855	7.93
321.229	8.14
321.602	7.95
321.976	7.73
322.349	8.1
322.723	8.01
323.096	7.82
323.469	7.92
323.843	8.79
324.216	8.45
324.589	8.3
324.962	8.65
325.335	8.19
325.708	8.44
326.081	8.02
326.454	8.37
326.827	8.63
327.2	8.93
327.573	8.94
327.945	8.55
328.318	7.99
328.691	8.43
329.063	9.18
329.436	8.88
329.809	9.18
330.181	9.23
330.553	8.94
330.926	8.4
331.298	8.63
331.671	7.89
332.043	8.73
332.415	9.19
332.787	9.22
333.159	9.49
333.532	9.25
333.904	8.83
334.276	8.83
334.648	9.81
335.02	9.3
335.391	9.23
335.763	10.06
336.135	9.62
336.507	9.88
336.879	9.54
337.25	9.58
337.622	10.05
337.993	9.96
338.365	9.93
338.736	9.82
339.108	10.11
339.479	9.69
339.851	9.9
340.222	9.8
340.593	9.79
340.964	9.84
341.336	10.06
341.707	10.14
342.078	10.42
342.449	9.82
342.82	9.51
343.191	10.48
343.562	10.26
343.933	10.22
344.303	10.72
344.674	10.69
345.045	10.4
345.416	11.17
345.786	10.33
346.157	10.67
346.527	10.53
346.898	10.74
347.268	10.64
347.639	11.08
348.009	10.42
348.38	10.9
348.75	10.72
349.12	10.88
349.49	10.94
349.861	11.39
350.231	10.55
350.601	11.38
350.971	11.13
351.341	11.19
351.711	11.75
352.081	10.99
352.45	11.23
352.82	11.35
353.19	11.41
353.56	11.75
353.929	11.6
354.299	11.11
354.669	11.58
355.038	11.57
355.408	11.5
355.777	11.74
356.147	11.65
356.516	11.58
356.885	11.83
357.254	11.65
357.624	11.71
357.993	11.63
358.362	11.63
358.731	11.64
359.1	11.57
359.469	11.84
359.838	11.67
360.207	11.61
360.576	12.17
360.945	11.89
361.314	12.23
361.682	11.93
362.051	12.21
362.42	11.76
362.788	12.41
363.157	12.24
363.525	12.01
363.894	12.15
364.262	12.19
364.631	12.23
364.999	12.63
365.367	12.49
365.735	12.42
366.104	12.16
366.472	12.39
366.84	12.83
367.208	12.61
367.576	12.52
367.944	12.98
368.312	12.8
368.68	12.89
369.048	12.9
369.416	12.92
369.783	13.42
370.151	13.17
370.519	13.15
370.886	13.43
371.254	13.79
371.621	13.58
371.989	13.41
372.356	13.44
372.724	13.7
373.091	13.52
373.458	13.13
373.826	13.49
374.193	13.32
374.56	13.51
374.927	13.57
375.294	13.72
375.661	14.11
376.028	13.79
376.395	13.73
376.762	13.51
377.129	14.14
377.496	13.86
377.863	14.54
378.229	13.96
378.596	14.35
378.963	14.33
379.329	13.95
379.696	14.05
380.062	14.23
380.429	13.93
380.795	14.35
381.161	14.36
381.528	14.42
381.894	14.39
382.26	14.64
382.626	14.56
382.993	14.83
383.359	14.57
383.725	15.02
384.091	14.93
384.457	15.12
384.823	14.77
385.188	14.9
385.554	14.53
385.92	14.73
386.286	14.88
386.651	14.57
387.017	15.13
387.383	14.88
387.748	14.98
388.114	15
388.479	15
388.845	15.4
389.21	15.13
389.575	15.16
389.94	15.21
390.306	15.24
390.671	15.1
391.036	15.71
391.401	15.62
391.766	15.55
392.131	15.66
392.496	15.59
392.861	15.68
393.226	15.57
393.591	15.5
393.956	15.46
394.32	15.64
394.685	15.74
395.05	15.74
395.414	15.99
395.779	15.64
396.143	15.79
396.508	15.89
396.872	15.81
397.236	15.82
397.601	15.86
397.965	16.03
398.329	16.14
398.694	16.07
399.058	15.81
399.422	16
399.786	16.15
400.15	16.25
400.514	16.21
400.878	16.57
401.242	16.42
401.605	16.31
401.969	16.24
402.333	16.35
402.697	16.48
403.06	16.39
403.424	16.46
403.787	16.71
404.151	16.33
404.514	16.78
404.878	16.96
405.241	16.8
405.604	16.78
405.968	16.78
406.331	16.5
406.694	16.51
407.057	16.86
407.42	16.98
407.783	16.97
408.146	16.84
408.509	16.81
408.872	17.11
409.235	17.08
409.598	16.98
409.961	17.03
410.323	16.92
410.686	16.9
411.049	17.12
411.411	16.98
411.774	17.2
412.136	17.19
412.499	17.27
412.861	17.22
413.223	17.23
413.586	17.09
413.948	17.44
414.31	17.7
414.672	17.3
415.035	17.3
415.397	17.52
415.759	17.72
416.121	17.5
416.483	17.73
416.845	17.66
417.206	17.74
417.568	17.93
417.93	17.65
418.292	17.65
418.653	17.73
419.015	17.66
419.377	17.92
419.738	17.62
420.1	17.64
420.461	17.77
420.822	17.77
421.184	17.86
421.545	17.88
421.906	17.77
422.267	17.83
422.629	18
422.99	17.87
423.351	17.97
423.712	17.88
424.073	18.21
424.434	18.17
424.795	18.33
425.155	18.46
425.516	18.31
425.877	18.47
426.238	18.22
426.598	18.4
426.959	18.61
427.32	18.66
427.68	18.72
428.041	18.88
428.401	19.03
428.761	19.03
429.122	19.18
429.482	19.39
429.842	19.39
430.202	19.53
430.563	19.54
430.923	19.63
431.283	19.68
431.643	19.65
432.003	20.17
432.363	19.64
432.722	19.81
433.082	19.86
433.442	19.98
433.802	20.21
434.161	20.02
434.521	20.12
434.881	19.97
435.24	20.1
435.6	20.22
435.959	20.35
436.319	20.54
436.678	20.44
437.037	20.69
437.396	20.59
437.756	20.82
438.115	20.5
438.474	20.76
438.833	20.88
439.192	20.64
439.551	20.92
439.91	20.95
440.269	20.98
440.628	21.05
440.987	21.04
441.345	21.02
441.704	20.97
442.063	21.11
442.421	21.01
442.78	21.12
443.138	21.07
443.497	21.19
443.855	21.29
444.214	21.49
444.572	21.41
444.93	21.53
445.288	21.82
445.647	21.72
446.005	21.59
446.363	21.78
446.721	21.71
447.079	21.97
447.437	21.87
447.795	21.66
448.153	21.61
448.51	21.75
448.868	21.69
449.226	21.98
449.584	21.96
449.941	22.11
450.299	22.02
450.656	22.22
451.014	22.38
451.371	22.54
451.729	22.58
452.086	22.49
452.443	22.61
452.801	22.88
453.158	23.01
453.515	22.95
453.872	22.93
454.229	22.9
454.586	23.06
454.943	23.24
455.3	23.29
455.657	23.07
456.014	23.28
456.371	23.3
456.727	23.32
457.084	23.59
457.441	23.67
457.797	23.79
458.154	23.57
458.51	23.77
458.867	23.75
459.223	23.7
459.58	23.78
459.936	23.86
460.292	23.91
460.648	23.93
461.005	23.94
461.361	23.88
461.717	23.62
462.073	23.84
462.429	23.66
462.785	23.82
463.141	24.05
463.496	24.12
463.852	24.31
464.208	24.49
464.564	24.63
464.919	24.65
465.275	24.79
465.631	24.95
465.986	25.07
466.342	24.78
466.697	24.87
467.052	24.91
467.408	25.01
467.763	25.24
468.118	25.5
468.473	25.17
468.829	25.16
469.184	25.35
469.539	25.42
469.894	25.62
470.249	25.61
470.603	25.57
470.958	25.72
471.313	25.86
471.668	25.87
472.023	25.72
472.377	25.98
472.732	25.82
473.086	25.97
473.441	26.09
473.795	26.25
474.15	26.19
474.504	26.03
474.859	26.32
475.213	26.15
475.567	26.38
475.921	26.52
476.275	26.42
476.63	26.7
476.984	26.5
477.338	26.54
477.692	26.61
478.045	26.73
478.399	26.7
478.753	26.92
479.107	26.81
479.461	26.83
479.814	26.97
480.168	27.06
480.521	27.02
480.875	27.16
481.228	26.88
481.582	27.1
481.935	27.05
482.289	27.27
482.642	27.32
482.995	27.36
483.348	27.27
483.701	27.28
484.055	27.17
484.408	27.1
484.761	26.89
485.114	26.76
485.466	26.47
485.819	26.41
486.172	26.39
486.525	26.58
486.878	26.66
487.23	26.74
487.583	26.96
487.936	27.12
488.288	27.31
488.641	27.37
488.993	27.16
489.345	27.17
489.698	27.15
490.05	27.07
490.402	27.16
490.754	27.38
491.107	27.57
491.459	27.67
491.811	27.92
492.163	28.16
492.515	28.2
492.866	28.27
493.218	27.98
493.57	27.73
493.922	27.87
494.274	27.93
494.625	28.08
494.977	28.2
495.328	28.45
495.68	28.9
496.031	29.07
496.383	29.23
496.734	29.25
497.086	29.45
497.437	29.44
497.788	29.51
498.139	29.5
498.49	29.35
498.842	29.59
499.193	29.45
499.544	29.44
499.894	29.37
500.245	29.54
500.596	29.65
500.947	29.89
501.298	29.86
501.648	30
501.999	30.13
502.35	30.17
502.7	30.23
503.051	30.16
503.401	30.44
503.752	30.63
504.102	30.49
504.452	30.43
504.803	30.63
505.153	30.62
505.503	30.74
505.853	30.72
506.203	30.71
506.553	30.88
506.903	30.81
507.253	31
507.603	31.04
507.953	31.07
508.303	31.1
508.652	31.24
509.002	31.2
509.352	31.34
509.701	31.24
510.051	31.11
510.4	31.17
510.75	31.23
511.099	31.32
511.449	31.35
511.798	31.36
512.147	31.5
512.496	31.49
512.846	31.43
513.195	31.45
513.544	31.54
513.893	31.58
514.242	31.64
514.591	31.73
514.939	31.79
515.288	31.72
515.637	31.92
515.986	32.01
516.334	32.1
516.683	32.11
517.032	32.31
517.38	32.24
517.729	32.45
518.077	32.4
518.426	32.33
518.774	32.28
519.122	32.61
519.47	32.56
519.819	32.19
520.167	32.23
520.515	32.24
520.863	32.25
521.211	32.27
521.559	32.21
521.907	32.37
522.255	32.63
522.602	32.78
522.95	32.8
523.298	33.06
523.645	33.07
523.993	33.15
524.341	33.39
524.688	33.28
525.036	33.54
525.383	33.47
525.73	33.4
526.078	33.43
526.425	33.67
526.772	33.47
527.119	33.17
527.466	33.19
527.814	33.11
528.161	33.29
528.508	33.08
528.854	33.19
529.201	33.32
529.548	33.32
529.895	33.2
530.242	32.98
530.588	32.65
530.935	32.86
531.282	33.06
531.628	33
531.975	33.17
532.321	33.26
532.667	33.64
533.014	33.78
533.36	33.91
533.706	34.04
534.052	34.17
534.399	33.99
534.745	33.86
535.091	33.9
535.437	33.85
535.783	33.96
536.129	34.08
536.474	34.04
536.82	34.35
537.166	34.75
537.512	34.65
537.857	34.77
538.203	34.8
538.549	34.74
538.894	34.72
539.239	34.66
539.585	34.72
539.93	35.05
540.276	35.4
540.621	35.29
540.966	35.51
541.311	35.61
541.656	35.68
542.001	35.68
542.346	35.71
542.691	35.38
543.036	35.1
543.381	34.9
543.726	34.89
544.071	34.99
544.415	35.14
544.76	35.3
545.105	35.37
545.449	35.51
545.794	35.69
546.138	35.81
546.483	35.82
546.827	36.29
547.171	36.27
547.516	36.25
547.86	36.39
548.204	36.35
548.548	36.31
548.892	36.37
549.236	36.28
549.58	36.52
549.924	36.72
550.268	36.85
550.612	37.16
550.956	37.08
551.3	37.34
551.643	37.5
551.987	37.49
552.33	37.5
552.674	37.69
553.017	37.68
553.361	37.97
553.704	37.85
554.048	37.63
554.391	37.91
554.734	37.73
555.077	37.95
555.42	37.79
555.764	37.93
556.107	38.03
556.45	38.1
556.793	38.07
557.135	38.11
557.478	38.4
557.821	38.74
558.164	38.57
558.507	38.52
558.849	38.86
559.192	38.51
559.534	38.96
559.877	38.8
560.219	39.01
560.562	39.14
560.904	38.97
561.246	39.15
561.589	39.18
561.931	39.16
562.273	39.14
562.615	39.49
562.957	39.13
563.299	39.25
563.641	39.35
563.983	39.46
564.325	39.33
564.667	39.69
565.008	39.59
565.35	39.64
565.692	39.76
566.033	39.96
566.375	39.9
566.716	39.98
567.058	39.96
567.399	39.96
567.741	39.9
568.082	39.82
568.423	39.98
568.764	39.88
569.105	40.16
569.447	40.08
569.788	40.24
570.129	40.22
570.47	40.5
570.811	40.51
571.151	40.24
571.492	40.73
571.833	40.71
572.174	40.93
572.514	40.54
572.855	40.68
573.195	40.84
573.536	40.84
573.876	40.69
574.217	40.62
574.557	40.78
574.898	40.8
575.238	40.74
575.578	40.98
575.918	41.02
576.258	41.37
576.598	41.38
576.938	41.46
577.278	41.32
577.618	41.14
577.958	41.25
578.298	41.57
578.638	41.66
578.977	41.85
579.317	41.74
579.657	41.76
579.996	41.95
580.336	42.15
580.675	41.98
581.014	42.37
581.354	42.29
581.693	42.5
582.032	42.65
582.372	42.43
582.711	42.62
583.05	42.87
583.389	42.81
583.728	42.55
584.067	42.93
584.406	42.98
584.745	43.03
585.083	42.99
585.422	43.01
585.761	43.49
586.1	43.48
586.438	43
586.777	43.46
587.115	43.6
587.454	43.64
587.792	43.3
588.13	43.63
588.469	43.5
588.807	43.74
589.145	43.72
589.483	43.58
589.821	43.72
590.159	43.98
590.497	44.11
590.835	43.94
591.173	43.91
591.511	44.03
591.849	43.91
592.187	43.99
592.524	43.95
592.862	44.15
593.2	44.62
593.537	44.1
593.875	44.27
594.212	44.41
594.55	44.47
594.887	44.79
595.224	44.42
595.561	44.51
595.899	44.6
596.236	44.41
596.573	44.87
596.91	44.88
597.247	44.75
597.584	44.71
597.921	44.82
598.258	45.25
598.594	44.77
598.931	44.71
599.268	44.86
599.604	45.02
599.941	44.83
600.277	45.01
600.614	45.44
600.95	45.11
601.287	45.31
601.623	45.33
601.959	45.92
602.296	45.87
602.632	45.87
602.968	45.8
603.304	46.16
603.64	45.76
603.976	45.87
604.312	46.12
604.648	46.59
604.984	46.07
605.319	46.21
605.655	45.72
605.991	45.85
606.326	45.85
606.662	45.97
606.998	45.96
607.333	45.91
607.668	46.07
608.004	46.08
608.339	46.16
608.674	46.4
609.01	46.56
609.345	47.05
609.68	47.08
610.015	47.03
610.35	46.92
610.685	47.31
611.02	46.79
611.355	47.09
611.689	46.97
612.024	46.99
612.359	47.08
612.694	46.85
613.028	47.19
613.363	47.38
613.697	47.46
614.032	47.56
614.366	47.51
614.7	47.91
615.035	47.85
615.369	47.88
615.703	47.84
616.037	47.93
616.371	48.03
616.705	48.54
617.039	48.41
617.373	48.37
617.707	48.53
618.041	48.36
618.375	48.25
618.709	48.21
619.042	48.58
619.376	49.44
619.71	48.49
620.043	48.77
620.377	48.59
620.71	48.98
621.043	49
621.377	48.9
621.71	48.64
622.043	49.68
622.376	49.1
622.709	48.88
623.043	49.18
623.376	48.86
623.709	49.49
624.041	49.52
624.374	49.47
624.707	49.67
625.04	49.14
625.373	49.91
625.705	49.74
626.038	49.32
626.37	49.33
626.703	49.62
627.035	49.62
627.368	49.71
627.7	49.82
628.032	49.72
628.365	49.77
628.697	50.01
629.029	49.6
629.361	50.09
629.693	49.95
630.025	50.06
630.357	49.91
630.689	50.25
631.021	50.45
631.353	50.2
631.684	50.12
632.016	50.63
632.348	50.62
632.679	50.72
633.011	50.78
633.342	50.22
633.674	50.39
634.005	51.31
634.336	50.71
634.668	50.51
634.999	51.03
635.33	50.94
635.661	51.59
635.992	51.88
636.323	51.32
636.654	50.92
636.985	50.95
637.316	51.29
637.647	51.58
637.977	50.97
638.308	51.8
638.639	51.82
638.969	51.88
639.3	51.58
639.63	52.21
639.961	51.76
640.291	52.01
640.622	51.95
640.952	52.01
641.282	52.02
641.612	52.6
641.943	52.37
642.273	52.21
642.603	52.48
642.933	52.88
643.263	52.82
643.592	52.7
643.922	53.08
644.252	52.51
644.582	52.46
644.911	52.11
645.241	52.71
645.571	52.36
645.9	53
646.23	52.69
646.559	53.09
646.888	52.65
647.218	52.52
647.547	53.28
647.876	52.87
648.205	53.15
648.534	53.4
648.863	54.31
649.192	53.23
649.521	53.75
649.85	53.49
650.179	52.99
650.508	53.72
650.837	53.31
651.165	53.02
651.494	53.97
651.822	53.41
652.151	54.11
652.479	53.87
652.808	54.17
653.136	54.04
653.465	53.76
653.793	53.87
654.121	54.26
654.449	53.73
654.777	53.85
655.105	54.79
655.433	54.62
655.761	54.13
656.089	53.91
656.417	53.94
656.745	54.41
657.073	54.74
657.4	54.84
657.728	54.62
658.056	54.59
658.383	54.58
658.711	54.62
659.038	55.26
659.365	55.2
659.693	55.14
660.02	55.22
660.347	54.57
660.674	55.2
661.001	54.83
661.329	55.04
661.656	54.92
661.982	55.32
662.309	55.11
662.636	54.59
662.963	55.04
663.29	55.12
663.616	55.94
663.943	55.67
664.27	56.07
664.596	55.69
664.923	55.57
665.249	55.25
665.576	55.55
665.902	55.29
666.228	56.13
666.554	56.5
666.881	55.83
667.207	56.76
667.533	55.89
667.859	55.88
668.185	56.31
668.511	56.26
668.837	56.72
669.162	57.04
669.488	56.85
669.814	56.2
670.139	56.26
