Data from 0341_forehead_Reflection__0__274.txt Node

Date: Fri Oct 20 22:54:06 CDT 2023
User: ToomeyLab
Spectrometer: FLMS14357
Trigger mode: 0
Integration Time (sec): 1.000000E-2
Scans to average: 100
Electric dark correction enabled: true
Nonlinearity correction enabled: false
Boxcar width: 0
XAxis mode: Wavelengths
Number of Pixels in Spectrum: 2048
>>>>>Begin Spectral Data<<<<<
189.047	5.29
189.435	5.29
189.823	5.29
190.211	426.05
190.599	193.82
190.987	197.59
191.375	80.8
191.763	51.3
192.151	-54.53
192.538	4582.76
192.926	-11.86
193.314	49.53
193.702	86.47
194.089	158.71
194.477	76.55
194.864	-61.4
195.252	112.63
195.639	-1496.58
196.027	57.75
196.414	47.91
196.801	1.83
197.189	-40.69
197.576	123.87
197.963	921.41
198.351	83.11
198.738	37.47
199.125	20.03
199.512	60.47
199.899	36
200.286	-7.82
200.673	49.51
201.06	21.89
201.447	13.27
201.833	47.28
202.22	20.73
202.607	52.91
202.994	32.67
203.38	32.07
203.767	8.17
204.154	28.35
204.54	46.64
204.927	14.55
205.313	25.3
205.699	83.15
206.086	36.17
206.472	12.79
206.858	39.03
207.245	5.03
207.631	66.11
208.017	44.63
208.403	79.12
208.789	57.85
209.175	-26.38
209.561	19.51
209.947	-9.82
210.333	27.46
210.719	2.95
211.105	26.52
211.491	53.24
211.876	70.97
212.262	39.56
212.648	-4.8
213.034	-11.11
213.419	15.37
213.805	-24.56
214.19	-5.56
214.576	27.36
214.961	28.43
215.346	40.64
215.732	39.17
216.117	10.4
216.502	23.71
216.888	49.48
217.273	16.07
217.658	29.22
218.043	27.78
218.428	18.07
218.813	39.6
219.198	7.29
219.583	2.71
219.968	-18.5
220.353	53.54
220.738	29.08
221.122	11.72
221.507	25.92
221.892	17.31
222.276	13.69
222.661	28.13
223.046	-4.68
223.43	5.46
223.815	14.29
224.199	10.59
224.583	9.48
224.968	10.15
225.352	2.2
225.736	4.24
226.121	14.52
226.505	8.03
226.889	13.9
227.273	7.56
227.657	10.93
228.041	5.85
228.425	5.57
228.809	7.83
229.193	6.37
229.577	7.58
229.961	4.28
230.344	3.84
230.728	2.6
231.112	3.58
231.495	2.29
231.879	3.16
232.263	4.13
232.646	2.16
233.03	3.84
233.413	2.5
233.797	3.54
234.18	4.79
234.563	4.99
234.946	7.13
235.33	5.94
235.713	3.86
236.096	4.42
236.479	5
236.862	3.79
237.245	4.16
237.628	3.85
238.011	4.4
238.394	3.21
238.777	4.02
239.16	4.66
239.543	6.69
239.925	4.35
240.308	3.57
240.691	5.09
241.073	4.26
241.456	6.27
241.838	3.24
242.221	5.07
242.603	2.85
242.986	3.64
243.368	3.86
243.75	3.47
244.133	3.09
244.515	3.1
244.897	3.24
245.279	2.95
245.661	2.99
246.043	3.41
246.425	3.47
246.807	3.92
247.189	3.25
247.571	2.57
247.953	3.79
248.335	3.74
248.717	3.23
249.098	2.95
249.48	3.11
249.862	3.05
250.243	3.52
250.625	3.33
251.006	3.54
251.388	3.25
251.769	3.61
252.151	3.07
252.532	4.94
252.913	4.16
253.295	2.8
253.676	3.76
254.057	2.96
254.438	3.25
254.819	3.26
255.2	3.79
255.581	3.49
255.962	3.93
256.343	3.51
256.724	3.34
257.105	4.29
257.486	4.52
257.867	3.36
258.247	3.87
258.628	3.27
259.009	3.18
259.389	3.73
259.77	3.59
260.15	3.95
260.531	3.43
260.911	3.17
261.292	2.96
261.672	3.33
262.052	3.21
262.432	3.37
262.813	3.33
263.193	3.54
263.573	3.13
263.953	3.15
264.333	4.01
264.713	4.03
265.093	3.85
265.473	3.72
265.853	3.03
266.233	3.21
266.612	3.22
266.992	3.17
267.372	3.16
267.752	3.03
268.131	3.79
268.511	3.54
268.89	3.68
269.27	3.11
269.649	2.59
270.029	3.64
270.408	3.31
270.787	3.82
271.167	3.26
271.546	3.44
271.925	3.61
272.304	2.96
272.683	3.58
273.062	3.76
273.441	3.66
273.82	3.34
274.199	3.36
274.578	3.48
274.957	3.75
275.336	3.53
275.715	3.65
276.093	3.24
276.472	3.32
276.851	3.88
277.229	3.68
277.608	2.85
277.986	3.12
278.365	3.38
278.743	3.51
279.122	3.47
279.5	3.2
279.878	3.14
280.257	3.21
280.635	3.77
281.013	4.12
281.391	3.57
281.769	3.02
282.147	3
282.525	3.37
282.903	3.38
283.281	3.49
283.659	3.22
284.037	3.39
284.415	2.78
284.792	3.25
285.17	3.42
285.548	3.3
285.925	3.2
286.303	3.27
286.68	3.05
287.058	3.84
287.435	3.35
287.813	3.15
288.19	3.08
288.567	3.26
288.945	4
289.322	3.99
289.699	2.68
290.076	3.88
290.453	3.56
290.83	3.31
291.207	3.97
291.584	3.23
291.961	3.42
292.338	3.4
292.715	3.43
293.092	3.91
293.469	4.03
293.845	3.35
294.222	3.59
294.599	3.61
294.975	4.93
295.352	4.08
295.728	3.96
296.105	4.03
296.481	3.49
296.858	3.73
297.234	4.09
297.61	4.08
297.986	3.8
298.363	3.97
298.739	3.99
299.115	3.98
299.491	4.1
299.867	4.11
300.243	3.9
300.619	4.32
300.995	4.37
301.371	4.32
301.746	4.39
302.122	4.66
302.498	4.26
302.874	4.12
303.249	4.71
303.625	4.51
304	4.98
304.376	4.45
304.751	4.09
305.127	4.4
305.502	4.89
305.878	4.94
306.253	5.31
306.628	5.08
307.003	4.75
307.378	4.53
307.754	4.85
308.129	5.57
308.504	5.61
308.879	5.23
309.254	5.83
309.629	5.21
310.003	4.87
310.378	5.78
310.753	5.85
311.128	5.63
311.502	5.28
311.877	5.99
312.252	5.49
312.626	6.01
313.001	5.84
313.375	5.76
313.75	5.83
314.124	5.8
314.498	5.83
314.873	5.92
315.247	5.94
315.621	6.08
315.995	6.47
316.369	5.96
316.743	6.76
317.117	6.5
317.491	5.75
317.865	6.89
318.239	7.02
318.613	6.88
318.987	6.05
319.361	6.45
319.734	6.64
320.108	6.54
320.482	7.11
320.855	6.72
321.229	6.99
321.602	7.03
321.976	6.7
322.349	7.34
322.723	6.92
323.096	7.63
323.469	7.4
323.843	7.21
324.216	7.14
324.589	7.35
324.962	7.98
325.335	7.6
325.708	7.72
326.081	7.35
326.454	7.58
326.827	8.29
327.2	7.72
327.573	7.95
327.945	7.9
328.318	7.81
328.691	7.93
329.063	8.28
329.436	7.98
329.809	7.82
330.181	8.45
330.553	8.15
330.926	8.26
331.298	7.96
331.671	8.13
332.043	8.22
332.415	8.77
332.787	8.44
333.159	8.22
333.532	8.63
333.904	9.06
334.276	8.14
334.648	8.72
335.02	9.2
335.391	8.5
335.763	9.3
336.135	9.31
336.507	8.83
336.879	9.15
337.25	9.22
337.622	9.53
337.993	9.39
338.365	8.76
338.736	8.74
339.108	9.16
339.479	9.28
339.851	9.09
340.222	8.8
340.593	9.17
340.964	9.33
341.336	10.01
341.707	9.64
342.078	9.72
342.449	9.36
342.82	9.4
343.191	9.53
343.562	9.6
343.933	9.75
344.303	9.54
344.674	9.69
345.045	9.96
345.416	10.14
345.786	9.67
346.157	9.93
346.527	9.88
346.898	9.88
347.268	10
347.639	10.13
348.009	9.52
348.38	9.88
348.75	9.78
349.12	10.55
349.49	10.19
349.861	10.82
350.231	10.01
350.601	10.2
350.971	10.84
351.341	10.29
351.711	10.83
352.081	11.02
352.45	10.56
352.82	10.94
353.19	10.75
353.56	10.71
353.929	10.8
354.299	10.5
354.669	10.79
355.038	10.98
355.408	11.09
355.777	10.87
356.147	11.14
356.516	10.79
356.885	11
357.254	11.42
357.624	10.99
357.993	10.66
358.362	11.09
358.731	10.93
359.1	11.15
359.469	11.17
359.838	11.35
360.207	11.28
360.576	11.53
360.945	11.02
361.314	11.6
361.682	11.82
362.051	11.52
362.42	11.39
362.788	11.73
363.157	11.63
363.525	11.47
363.894	11.68
364.262	11.8
364.631	11.77
364.999	11.59
365.367	11.97
365.735	12.03
366.104	11.97
366.472	12.01
366.84	12.03
367.208	11.9
367.576	12.24
367.944	12.33
368.312	12.33
368.68	12.58
369.048	12.41
369.416	12.68
369.783	12.79
370.151	12.76
370.519	12.18
370.886	13.05
371.254	12.94
371.621	12.99
371.989	12.68
372.356	12.73
372.724	12.68
373.091	13.19
373.458	12.53
373.826	12.99
374.193	12.96
374.56	13.05
374.927	12.97
375.294	13.13
375.661	13.27
376.028	13.19
376.395	13.44
376.762	13.4
377.129	13.55
377.496	13.49
377.863	13.82
378.229	13.54
378.596	13.51
378.963	13.87
379.329	13.59
379.696	13.52
380.062	13.78
380.429	13.53
380.795	13.76
381.161	13.93
381.528	14.14
381.894	14.11
382.26	14.17
382.626	14.12
382.993	14.38
383.359	13.93
383.725	14.17
384.091	14.21
384.457	14.44
384.823	13.98
385.188	14.32
385.554	14.32
385.92	14.58
386.286	14.68
386.651	14.4
387.017	14.74
387.383	14.4
387.748	14.42
388.114	14.59
388.479	14.54
388.845	15.17
389.21	14.73
389.575	14.49
389.94	14.56
390.306	14.85
390.671	14.89
391.036	14.96
391.401	15.25
391.766	14.99
392.131	15.14
392.496	15.42
392.861	15.43
393.226	15.35
393.591	15.12
393.956	15.31
394.32	15.57
394.685	15.2
395.05	15.66
395.414	15.87
395.779	15.14
396.143	15.51
396.508	15.81
396.872	15.91
397.236	15.58
397.601	15.68
397.965	15.6
398.329	15.73
398.694	15.87
399.058	15.75
399.422	15.99
399.786	16.01
400.15	15.74
400.514	16.1
400.878	15.91
401.242	16.32
401.605	16.2
401.969	15.99
402.333	15.98
402.697	16.34
403.06	16.31
403.424	16.59
403.787	16.74
404.151	16.48
404.514	16.25
404.878	16.64
405.241	16.57
405.604	16.45
405.968	16.72
406.331	16.37
406.694	16.54
407.057	16.55
407.42	16.85
407.783	16.96
408.146	16.8
408.509	16.8
408.872	17.11
409.235	17
409.598	17.01
409.961	17.3
410.323	17.08
410.686	16.97
411.049	17.14
411.411	17.04
411.774	17.31
412.136	17.37
412.499	17.35
412.861	17.55
413.223	17.43
413.586	17.56
413.948	17.46
414.31	17.75
414.672	17.25
415.035	17.83
415.397	18.06
415.759	17.68
416.121	17.71
416.483	17.71
416.845	17.81
417.206	17.91
417.568	18.05
417.93	17.75
418.292	17.63
418.653	17.66
419.015	17.88
419.377	18.01
419.738	17.9
420.1	17.89
420.461	17.94
420.822	18.03
421.184	17.98
421.545	17.93
421.906	18.04
422.267	17.9
422.629	18.04
422.99	17.83
423.351	18.01
423.712	18.08
424.073	18.28
424.434	18.29
424.795	18.29
425.155	18.41
425.516	18.41
425.877	18.5
426.238	18.43
426.598	18.47
426.959	18.59
427.32	18.53
427.68	18.62
428.041	18.77
428.401	18.99
428.761	19
429.122	18.98
429.482	19.24
429.842	19.38
430.202	19.42
430.563	19.34
430.923	19.78
431.283	19.43
431.643	19.74
432.003	19.74
432.363	19.63
432.722	19.88
433.082	19.8
433.442	19.52
433.802	20.01
434.161	19.88
434.521	19.85
434.881	19.97
435.24	19.99
435.6	19.79
435.959	19.89
436.319	20.1
436.678	20.01
437.037	20.15
437.396	20.26
437.756	20.3
438.115	20.32
438.474	20.31
438.833	20.64
439.192	20.37
439.551	20.51
439.91	20.75
440.269	20.79
440.628	20.92
440.987	20.45
441.345	20.61
441.704	20.7
442.063	20.78
442.421	20.63
442.78	20.78
443.138	20.85
443.497	20.83
443.855	21.09
444.214	21.02
444.572	21.07
444.93	21.27
445.288	21.24
445.647	21.45
446.005	21.3
446.363	21.37
446.721	21.38
447.079	21.4
447.437	21.41
447.795	21.3
448.153	21.24
448.51	21.27
448.868	21.26
449.226	21.29
449.584	21.5
449.941	21.54
450.299	21.59
450.656	21.73
451.014	21.85
451.371	22.02
451.729	22.15
452.086	22.02
452.443	22.33
452.801	22.23
453.158	22.56
453.515	22.43
453.872	22.37
454.229	22.57
454.586	22.47
454.943	22.44
455.3	22.57
455.657	22.67
456.014	22.7
456.371	22.76
456.727	22.94
457.084	22.88
457.441	23.05
457.797	22.97
458.154	22.95
458.51	23.1
458.867	23.23
459.223	23.08
459.58	23.27
459.936	23.38
460.292	23.2
460.648	23.16
461.005	23.01
461.361	23.21
461.717	22.85
462.073	23.16
462.429	23.09
462.785	23.14
463.141	23.47
463.496	23.57
463.852	23.68
464.208	23.79
464.564	24
464.919	24
465.275	24.33
465.631	24.18
465.986	24.53
466.342	24.2
466.697	24.06
467.052	24.11
467.408	24.23
467.763	24.37
468.118	24.61
468.473	24.58
468.829	24.57
469.184	24.52
469.539	24.63
469.894	24.58
470.249	24.96
470.603	24.67
470.958	24.79
471.313	24.9
471.668	24.93
472.023	24.95
472.377	25.09
472.732	24.93
473.086	25.18
473.441	25.11
473.795	25.31
474.15	25.14
474.504	25.4
474.859	25.34
475.213	25.49
475.567	25.4
475.921	25.38
476.275	25.52
476.63	25.71
476.984	25.71
477.338	25.62
477.692	25.73
478.045	25.64
478.399	25.54
478.753	25.85
479.107	25.79
479.461	25.8
479.814	26.03
480.168	25.77
480.521	25.87
480.875	25.91
481.228	26.03
481.582	26.1
481.935	26.09
482.289	26.17
482.642	26.23
482.995	26
483.348	26.26
483.701	26.16
484.055	26.07
484.408	26.03
484.761	25.93
485.114	25.74
485.466	25.41
485.819	25.27
486.172	25.25
486.525	25.41
486.878	25.56
487.23	25.77
487.583	25.89
487.936	25.96
488.288	26.15
488.641	26.21
488.993	25.98
489.345	25.88
489.698	25.87
490.05	25.88
490.402	26.02
490.754	26.21
491.107	26.38
491.459	26.55
491.811	26.76
492.163	26.85
492.515	26.96
492.866	27.18
493.218	26.79
493.57	26.46
493.922	26.5
494.274	26.65
494.625	26.77
494.977	27.04
495.328	27.31
495.68	27.61
496.031	27.78
496.383	27.92
496.734	28.09
497.086	28
497.437	28.14
497.788	28.03
498.139	28.31
498.49	28.15
498.842	28.07
499.193	28.2
499.544	28.03
499.894	28.28
500.245	28.24
500.596	28.47
500.947	28.57
501.298	28.45
501.648	28.52
501.999	28.67
502.35	28.86
502.7	28.9
503.051	28.95
503.401	28.99
503.752	29.15
504.102	29.09
504.452	29.14
504.803	29.26
505.153	29.36
505.503	29.4
505.853	29.22
506.203	29.4
506.553	29.43
506.903	29.49
507.253	29.58
507.603	29.62
507.953	29.6
508.303	29.67
508.652	29.8
509.002	29.92
509.352	29.95
509.701	29.73
510.051	29.7
510.4	29.75
510.75	29.76
511.099	29.69
511.449	29.81
511.798	29.94
512.147	29.95
512.496	29.91
512.846	30.15
513.195	30.06
513.544	30.17
513.893	30.15
514.242	30.28
514.591	30.19
514.939	30.32
515.288	30.34
515.637	30.43
515.986	30.67
516.334	30.62
516.683	30.58
517.032	30.63
517.38	30.67
517.729	30.84
518.077	30.92
518.426	30.94
518.774	30.74
519.122	30.97
519.47	30.89
519.819	30.79
520.167	30.68
520.515	30.51
520.863	30.58
521.211	30.65
521.559	30.77
521.907	30.99
522.255	31.13
522.602	31.3
522.95	31.05
523.298	31.53
523.645	31.51
523.993	31.74
524.341	31.83
524.688	31.86
525.036	31.95
525.383	31.81
525.73	31.93
526.078	31.89
526.425	32.07
526.772	31.84
527.119	31.76
527.466	31.64
527.814	31.49
528.161	31.63
528.508	31.75
528.854	31.72
529.201	31.79
529.548	31.82
529.895	31.73
530.242	31.44
530.588	31.12
530.935	31.21
531.282	31.41
531.628	31.49
531.975	31.6
532.321	31.78
532.667	31.95
533.014	32.27
533.36	32.33
533.706	32.48
534.052	32.68
534.399	32.52
534.745	32.46
535.091	32.2
535.437	32.09
535.783	32.21
536.129	32.48
536.474	32.67
536.82	32.78
537.166	33.02
537.512	33.1
537.857	33.34
538.203	33.2
538.549	33.16
538.894	33.14
539.239	33.08
539.585	33.21
539.93	33.52
540.276	33.71
540.621	33.81
540.966	34.04
541.311	34.16
541.656	34.13
542.001	34.11
542.346	33.98
542.691	33.64
543.036	33.52
543.381	33.27
543.726	33.18
544.071	33.4
544.415	33.52
544.76	33.59
545.105	33.84
545.449	33.93
545.794	34.04
546.138	34.15
546.483	34.4
546.827	34.49
547.171	34.75
547.516	34.72
547.86	34.77
548.204	34.57
548.548	34.69
548.892	34.79
549.236	34.78
549.58	34.84
549.924	35.21
550.268	35.18
550.612	35.04
550.956	35.49
551.3	35.62
551.643	35.88
551.987	35.96
552.33	35.77
552.674	35.67
553.017	36
553.361	35.99
553.704	36.17
554.048	36
554.391	36.05
554.734	36.16
555.077	35.92
555.42	35.98
555.764	36.04
556.107	36.34
556.45	36.48
556.793	36.13
557.135	36.54
557.478	36.66
557.821	36.87
558.164	36.79
558.507	36.76
558.849	37.01
559.192	37.01
559.534	37.14
559.877	36.81
560.219	37.01
560.562	37.14
560.904	37.02
561.246	37.39
561.589	37.24
561.931	37.23
562.273	37.14
562.615	37.16
562.957	37.59
563.299	37.45
563.641	37.5
563.983	37.56
564.325	37.31
564.667	37.49
565.008	37.46
565.35	37.74
565.692	37.8
566.033	38.07
566.375	37.91
566.716	38.06
567.058	37.94
567.399	37.98
567.741	37.97
568.082	37.97
568.423	37.88
568.764	37.82
569.105	37.97
569.447	38.07
569.788	38.21
570.129	38.24
570.47	38.38
570.811	38.45
571.151	38.4
571.492	38.61
571.833	38.75
572.174	38.64
572.514	38.75
572.855	38.62
573.195	38.88
573.536	38.74
573.876	38.59
574.217	38.66
574.557	38.66
574.898	38.82
575.238	39
575.578	38.93
575.918	39.1
576.258	39.15
576.598	39.34
576.938	39.32
577.278	39
577.618	39.3
577.958	39.16
578.298	39.38
578.638	39.72
578.977	39.56
579.317	39.66
579.657	39.73
579.996	40.1
580.336	39.84
580.675	40.28
581.014	40.38
581.354	40.08
581.693	40.53
582.032	40.33
582.372	40.2
582.711	40.57
583.05	40.67
583.389	40.76
583.728	40.72
584.067	40.72
584.406	40.61
584.745	40.86
585.083	40.74
585.422	40.89
585.761	41.1
586.1	41.01
586.438	40.89
586.777	41.23
587.115	41.04
587.454	41.24
587.792	41.04
588.13	41.44
588.469	41.53
588.807	41.46
589.145	41.39
589.483	41.57
589.821	41.37
590.159	41.77
590.497	41.71
590.835	41.24
591.173	41.6
591.511	41.72
591.849	41.73
592.187	41.63
592.524	41.63
592.862	41.63
593.2	42.05
593.537	41.6
593.875	42.13
594.212	42.22
594.55	42.24
594.887	42.29
595.224	42.21
595.561	42.27
595.899	42.16
596.236	42.2
596.573	42.31
596.91	42.48
597.247	42.4
597.584	42.29
597.921	42.44
598.258	42.95
598.594	42.56
598.931	42.37
599.268	42.42
599.604	42.49
599.941	42.27
600.277	42.46
600.614	42.86
600.95	42.81
601.287	42.89
601.623	43.14
601.959	43
602.296	43.45
602.632	43.37
602.968	43.56
603.304	43.69
603.64	43.25
603.976	43.45
604.312	43.65
604.648	43.64
604.984	43.67
605.319	43.53
605.655	43.1
605.991	43.55
606.326	43.47
606.662	43.24
606.998	43.27
607.333	43.25
607.668	43.49
608.004	43.78
608.339	43.36
608.674	43.97
609.01	44.03
609.345	44.21
609.68	44.44
610.015	44.37
610.35	44.02
610.685	44.47
611.02	44.38
611.355	44.19
611.689	44.19
612.024	44.39
612.359	44.26
612.694	44.38
613.028	44.45
613.363	44.57
613.697	44.88
614.032	44.65
614.366	44.85
614.7	45.12
615.035	45.37
615.369	45.43
615.703	45.17
616.037	45.38
616.371	45.22
616.705	45.48
617.039	45.01
617.373	45.76
617.707	45.74
618.041	45.56
618.375	45.56
618.709	46
619.042	45.98
619.376	46.52
619.71	45.82
620.043	46.01
620.377	45.67
620.71	45.89
621.043	46.13
621.377	45.71
621.71	46.12
622.043	46.14
622.376	45.93
622.709	46.37
623.043	46.41
623.376	46.62
623.709	46.76
624.041	46.77
624.374	46.27
624.707	46.42
625.04	46.55
625.373	46.82
625.705	46.82
626.038	46.9
626.37	46.68
626.703	46.45
627.035	46.75
627.368	47.09
627.7	47.13
628.032	46.82
628.365	46.99
628.697	47.29
629.029	46.75
629.361	47.07
629.693	47.04
630.025	47.26
630.357	46.77
630.689	46.89
631.021	47.28
631.353	47.39
631.684	46.97
632.016	47.55
632.348	47.42
632.679	47.65
633.011	47.4
633.342	47.62
633.674	47.28
634.005	48.22
634.336	48.01
634.668	47.51
634.999	48.3
635.33	47.29
635.661	47.98
635.992	48.34
636.323	48.29
636.654	47.98
636.985	47.91
637.316	47.81
637.647	48.16
637.977	47.43
638.308	48.4
638.639	48.37
638.969	48.43
639.3	48.49
639.63	48.64
639.961	48.32
640.291	48.57
640.622	47.88
640.952	48.58
641.282	48.81
641.612	48.73
641.943	49.1
642.273	48.98
642.603	48.91
642.933	48.9
643.263	49.31
643.592	48.99
643.922	49.65
644.252	48.97
644.582	49.23
644.911	49.09
645.241	49.25
645.571	49.05
645.9	49.28
646.23	49.06
646.559	49.74
646.888	49.94
647.218	49.7
647.547	49.34
647.876	49.87
648.205	49.42
648.534	49.53
648.863	50.09
649.192	49.92
649.521	49.96
649.85	49.91
650.179	50.39
650.508	50.14
650.837	50.25
651.165	49.55
651.494	49.59
651.822	50.49
652.151	51.2
652.479	49.81
652.808	50.38
653.136	50.16
653.465	50.68
653.793	50.38
654.121	50.49
654.449	49.76
654.777	50.97
655.105	50.49
655.433	50.57
655.761	49.88
656.089	50.9
656.417	51.04
656.745	51.05
657.073	51.21
657.4	50.96
657.728	50.49
658.056	51.36
658.383	50.88
658.711	51.05
659.038	51.54
659.365	51.36
659.693	51.42
660.02	51.12
660.347	51.41
660.674	51.76
661.001	50.76
661.329	51.32
661.656	51.65
661.982	51.44
662.309	51.5
662.636	50.89
662.963	51.48
663.29	51.42
663.616	51.58
663.943	52.15
664.27	52.16
664.596	51.66
664.923	51.83
665.249	51.96
665.576	52.57
665.902	51.47
666.228	52.12
666.554	52.47
666.881	51.6
667.207	52.59
667.533	51.98
667.859	52.04
668.185	52.84
668.511	52.73
668.837	52.61
669.162	52.63
669.488	53.46
669.814	52.78
670.139	52.23
670.465	52.63
670.791	52.71
671.116	52.76
671.442	53.23
