Data from 0341_chest_Reflection__4__265.txt Node

Date: Fri Oct 20 22:46:12 CDT 2023
User: ToomeyLab
Spectrometer: FLMS14357
Trigger mode: 0
Integration Time (sec): 1.000000E-2
Scans to average: 100
Electric dark correction enabled: true
Nonlinearity correction enabled: false
Boxcar width: 0
XAxis mode: Wavelengths
Number of Pixels in Spectrum: 2048
>>>>>Begin Spectral Data<<<<<
189.047	19.44
189.435	19.44
189.823	19.44
190.211	1203.36
190.599	22.35
190.987	265.38
191.375	-95.69
191.763	107.97
192.151	-204.18
192.538	-55.17
192.926	32.8
193.314	75.08
193.702	17.94
194.089	67.29
194.477	-200.36
194.864	-322.81
195.252	131.13
195.639	-314.53
196.027	5.33
196.414	89.16
196.801	24.27
197.189	-78.36
197.576	44.35
197.963	653.52
198.351	68.76
198.738	26.07
199.125	33.26
199.512	13.28
199.899	24.2
200.286	-131.79
200.673	15.48
201.06	41.68
201.447	21.39
201.833	35.89
202.22	26.05
202.607	82.16
202.994	7.5
203.38	18.81
203.767	-4.3
204.154	56.45
204.54	52.63
204.927	20.21
205.313	49.2
205.699	83.14
206.086	0
206.472	17.18
206.858	58.86
207.245	14.82
207.631	16.48
208.017	15.68
208.403	48.64
208.789	44.69
209.175	-14.49
209.561	27.77
209.947	-2.96
210.333	-6.52
210.719	-38.82
211.105	46.79
211.491	20.89
211.876	36.48
212.262	49.85
212.648	9.94
213.034	-12.24
213.419	-16.34
213.805	15.23
214.19	10.51
214.576	2.06
214.961	-3.91
215.346	32.76
215.732	20.23
216.117	-43.58
216.502	29.52
216.888	31.91
217.273	-12.97
217.658	3.87
218.043	23.38
218.428	17.29
218.813	-0.42
219.198	-9.35
219.583	-23.81
219.968	-12.66
220.353	37.37
220.738	16.09
221.122	-14.45
221.507	4.17
221.892	-0.06
222.276	8.93
222.661	29.54
223.046	2.87
223.43	14.13
223.815	19.4
224.199	20.97
224.583	-2.9
224.968	-3.69
225.352	-0.07
225.736	3.1
226.121	11.87
226.505	8.91
226.889	15.65
227.273	2.19
227.657	13.63
228.041	7.41
228.425	4.63
228.809	7.68
229.193	6.19
229.577	6.36
229.961	3.51
230.344	5.23
230.728	4.3
231.112	5.33
231.495	4.74
231.879	4.95
232.263	5.92
232.646	3.94
233.03	4.34
233.413	4.37
233.797	4.82
234.18	5.19
234.563	7.13
234.946	6.13
235.33	5.98
235.713	5.62
236.096	7.53
236.479	5.84
236.862	4.84
237.245	6.01
237.628	4.07
238.011	6.93
238.394	3.14
238.777	6.18
239.16	6.16
239.543	5.07
239.925	6.53
240.308	6.78
240.691	5.29
241.073	7.81
241.456	5.73
241.838	5.18
242.221	6.31
242.603	5.77
242.986	5.45
243.368	5.07
243.75	5.82
244.133	4.77
244.515	4.91
244.897	5.11
245.279	5.34
245.661	4.87
246.043	5.03
246.425	5.25
246.807	5.27
247.189	5.91
247.571	5.39
247.953	4.75
248.335	4.97
248.717	4.97
249.098	4.77
249.48	4.82
249.862	5.1
250.243	5.21
250.625	5.48
251.006	5.18
251.388	5.29
251.769	6.18
252.151	5.1
252.532	5.7
252.913	5.28
253.295	4.23
253.676	5.59
254.057	5.3
254.438	4.85
254.819	5.29
255.2	5.07
255.581	4.51
255.962	4.03
256.343	5.18
256.724	3.46
257.105	4.4
257.486	5.01
257.867	6.05
258.247	5.54
258.628	6.12
259.009	4.64
259.389	4.59
259.77	4.87
260.15	4.68
260.531	5.7
260.911	4.87
261.292	4.59
261.672	4.87
262.052	4.8
262.432	4.75
262.813	4.84
263.193	5.12
263.573	4.67
263.953	4.5
264.333	5.18
264.713	5.24
265.093	5.5
265.473	5.37
265.853	4.4
266.233	5.3
266.612	5.67
266.992	4.63
267.372	4.05
267.752	4.14
268.131	4.63
268.511	4.83
268.89	4.58
269.27	4.35
269.649	4.17
270.029	4.5
270.408	5.12
270.787	4.97
271.167	4.53
271.546	4.74
271.925	4.73
272.304	4.88
272.683	5.05
273.062	4.93
273.441	4.65
273.82	4.76
274.199	4.83
274.578	5.12
274.957	4.69
275.336	4.94
275.715	4.92
276.093	4.5
276.472	4.92
276.851	4.65
277.229	4.54
277.608	4.32
277.986	4.42
278.365	5.25
278.743	4.77
279.122	4.67
279.5	4.56
279.878	4.06
280.257	4.77
280.635	4.93
281.013	4.8
281.391	4.89
281.769	4.57
282.147	4.74
282.525	4.88
282.903	4.71
283.281	4.56
283.659	4.9
284.037	4.84
284.415	4.21
284.792	4.3
285.17	4.49
285.548	4.66
285.925	4.64
286.303	4.11
286.68	4.74
287.058	5.03
287.435	4.56
287.813	4.17
288.19	4.5
288.567	4.69
288.945	4.75
289.322	4.83
289.699	4.01
290.076	5.17
290.453	5.06
290.83	4.93
291.207	5.02
291.584	3.81
291.961	4.05
292.338	4.18
292.715	4.7
293.092	4.81
293.469	4.8
293.845	4.45
294.222	4.61
294.599	4.4
294.975	4.99
295.352	4.87
295.728	5.06
296.105	4.77
296.481	4.78
296.858	5.19
297.234	5.13
297.61	4.77
297.986	4.95
298.363	5.28
298.739	4.91
299.115	4.82
299.491	4.67
299.867	4.97
300.243	5.06
300.619	5.11
300.995	5.04
301.371	5.41
301.746	5.15
302.122	5.16
302.498	5.02
302.874	4.92
303.249	5.39
303.625	5.02
304	5.47
304.376	4.92
304.751	4.8
305.127	5.17
305.502	5.81
305.878	5.21
306.253	5.49
306.628	5.22
307.003	5.18
307.378	5.14
307.754	5.44
308.129	5.26
308.504	5.7
308.879	5.57
309.254	5.53
309.629	4.82
310.003	4.35
310.378	5.54
310.753	5.59
311.128	5.62
311.502	5.14
311.877	5.46
312.252	5.27
312.626	5.57
313.001	5.37
313.375	5.41
313.75	5.24
314.124	4.95
314.498	4.98
314.873	5.21
315.247	5.64
315.621	5.83
315.995	5.5
316.369	5.24
316.743	5.36
317.117	5.32
317.491	4.85
317.865	5.97
318.239	5.87
318.613	5.61
318.987	5.34
319.361	4.98
319.734	4.7
320.108	5.17
320.482	5.97
320.855	5.94
321.229	6.02
321.602	5.74
321.976	5.37
322.349	5.99
322.723	5.55
323.096	5.9
323.469	5.66
323.843	5.31
324.216	5.7
324.589	5.34
324.962	6.11
325.335	6.03
325.708	5.66
326.081	5.94
326.454	5.42
326.827	6.06
327.2	6.07
327.573	6.18
327.945	5.84
328.318	5.75
328.691	5.73
329.063	6.25
329.436	5.04
329.809	5.88
330.181	6.03
330.553	5.86
330.926	5.64
331.298	5.4
331.671	5.41
332.043	5.4
332.415	5.64
332.787	6
333.159	5.3
333.532	6.31
333.904	5.79
334.276	5.66
334.648	6.11
335.02	6.13
335.391	5.92
335.763	5.95
336.135	5.59
336.507	6.15
336.879	5.46
337.25	6.06
337.622	6.23
337.993	6.16
338.365	5.67
338.736	5.77
339.108	6.05
339.479	5.61
339.851	5.68
340.222	5.64
340.593	5.18
340.964	5.59
341.336	6.43
341.707	6.23
342.078	5.59
342.449	5.13
342.82	5.67
343.191	5.53
343.562	5.94
343.933	5.3
344.303	5.59
344.674	6.13
345.045	6.08
345.416	6.04
345.786	5.71
346.157	5.58
346.527	5.84
346.898	5.91
347.268	5.74
347.639	6.02
348.009	5.49
348.38	5.98
348.75	5.97
349.12	6
349.49	5.7
349.861	6.15
350.231	5.69
350.601	5.76
350.971	6.09
351.341	5.77
351.711	6.29
352.081	5.8
352.45	5.84
352.82	6.24
353.19	6.13
353.56	6.04
353.929	5.73
354.299	5.36
354.669	5.86
355.038	5.96
355.408	5.94
355.777	6.09
356.147	5.97
356.516	5.89
356.885	5.99
357.254	6.28
357.624	5.92
357.993	6
358.362	6.04
358.731	5.88
359.1	5.54
359.469	5.71
359.838	5.67
360.207	5.98
360.576	6.09
360.945	5.49
361.314	5.95
361.682	6.1
362.051	5.65
362.42	5.79
362.788	6.2
363.157	6.08
363.525	5.74
363.894	5.64
364.262	5.53
364.631	6.02
364.999	6.11
365.367	5.99
365.735	5.65
366.104	5.51
366.472	5.87
366.84	5.96
367.208	5.88
367.576	6.02
367.944	5.56
368.312	5.6
368.68	6.13
369.048	6.15
369.416	5.98
369.783	5.85
370.151	5.87
370.519	5.98
370.886	6.12
371.254	6.36
371.621	6.09
371.989	5.73
372.356	6.18
372.724	6.25
373.091	6.22
373.458	5.64
373.826	6.01
374.193	5.8
374.56	6.14
374.927	5.95
375.294	6.18
375.661	6.11
376.028	6.37
376.395	6.27
376.762	6.08
377.129	5.87
377.496	6.01
377.863	6.18
378.229	6.27
378.596	6.25
378.963	6.19
379.329	5.97
379.696	6.26
380.062	5.88
380.429	6.09
380.795	5.85
381.161	6.08
381.528	6.17
381.894	5.96
382.26	6.12
382.626	6.34
382.993	5.95
383.359	5.95
383.725	6.05
384.091	6.13
384.457	6.19
384.823	6.06
385.188	6.25
385.554	6.08
385.92	6.16
386.286	6.42
386.651	5.93
387.017	6.4
387.383	6.02
387.748	5.78
388.114	5.95
388.479	6.16
388.845	6.22
389.21	5.98
389.575	5.9
389.94	6.18
390.306	5.95
390.671	6.38
391.036	6.3
391.401	6.2
391.766	6.3
392.131	5.83
392.496	6.25
392.861	6.26
393.226	6.19
393.591	5.99
393.956	6.13
394.32	6.27
394.685	5.99
395.05	6.41
395.414	6.46
395.779	5.95
396.143	6.21
396.508	6.08
396.872	6.35
397.236	6.07
397.601	6.02
397.965	5.88
398.329	6.14
398.694	6.41
399.058	6.01
399.422	6.26
399.786	6.1
400.15	6.06
400.514	6.37
400.878	6.29
401.242	6.17
401.605	6.33
401.969	5.89
402.333	6.01
402.697	6.29
403.06	6.32
403.424	6.32
403.787	6.34
404.151	6.13
404.514	6.18
404.878	6.44
405.241	6.15
405.604	6.25
405.968	6.46
406.331	6.06
406.694	6.25
407.057	6.11
407.42	6.47
407.783	6.34
408.146	6.17
408.509	6.15
408.872	6.47
409.235	6.23
409.598	6.37
409.961	6.17
410.323	6.28
410.686	6.08
411.049	6.2
411.411	6.13
411.774	6.48
412.136	6.21
412.499	6.33
412.861	6.36
413.223	6.3
413.586	6.13
413.948	6.47
414.31	6.49
414.672	6.07
415.035	6.11
415.397	6.22
415.759	6.38
416.121	6.45
416.483	6.5
416.845	6.2
417.206	6.34
417.568	6.28
417.93	6.5
418.292	6.21
418.653	6.52
419.015	6.23
419.377	6.27
419.738	6.29
420.1	6.16
420.461	6.23
420.822	6.13
421.184	6.25
421.545	6.18
421.906	6.19
422.267	6.17
422.629	6.15
422.99	6.08
423.351	6.12
423.712	6.09
424.073	6.23
424.434	5.99
424.795	6.09
425.155	6.18
425.516	6.14
425.877	6.22
426.238	6.11
426.598	6.17
426.959	6.06
427.32	6.15
427.68	6.25
428.041	6.18
428.401	6.25
428.761	6.3
429.122	6.2
429.482	6.28
429.842	6.4
430.202	6.44
430.563	6.28
430.923	6.43
431.283	6.39
431.643	6.36
432.003	6.59
432.363	6.31
432.722	6.44
433.082	6.52
433.442	6.24
433.802	6.66
434.161	6.3
434.521	6.36
434.881	6.48
435.24	6.23
435.6	6.46
435.959	6.3
436.319	6.41
436.678	6.44
437.037	6.25
437.396	6.43
437.756	6.51
438.115	6.2
438.474	6.51
438.833	6.41
439.192	6.39
439.551	6.36
439.91	6.54
440.269	6.49
440.628	6.61
440.987	6.45
441.345	6.44
441.704	6.53
442.063	6.31
442.421	6.4
442.78	6.38
443.138	6.55
443.497	6.47
443.855	6.46
444.214	6.43
444.572	6.4
444.93	6.57
445.288	6.46
445.647	6.52
446.005	6.33
446.363	6.44
446.721	6.43
447.079	6.54
447.437	6.53
447.795	6.4
448.153	6.37
448.51	6.35
448.868	6.39
449.226	6.35
449.584	6.39
449.941	6.45
450.299	6.5
450.656	6.46
451.014	6.47
451.371	6.43
451.729	6.39
452.086	6.51
452.443	6.63
452.801	6.53
453.158	6.55
453.515	6.73
453.872	6.54
454.229	6.58
454.586	6.56
454.943	6.6
455.3	6.46
455.657	6.74
456.014	6.54
456.371	6.53
456.727	6.66
457.084	6.88
457.441	6.66
457.797	6.66
458.154	6.55
458.51	6.53
458.867	6.65
459.223	6.59
459.58	6.62
459.936	6.62
460.292	6.59
460.648	6.35
461.005	6.51
461.361	6.58
461.717	6.43
462.073	6.62
462.429	6.53
462.785	6.57
463.141	6.63
463.496	6.63
463.852	6.73
464.208	6.88
464.564	6.66
464.919	6.62
465.275	6.83
465.631	6.66
465.986	6.85
466.342	6.75
466.697	6.7
467.052	6.57
467.408	6.77
467.763	6.81
468.118	6.87
468.473	6.66
468.829	6.79
469.184	6.66
469.539	6.7
469.894	6.86
470.249	6.68
470.603	6.72
470.958	6.76
471.313	6.97
471.668	6.97
472.023	6.88
472.377	6.81
472.732	6.73
473.086	6.88
473.441	6.79
473.795	6.98
474.15	6.93
474.504	6.68
474.859	6.71
475.213	6.9
475.567	6.76
475.921	6.66
476.275	6.75
476.63	6.98
476.984	6.88
477.338	6.77
477.692	6.67
478.045	6.94
478.399	6.96
478.753	6.97
479.107	6.83
479.461	6.83
479.814	7.01
480.168	6.83
480.521	6.91
480.875	6.9
481.228	6.98
481.582	6.99
481.935	6.92
482.289	6.92
482.642	6.94
482.995	6.83
483.348	6.89
483.701	6.99
484.055	6.84
484.408	6.78
484.761	6.59
485.114	6.62
485.466	6.63
485.819	6.46
486.172	6.45
486.525	6.48
486.878	6.5
487.23	6.61
487.583	6.66
487.936	6.72
488.288	6.75
488.641	6.74
488.993	6.68
489.345	6.68
489.698	6.69
490.05	6.58
490.402	6.59
490.754	6.7
491.107	6.73
491.459	6.8
491.811	6.81
492.163	6.87
492.515	6.82
492.866	6.85
493.218	6.75
493.57	6.63
493.922	6.67
494.274	6.67
494.625	6.78
494.977	6.77
495.328	6.97
495.68	7.05
496.031	6.93
496.383	7.14
496.734	6.98
497.086	7.05
497.437	7.15
497.788	6.99
498.139	7.2
498.49	7.11
498.842	6.98
499.193	7.22
499.544	7.14
499.894	7.03
500.245	7.04
500.596	7.17
500.947	7.14
501.298	7.25
501.648	7.09
501.999	7.16
502.35	7.15
502.7	7.33
503.051	7.2
503.401	7.27
503.752	7.28
504.102	7.27
504.452	7.3
504.803	7.18
505.153	7.32
505.503	7.21
505.853	7.33
506.203	7.19
506.553	7.22
506.903	7.26
507.253	7.37
507.603	7.27
507.953	7.37
508.303	7.37
508.652	7.45
509.002	7.13
509.352	7.28
509.701	7.34
510.051	7.22
510.4	7.22
510.75	7.28
511.099	7.37
511.449	7.37
511.798	7.32
512.147	7.22
512.496	7.35
512.846	7.28
513.195	7.32
513.544	7.34
513.893	7.3
514.242	7.29
514.591	7.39
514.939	7.39
515.288	7.35
515.637	7.37
515.986	7.53
516.334	7.39
516.683	7.4
517.032	7.37
517.38	7.37
517.729	7.65
518.077	7.57
518.426	7.45
518.774	7.44
519.122	7.56
519.47	7.51
519.819	7.51
520.167	7.48
520.515	7.38
520.863	7.48
521.211	7.46
521.559	7.45
521.907	7.59
522.255	7.48
522.602	7.57
522.95	7.5
523.298	7.55
523.645	7.6
523.993	7.64
524.341	7.67
524.688	7.69
525.036	7.76
525.383	7.6
525.73	7.8
526.078	7.61
526.425	7.79
526.772	7.66
527.119	7.72
527.466	7.55
527.814	7.63
528.161	7.58
528.508	7.61
528.854	7.7
529.201	7.68
529.548	7.6
529.895	7.7
530.242	7.55
530.588	7.43
530.935	7.42
531.282	7.5
531.628	7.52
531.975	7.53
532.321	7.63
532.667	7.65
533.014	7.77
533.36	7.87
533.706	7.9
534.052	7.83
534.399	7.84
534.745	7.72
535.091	7.81
535.437	7.77
535.783	7.82
536.129	7.81
536.474	7.89
536.82	7.92
537.166	8
537.512	8.13
537.857	8.01
538.203	8.04
538.549	8.04
538.894	7.99
539.239	8
539.585	8.03
539.93	8.17
540.276	8.23
540.621	8.17
540.966	8.11
541.311	8.32
541.656	8.31
542.001	8.42
542.346	8.31
542.691	8.16
543.036	8.11
543.381	8.06
543.726	8
544.071	8.1
544.415	8.09
544.76	8.21
545.105	8.32
545.449	8.21
545.794	8.37
546.138	8.38
546.483	8.36
546.827	8.51
547.171	8.48
547.516	8.53
547.86	8.63
548.204	8.51
548.548	8.47
548.892	8.6
549.236	8.54
549.58	8.41
549.924	8.58
550.268	8.64
550.612	8.61
550.956	8.88
551.3	8.66
551.643	8.61
551.987	8.86
552.33	8.68
552.674	8.79
553.017	8.81
553.361	8.96
553.704	8.95
554.048	8.84
554.391	9
554.734	9.02
555.077	8.9
555.42	8.83
555.764	8.84
556.107	9.04
556.45	9.01
556.793	8.85
557.135	8.98
557.478	9.14
557.821	9.24
558.164	9.32
558.507	9.21
558.849	9.39
559.192	9.28
559.534	9.37
559.877	9.2
560.219	9.26
560.562	9.36
560.904	9.09
561.246	9.34
561.589	9.27
561.931	9.39
562.273	9.54
562.615	9.46
562.957	9.42
563.299	9.58
563.641	9.45
563.983	9.47
564.325	9.45
564.667	9.54
565.008	9.5
565.35	9.59
565.692	9.46
566.033	9.82
566.375	9.79
566.716	9.68
567.058	9.58
567.399	9.74
567.741	9.7
568.082	9.68
568.423	9.89
568.764	9.74
569.105	9.67
569.447	9.63
569.788	9.68
570.129	9.74
570.47	9.94
570.811	10.08
571.151	9.84
571.492	10.03
571.833	10.04
572.174	10.01
572.514	9.94
572.855	9.99
573.195	10.2
573.536	10.09
573.876	10.33
574.217	10.17
574.557	9.99
574.898	10.08
575.238	10.06
575.578	10.19
575.918	10.15
576.258	10.29
576.598	10.56
576.938	10.38
577.278	10.36
577.618	10.06
577.958	10.46
578.298	10.18
578.638	10.4
578.977	10.47
579.317	10.46
579.657	10.36
579.996	10.68
580.336	10.85
580.675	10.62
581.014	10.57
581.354	10.87
581.693	10.66
582.032	10.78
582.372	10.83
582.711	11.03
583.05	10.96
583.389	10.98
583.728	10.96
584.067	11
584.406	10.85
584.745	11.05
585.083	11.06
585.422	10.9
585.761	11
586.1	11.08
586.438	10.75
586.777	10.99
587.115	11.49
587.454	11.24
587.792	11.14
588.13	11.28
588.469	11.27
588.807	11.06
589.145	11.45
589.483	11.13
589.821	11.19
590.159	11.55
590.497	11.47
590.835	11.42
591.173	11.43
591.511	11.66
591.849	11.57
592.187	11.63
592.524	11.3
592.862	11.35
593.2	11.8
593.537	11.71
593.875	11.72
594.212	11.86
594.55	11.86
594.887	12.02
595.224	11.54
595.561	11.7
595.899	11.84
596.236	11.79
596.573	11.94
596.91	12.12
597.247	12.04
597.584	12.11
597.921	11.98
598.258	12.12
598.594	12.27
598.931	12.02
599.268	12.11
599.604	12.19
599.941	12.23
600.277	12.28
600.614	12.21
600.95	12.26
601.287	12.22
601.623	12.16
601.959	12.46
602.296	12.59
602.632	12.6
602.968	12.32
603.304	12.54
603.64	12.49
603.976	12.73
604.312	12.91
604.648	12.8
604.984	12.56
605.319	12.91
605.655	12.63
605.991	12.68
606.326	12.7
606.662	12.57
606.998	12.74
607.333	12.74
607.668	12.59
608.004	12.88
608.339	12.7
608.674	13.24
609.01	13.07
609.345	12.98
609.68	13.03
610.015	13.04
610.35	13.04
610.685	13.37
611.02	13.24
611.355	13.06
611.689	13.16
612.024	13.44
612.359	13.4
612.694	13.22
613.028	13.56
613.363	13.44
613.697	13.55
614.032	13.59
614.366	13.62
614.7	13.57
615.035	13.59
615.369	13.7
615.703	13.51
616.037	13.98
616.371	13.56
616.705	14.1
617.039	13.84
617.373	13.9
617.707	14.36
618.041	14.02
618.375	13.9
618.709	13.96
619.042	14.07
619.376	14.6
619.71	14.51
620.043	14.42
620.377	14.15
620.71	14.4
621.043	14.5
621.377	14.43
621.71	14.14
622.043	14.6
622.376	14.55
622.709	14.83
623.043	14.49
623.376	14.55
623.709	14.28
624.041	14.59
624.374	14.56
624.707	14.67
625.04	14.38
625.373	14.81
625.705	14.6
626.038	14.77
626.37	14.52
626.703	14.86
627.035	14.61
627.368	14.97
627.7	15.16
628.032	14.75
628.365	15.19
628.697	15.24
629.029	14.95
629.361	15.26
629.693	14.84
630.025	15.33
630.357	14.83
630.689	15.1
631.021	15.35
631.353	15.19
631.684	14.89
632.016	15.66
632.348	15.65
632.679	15.25
633.011	15.56
633.342	15.23
633.674	15.5
634.005	15.71
634.336	15.57
634.668	15.35
634.999	15.5
635.33	15.47
635.661	15.76
635.992	16
636.323	15.99
636.654	15.67
636.985	15.86
637.316	16.04
637.647	15.62
637.977	15.9
638.308	16.05
638.639	16.05
638.969	16.25
639.3	16.2
639.63	16.42
639.961	16.3
640.291	16.47
640.622	16.25
640.952	16.24
641.282	16.83
641.612	16.5
641.943	16.73
642.273	16.52
642.603	16.94
642.933	16.33
643.263	16.42
643.592	17
643.922	17.22
644.252	16.37
644.582	16.25
644.911	17.03
645.241	17.07
645.571	16.93
645.9	16.84
646.23	16.71
646.559	16.67
646.888	17.03
647.218	16.9
647.547	16.73
647.876	17.5
648.205	16.98
648.534	17.4
648.863	17.25
649.192	16.85
649.521	17.54
649.85	16.79
650.179	17.36
650.508	17.31
650.837	17.42
651.165	17.57
651.494	16.91
651.822	17.59
652.151	17.62
652.479	17.71
652.808	17.29
653.136	17.41
653.465	18.08
653.793	17.97
654.121	18.03
654.449	17.87
654.777	18.14
655.105	17.91
655.433	17.84
655.761	17.45
656.089	18.01
656.417	17.99
656.745	18.2
657.073	18.23
657.4	18.66
657.728	17.97
658.056	18.01
658.383	17.96
658.711	18.34
659.038	18.63
659.365	19.1
659.693	18.22
660.02	18.24
660.347	18.14
660.674	18.16
661.001	18.21
661.329	18.38
661.656	18.67
661.982	18.41
662.309	18.65
662.636	18.68
662.963	18.78
663.29	18.7
663.616	19.02
663.943	18.51
664.27	19.16
664.596	18.59
664.923	18.83
665.249	19.29
665.576	18.8
665.902	18.6
666.228	18.89
666.554	19.64
666.881	19.04
667.207	19.46
667.533	19.07
667.859	19.09
668.185	19.47
668.511	19.59
668.837	19.6
669.162	19.88
669.488	19.95
669.814	19.18
670.139	19.65
670.465	19.99
670.791	19.26
671.116	19.55
671.442	19.19
671.767	19.26
672.092	19.99
672.418	20.04
672.743	19.79
673.068	20.1
673.393	19.7
673.718	19.53
674.043	20.08
674.368	19.89
674.693	20.39
675.018	20.63
675.343	20.26
675.667	20.13
675.992	20.1
676.317	20.62
676.641	19.95
676.966	20.46
677.29	20.75
677.615	20.81
677.939	20.3
678.264	20.39
678.588	20.02
678.912	21.31
679.236	21.17
679.56	20.66
679.885	21.16
680.209	20.95
680.532	21.12
680.856	20.66
681.18	21.14
681.504	21.31
681.828	21.24
682.152	21.17
682.475	21.29
682.799	20.75
683.122	21.23
683.446	21.38
683.769	20.77
684.093	21.49
684.416	21.02
684.739	20.7
685.062	20.51
