Data from 0341_forehead_Reflection__1__275.txt Node

Date: Fri Oct 20 22:54:16 CDT 2023
User: ToomeyLab
Spectrometer: FLMS14357
Trigger mode: 0
Integration Time (sec): 1.000000E-2
Scans to average: 100
Electric dark correction enabled: true
Nonlinearity correction enabled: false
Boxcar width: 0
XAxis mode: Wavelengths
Number of Pixels in Spectrum: 2048
>>>>>Begin Spectral Data<<<<<
189.047	37.37
189.435	37.37
189.823	37.37
190.211	158.96
190.599	33.83
190.987	235.25
191.375	-6.55
191.763	152.54
192.151	71.34
192.538	5681.03
192.926	162.88
193.314	114.82
193.702	-2.63
194.089	131.09
194.477	-34.01
194.864	-1520.18
195.252	167.24
195.639	-1600.43
196.027	-43.34
196.414	143.46
196.801	118.57
197.189	-116.79
197.576	34.55
197.963	-180.14
198.351	83.48
198.738	36.25
199.125	50.58
199.512	48.24
199.899	30.58
200.286	36.72
200.673	49.25
201.06	50.34
201.447	43.26
201.833	50.54
202.22	44.09
202.607	66.06
202.994	62.93
203.38	57.47
203.767	52.76
204.154	33.23
204.54	45.14
204.927	32.58
205.313	32.79
205.699	79.37
206.086	24.55
206.472	41.2
206.858	60.51
207.245	7.88
207.631	51.3
208.017	-13.89
208.403	60.09
208.789	33.7
209.175	21.03
209.561	21.84
209.947	32.78
210.333	46.39
210.719	50.82
211.105	54.37
211.491	38.51
211.876	31.11
212.262	50.42
212.648	36.2
213.034	7.16
213.419	11.76
213.805	7.32
214.19	8.82
214.576	12.82
214.961	14.62
215.346	52.42
215.732	-0.91
216.117	4.89
216.502	16.62
216.888	-4.98
217.273	26.74
217.658	9.36
218.043	20
218.428	23.1
218.813	23.39
219.198	14.03
219.583	13.43
219.968	21.09
220.353	31.11
220.738	26.94
221.122	10.94
221.507	-2.23
221.892	25.32
222.276	12.91
222.661	50.44
223.046	36.75
223.43	14.13
223.815	19.55
224.199	15.2
224.583	-1.36
224.968	-3.45
225.352	10.09
225.736	8.08
226.121	13.25
226.505	4.48
226.889	13.25
227.273	-2.9
227.657	13.47
228.041	9.64
228.425	8.61
228.809	3
229.193	6.72
229.577	7.58
229.961	2.58
230.344	3.28
230.728	2.84
231.112	3.43
231.495	2.88
231.879	3.79
232.263	4.23
232.646	2.96
233.03	3.53
233.413	3.64
233.797	2.64
234.18	4.18
234.563	6.23
234.946	6.12
235.33	5.71
235.713	3.32
236.096	4.67
236.479	2.86
236.862	4.12
237.245	2.21
237.628	4.38
238.011	3.46
238.394	2.42
238.777	6.37
239.16	2.77
239.543	6.63
239.925	6.28
240.308	3.47
240.691	3.06
241.073	4.2
241.456	4.55
241.838	4
242.221	4.06
242.603	3.54
242.986	3.64
243.368	3.51
243.75	3.28
244.133	3.08
244.515	2.51
244.897	2.98
245.279	3.1
245.661	3.07
246.043	3.34
246.425	3.37
246.807	2.87
247.189	3.65
247.571	3.15
247.953	3.6
248.335	3.37
248.717	2.84
249.098	3.02
249.48	3
249.862	3.04
250.243	3.59
250.625	3.36
251.006	3.65
251.388	2.87
251.769	3.72
252.151	2.46
252.532	4.36
252.913	4.66
253.295	2.97
253.676	3.52
254.057	3.44
254.438	3.4
254.819	3.53
255.2	2.73
255.581	3.24
255.962	4.22
256.343	3.11
256.724	2.02
257.105	3.1
257.486	4.06
257.867	3.82
258.247	3.57
258.628	3.48
259.009	3.26
259.389	2.96
259.77	2.46
260.15	3.42
260.531	3.69
260.911	3.69
261.292	3.12
261.672	3.24
262.052	3.09
262.432	3.09
262.813	3.1
263.193	3.47
263.573	3.32
263.953	3.5
264.333	3.1
264.713	3.23
265.093	3.22
265.473	3.51
265.853	2.73
266.233	2.57
266.612	3.39
266.992	3.76
267.372	3.38
267.752	2.88
268.131	3.42
268.511	3.32
268.89	3.32
269.27	3.2
269.649	2.89
270.029	3.46
270.408	3.4
270.787	3.85
271.167	3.26
271.546	3.58
271.925	3.04
272.304	3.94
272.683	2.94
273.062	2.95
273.441	3.4
273.82	3.11
274.199	2.79
274.578	3.32
274.957	3.22
275.336	3.08
275.715	3.48
276.093	2.93
276.472	3.25
276.851	3.41
277.229	3.07
277.608	3.01
277.986	2.98
278.365	3.64
278.743	3.53
279.122	3.2
279.5	3.42
279.878	2.88
280.257	2.79
280.635	3.3
281.013	3.65
281.391	3.28
281.769	3.05
282.147	2.54
282.525	3.23
282.903	3.88
283.281	3.32
283.659	3.43
284.037	3.18
284.415	2.75
284.792	3.02
285.17	3.23
285.548	3.06
285.925	3.04
286.303	3
286.68	2.69
287.058	3.68
287.435	3.13
287.813	2.85
288.19	2.96
288.567	3.03
288.945	3.16
289.322	3.68
289.699	2.82
290.076	3.94
290.453	3.84
290.83	3.1
291.207	3.15
291.584	3.17
291.961	3.18
292.338	3.23
292.715	3.17
293.092	3.12
293.469	3.66
293.845	3.62
294.222	3.61
294.599	3.17
294.975	4.5
295.352	4.28
295.728	4.13
296.105	3.2
296.481	3.55
296.858	3.81
297.234	3.97
297.61	3.89
297.986	3.45
298.363	3.78
298.739	3.92
299.115	3.57
299.491	3.86
299.867	3.8
300.243	3.89
300.619	4.06
300.995	3.94
301.371	4
301.746	4.16
302.122	3.81
302.498	4.19
302.874	4.07
303.249	4.19
303.625	4.17
304	4.48
304.376	4.13
304.751	3.93
305.127	3.81
305.502	5.01
305.878	4.2
306.253	4.4
306.628	4.19
307.003	4.78
307.378	4.58
307.754	4.47
308.129	5.24
308.504	4.86
308.879	4.45
309.254	5.26
309.629	4.5
310.003	4.57
310.378	4.69
310.753	5.25
311.128	5.07
311.502	4.61
311.877	5.04
312.252	4.74
312.626	5.43
313.001	4.84
313.375	5.01
313.75	5.14
314.124	5.18
314.498	5.32
314.873	5.39
315.247	5.6
315.621	5.37
315.995	6.11
316.369	5.28
316.743	5.84
317.117	5.76
317.491	5.29
317.865	6.01
318.239	6.57
318.613	6.06
318.987	5.81
319.361	5.04
319.734	5.52
320.108	5.78
320.482	6.35
320.855	6.63
321.229	6.45
321.602	6.32
321.976	6.02
322.349	6.5
322.723	6.09
323.096	6.69
323.469	5.81
323.843	6.32
324.216	6.71
324.589	6.48
324.962	7.07
325.335	6.7
325.708	6.5
326.081	6.28
326.454	7.02
326.827	6.76
327.2	6.73
327.573	6.91
327.945	6.77
328.318	6.8
328.691	6.65
329.063	7.24
329.436	6.45
329.809	7.23
330.181	7.57
330.553	7.41
330.926	7.22
331.298	7.19
331.671	6.79
332.043	7.05
332.415	6.99
332.787	7.41
333.159	6.91
333.532	7.46
333.904	7.18
334.276	7.25
334.648	7.49
335.02	7.58
335.391	7.51
335.763	7.45
336.135	7.31
336.507	7.65
336.879	7.86
337.25	7.83
337.622	8.22
337.993	8.02
338.365	7.98
338.736	7.81
339.108	8.13
339.479	7.53
339.851	7.61
340.222	7.6
340.593	7.23
340.964	8.08
341.336	8.19
341.707	8.3
342.078	7.94
342.449	7.72
342.82	7.67
343.191	7.87
343.562	8.17
343.933	8.16
344.303	8.05
344.674	8.51
345.045	8.54
345.416	8.56
345.786	8.38
346.157	8.43
346.527	8.03
346.898	8.36
347.268	8.89
347.639	8.69
348.009	8.3
348.38	8.94
348.75	8.79
349.12	8.77
349.49	8.34
349.861	8.71
350.231	8.25
350.601	8.59
350.971	9.02
351.341	8.73
351.711	9.41
352.081	8.89
352.45	9.18
352.82	9.2
353.19	9.04
353.56	9.35
353.929	8.54
354.299	8.9
354.669	9.25
355.038	9.16
355.408	9.37
355.777	9.17
356.147	9.03
356.516	9.14
356.885	9.19
357.254	9.68
357.624	9.46
357.993	9.45
358.362	9.31
358.731	9.53
359.1	9.46
359.469	9.33
359.838	9.31
360.207	9.37
360.576	9.78
360.945	9.32
361.314	9.69
361.682	9.92
362.051	9.69
362.42	9.36
362.788	9.8
363.157	9.59
363.525	9.39
363.894	9.72
364.262	9.71
364.631	9.9
364.999	9.85
365.367	9.96
365.735	10.07
366.104	9.98
366.472	10.03
366.84	9.93
367.208	10.17
367.576	9.95
367.944	9.96
368.312	9.94
368.68	10.13
369.048	10.13
369.416	10.47
369.783	10.23
370.151	10.22
370.519	10.42
370.886	10.52
371.254	10.85
371.621	10.62
371.989	10.02
372.356	10.6
372.724	10.87
373.091	10.68
373.458	10.38
373.826	10.58
374.193	10.69
374.56	10.74
374.927	10.76
375.294	10.76
375.661	11.08
376.028	10.92
376.395	11.2
376.762	10.98
377.129	11.01
377.496	11.32
377.863	11.1
378.229	11.45
378.596	11.37
378.963	11.22
379.329	11.13
379.696	11.37
380.062	11.49
380.429	11.36
380.795	10.99
381.161	11.4
381.528	11.85
381.894	11.34
382.26	11.8
382.626	12
382.993	11.73
383.359	11.6
383.725	12.04
384.091	11.8
384.457	11.87
384.823	11.4
385.188	12.22
385.554	11.88
385.92	11.76
386.286	11.98
386.651	11.87
387.017	12.03
387.383	11.99
387.748	11.89
388.114	11.79
388.479	11.9
388.845	12.23
389.21	11.91
389.575	11.75
389.94	11.98
390.306	12.19
390.671	11.86
391.036	12.3
391.401	12.26
391.766	12.42
392.131	12.28
392.496	12.21
392.861	12.48
393.226	12.46
393.591	12.52
393.956	12.43
394.32	12.63
394.685	12.49
395.05	12.69
395.414	12.71
395.779	12.5
396.143	12.56
396.508	12.57
396.872	12.8
397.236	12.66
397.601	12.78
397.965	12.5
398.329	12.65
398.694	13.15
399.058	12.5
399.422	13.33
399.786	12.99
400.15	12.88
400.514	12.87
400.878	13.04
401.242	12.95
401.605	13.08
401.969	12.93
402.333	13.04
402.697	13.23
403.06	13.23
403.424	13.05
403.787	13.24
404.151	13.39
404.514	13.35
404.878	13.31
405.241	13.4
405.604	13.16
405.968	13.31
406.331	13.31
406.694	13.26
407.057	13.24
407.42	13.55
407.783	13.38
408.146	13.68
408.509	13.56
408.872	13.8
409.235	13.53
409.598	13.78
409.961	13.5
410.323	13.44
410.686	13.48
411.049	13.98
411.411	13.68
411.774	13.74
412.136	13.61
412.499	13.92
412.861	14.12
413.223	13.77
413.586	13.86
413.948	13.98
414.31	13.91
414.672	13.84
415.035	13.86
415.397	14.34
415.759	14.09
416.121	14.56
416.483	14.41
416.845	14.28
417.206	14.3
417.568	14.44
417.93	14.42
418.292	14.2
418.653	14.35
419.015	14.21
419.377	14.2
419.738	14.09
420.1	14.27
420.461	14.38
420.822	14.33
421.184	14.21
421.545	14.42
421.906	14.38
422.267	14.24
422.629	14.32
422.99	14.2
423.351	14.42
423.712	14.35
424.073	14.6
424.434	14.52
424.795	14.62
425.155	14.66
425.516	14.59
425.877	14.8
426.238	14.74
426.598	14.67
426.959	14.79
427.32	14.87
427.68	14.93
428.041	14.88
428.401	15.03
428.761	15.15
429.122	15.09
429.482	15.16
429.842	15.27
430.202	15.38
430.563	15.57
430.923	15.78
431.283	15.72
431.643	15.73
432.003	15.75
432.363	15.64
432.722	15.84
433.082	15.73
433.442	15.74
433.802	16.11
434.161	15.79
434.521	15.95
434.881	15.9
435.24	16.02
435.6	15.94
435.959	15.91
436.319	16.04
436.678	16.17
437.037	16.02
437.396	16.17
437.756	16.5
438.115	16.27
438.474	16.5
438.833	16.5
439.192	16.28
439.551	16.43
439.91	16.41
440.269	16.6
440.628	16.76
440.987	16.63
441.345	16.53
441.704	16.63
442.063	16.47
442.421	16.51
442.78	16.67
443.138	16.73
443.497	16.8
443.855	16.8
444.214	16.73
444.572	16.87
444.93	17.01
445.288	17.24
445.647	17.27
446.005	16.98
446.363	17.05
446.721	17.23
447.079	17.36
447.437	17.22
447.795	17.11
448.153	17.26
448.51	17.09
448.868	17.16
449.226	17.2
449.584	17.28
449.941	17.31
450.299	17.32
450.656	17.47
451.014	17.75
451.371	17.64
451.729	17.75
452.086	17.82
452.443	17.93
452.801	18.08
453.158	18.08
453.515	18.11
453.872	18.12
454.229	18.18
454.586	17.96
454.943	18.08
455.3	18.13
455.657	18.32
456.014	18.28
456.371	18.49
456.727	18.41
457.084	18.47
457.441	18.47
457.797	18.43
458.154	18.44
458.51	18.44
458.867	18.73
459.223	18.61
459.58	18.78
459.936	18.78
460.292	18.81
460.648	18.85
461.005	18.57
461.361	18.82
461.717	18.58
462.073	18.62
462.429	18.65
462.785	18.66
463.141	18.84
463.496	19.04
463.852	19.02
464.208	19.38
464.564	19.15
464.919	19.18
465.275	19.39
465.631	19.21
465.986	19.5
466.342	19.54
466.697	19.64
467.052	19.59
467.408	19.73
467.763	19.74
468.118	19.8
468.473	19.74
468.829	19.88
469.184	19.82
469.539	19.74
469.894	19.98
470.249	19.98
470.603	19.9
470.958	19.96
471.313	20.08
471.668	20.09
472.023	20.26
472.377	20.19
472.732	20.02
473.086	20.45
473.441	20.34
473.795	20.31
474.15	20.39
474.504	20.29
474.859	20.5
475.213	20.48
475.567	20.54
475.921	20.48
476.275	20.6
476.63	20.76
476.984	20.79
477.338	20.57
477.692	20.82
478.045	20.76
478.399	20.88
478.753	21.09
479.107	20.89
479.461	20.9
479.814	21.2
480.168	20.97
480.521	20.96
480.875	20.94
481.228	21.09
481.582	21.14
481.935	21.11
482.289	21.18
482.642	21.1
482.995	21.09
483.348	21.19
483.701	21.24
484.055	21.15
484.408	20.92
484.761	20.87
485.114	20.81
485.466	20.47
485.819	20.4
486.172	20.44
486.525	20.4
486.878	20.5
487.23	20.58
487.583	20.64
487.936	20.89
488.288	21.08
488.641	21.23
488.993	21.04
489.345	20.96
489.698	20.9
490.05	20.85
490.402	20.86
490.754	21.07
491.107	21.24
491.459	21.34
491.811	21.66
492.163	21.74
492.515	21.71
492.866	21.86
493.218	21.66
493.57	21.5
493.922	21.43
494.274	21.47
494.625	21.54
494.977	21.67
495.328	21.97
495.68	22.15
496.031	22.39
496.383	22.52
496.734	22.52
497.086	22.7
497.437	22.7
497.788	22.72
498.139	22.74
498.49	22.9
498.842	22.68
499.193	22.79
499.544	22.72
499.894	22.9
500.245	22.78
500.596	22.8
500.947	22.96
501.298	23.14
501.648	23
501.999	23.3
502.35	23.19
502.7	23.27
503.051	23.27
503.401	23.51
503.752	23.45
504.102	23.46
504.452	23.39
504.803	23.5
505.153	23.59
505.503	23.56
505.853	23.75
506.203	23.65
506.553	23.65
506.903	23.7
507.253	23.81
507.603	23.81
507.953	23.75
508.303	23.99
508.652	23.98
509.002	23.96
509.352	24.09
509.701	23.97
510.051	23.83
510.4	23.94
510.75	23.98
511.099	23.99
511.449	24.06
511.798	24.05
512.147	24.03
512.496	24.04
512.846	24.05
513.195	24.24
513.544	24.21
513.893	24.16
514.242	24.45
514.591	24.41
514.939	24.4
515.288	24.5
515.637	24.45
515.986	24.5
516.334	24.59
516.683	24.7
517.032	24.62
517.38	24.69
517.729	24.95
518.077	24.97
518.426	24.91
518.774	24.88
519.122	24.89
519.47	24.8
519.819	24.63
520.167	24.75
520.515	24.7
520.863	24.65
521.211	24.54
521.559	24.78
521.907	24.83
522.255	24.91
522.602	25.05
522.95	24.99
523.298	25.22
523.645	25.39
523.993	25.4
524.341	25.36
524.688	25.56
525.036	25.57
525.383	25.63
525.73	25.64
526.078	25.59
526.425	25.7
526.772	25.5
527.119	25.56
527.466	25.36
527.814	25.39
528.161	25.42
528.508	25.31
528.854	25.18
529.201	25.5
529.548	25.41
529.895	25.34
530.242	25.18
530.588	25.06
530.935	25.05
531.282	25.16
531.628	25.04
531.975	25.13
532.321	25.16
532.667	25.46
533.014	25.64
533.36	25.68
533.706	25.97
534.052	25.93
534.399	25.99
534.745	26.03
535.091	25.87
535.437	25.74
535.783	25.78
536.129	25.87
536.474	25.85
536.82	26.02
537.166	26.27
537.512	26.36
537.857	26.55
538.203	26.51
538.549	26.47
538.894	26.45
539.239	26.44
539.585	26.46
539.93	26.7
540.276	26.78
540.621	27
540.966	27.08
541.311	27.17
541.656	27.37
542.001	27.13
542.346	27.06
542.691	26.87
543.036	26.7
543.381	26.58
543.726	26.53
544.071	26.61
544.415	26.55
544.76	26.64
545.105	26.82
545.449	26.99
545.794	27.28
546.138	27.17
546.483	27.37
546.827	27.56
547.171	27.58
547.516	27.47
547.86	27.71
548.204	27.68
548.548	27.75
548.892	27.81
549.236	27.76
549.58	27.78
549.924	27.89
550.268	27.96
550.612	28.14
550.956	28.33
551.3	28.3
551.643	28.26
551.987	28.62
552.33	28.52
552.674	28.5
553.017	28.58
553.361	28.63
553.704	28.79
554.048	28.63
554.391	28.7
554.734	29.08
555.077	28.74
555.42	28.64
555.764	28.66
556.107	28.89
556.45	28.85
556.793	28.78
557.135	28.89
557.478	28.98
557.821	29.25
558.164	29.33
558.507	29.29
558.849	29.29
559.192	29.37
559.534	29.64
559.877	29.13
560.219	29.63
560.562	29.62
560.904	29.64
561.246	29.73
561.589	29.48
561.931	29.73
562.273	29.7
562.615	29.9
562.957	29.71
563.299	29.85
563.641	29.8
563.983	29.73
564.325	29.87
564.667	29.91
565.008	30.01
565.35	29.97
565.692	30.21
566.033	30.28
566.375	30.34
566.716	30.23
567.058	30.18
567.399	30.32
567.741	30.18
568.082	30.27
568.423	30.21
568.764	30.12
569.105	30.24
569.447	30.23
569.788	30.28
570.129	30.52
570.47	30.63
570.811	30.57
571.151	30.52
571.492	30.84
571.833	31.09
572.174	30.91
572.514	30.65
572.855	30.67
573.195	30.97
573.536	30.83
573.876	30.9
574.217	30.75
574.557	30.69
574.898	30.95
575.238	30.8
575.578	31.05
575.918	31.05
576.258	31.1
576.598	31.43
576.938	31.11
577.278	31.31
577.618	31.05
577.958	31.23
578.298	31.27
578.638	31.51
578.977	31.5
579.317	31.52
579.657	31.43
579.996	31.77
580.336	31.93
580.675	31.89
581.014	31.88
581.354	31.94
581.693	32.12
582.032	32.11
582.372	31.92
582.711	32.29
583.05	32.27
583.389	32.36
583.728	32.06
584.067	32.05
584.406	32.45
584.745	32.5
585.083	32.47
585.422	32.27
585.761	32.51
586.1	32.61
586.438	32.13
586.777	32.67
587.115	32.73
587.454	32.9
587.792	32.61
588.13	33.06
588.469	32.64
588.807	32.65
589.145	32.78
589.483	32.88
589.821	32.98
590.159	33.35
590.497	33.08
590.835	33.08
591.173	32.87
591.511	32.88
591.849	32.98
592.187	33.25
592.524	33.05
592.862	33.21
593.2	33.47
593.537	33.16
593.875	33.33
594.212	33.56
594.55	33.48
594.887	33.33
595.224	33.25
595.561	33.64
595.899	33.48
596.236	33.47
596.573	33.62
596.91	33.74
597.247	33.66
597.584	33.51
597.921	33.84
598.258	33.85
598.594	33.98
598.931	33.49
599.268	33.5
599.604	33.91
599.941	33.46
600.277	33.61
600.614	33.92
600.95	33.84
601.287	33.9
601.623	34.12
601.959	34.08
602.296	34.32
602.632	34.15
602.968	34.2
603.304	34.15
603.64	34.35
603.976	34.16
604.312	34.24
604.648	34.64
604.984	34.83
605.319	34.47
605.655	34.51
605.991	34.37
606.326	34.37
606.662	34.4
606.998	34.3
607.333	34.37
607.668	34.33
608.004	34.35
608.339	34.54
608.674	34.88
609.01	35.02
609.345	35.01
609.68	35.19
610.015	34.93
610.35	35.14
610.685	35.45
611.02	35.05
611.355	35.07
611.689	34.76
612.024	34.94
612.359	34.99
612.694	34.98
613.028	35.46
613.363	35.2
613.697	35.47
614.032	35.23
614.366	35.44
614.7	35.5
615.035	35.75
615.369	35.39
615.703	35.74
616.037	35.58
616.371	35.84
616.705	36.15
617.039	35.73
617.373	35.73
617.707	36.01
618.041	36.14
618.375	35.74
618.709	35.88
619.042	35.92
619.376	36.57
619.71	36.12
620.043	36.17
620.377	35.98
620.71	36.34
621.043	36.16
621.377	36.01
621.71	36.38
622.043	36.5
622.376	36.28
622.709	36.57
623.043	36.42
623.376	36.26
623.709	36.62
624.041	36.39
624.374	36.55
624.707	36.72
625.04	36.56
625.373	37.02
625.705	36.5
626.038	36.94
626.37	36.36
626.703	36.82
627.035	36.64
627.368	36.55
627.7	37.09
628.032	37
628.365	36.96
628.697	37.15
629.029	37.01
629.361	37.08
629.693	36.97
630.025	37.04
630.357	37.27
630.689	37.45
631.021	37.46
631.353	36.76
631.684	37.11
632.016	37.82
632.348	37.39
632.679	37.77
633.011	37.12
633.342	37.34
633.674	37.05
634.005	37.71
634.336	37.58
634.668	37.62
634.999	37.87
635.33	37.42
635.661	38.03
635.992	38.23
636.323	38.26
636.654	37.64
636.985	37.57
637.316	37.75
637.647	37.59
637.977	37.76
638.308	37.86
638.639	38.38
638.969	38.12
639.3	37.76
639.63	38.17
639.961	37.99
640.291	37.79
640.622	38.18
640.952	38.33
641.282	38.41
641.612	38.74
641.943	38.54
642.273	38.33
642.603	39.02
642.933	38.86
643.263	39.1
643.592	38.5
643.922	39.16
644.252	38.6
644.582	38.28
644.911	38.86
645.241	39.21
645.571	39.47
645.9	39.06
646.23	38.54
646.559	38.68
646.888	39.2
647.218	39.14
647.547	38.94
647.876	38.74
648.205	38.88
648.534	39.46
648.863	39.16
649.192	39.23
649.521	39.41
649.85	38.99
650.179	39.74
650.508	39.39
650.837	39.59
651.165	39.53
651.494	39.5
651.822	39.51
652.151	39.78
652.479	39.69
652.808	39.4
653.136	39.37
653.465	40
653.793	39.91
654.121	39.82
654.449	39.8
654.777	39.86
655.105	39.6
655.433	40.22
655.761	39.58
656.089	39.91
656.417	39.99
656.745	40.51
657.073	40.2
657.4	40.41
657.728	40.58
658.056	40.41
658.383	40.97
658.711	40.51
659.038	40.42
659.365	40.72
659.693	40.7
660.02	40.69
660.347	39.99
660.674	40.26
661.001	39.96
661.329	40.07
661.656	40.76
661.982	40.37
662.309	40.54
662.636	40.12
662.963	40.09
663.29	40.27
663.616	40.96
663.943	40.85
664.27	41.09
664.596	40.87
664.923	40.43
665.249	41.28
665.576	40.99
665.902	40.6
666.228	41.32
666.554	41.32
666.881	40.69
667.207	41.7
667.533	41.01
667.859	40.89
668.185	41.52
668.511	41.09
668.837	41.2
669.162	41.48
669.488	41.1
669.814	40.76
670.139	41.64
670.465	41.79
670.791	41.27
671.116	41.3
671.442	41.81
671.767	41.21
672.092	40.64
672.418	41.81
