Data from 0341_chest_Reflection__3__264.txt Node

Date: Fri Oct 20 22:45:58 CDT 2023
User: ToomeyLab
Spectrometer: FLMS14357
Trigger mode: 0
Integration Time (sec): 1.000000E-2
Scans to average: 100
Electric dark correction enabled: true
Nonlinearity correction enabled: false
Boxcar width: 0
XAxis mode: Wavelengths
Number of Pixels in Spectrum: 2048
>>>>>Begin Spectral Data<<<<<
189.047	71.44
189.435	71.44
189.823	71.44
190.211	-287.82
190.599	-9.78
190.987	172.47
191.375	165.05
191.763	36.21
192.151	-80.82
192.538	4429.31
192.926	68.45
193.314	39.09
193.702	47.47
194.089	126.42
194.477	434.01
194.864	-840.06
195.252	21.83
195.639	427.78
196.027	1.86
196.414	134.43
196.801	62.37
197.189	-126.49
197.576	20.8
197.963	-80.14
198.351	50.82
198.738	15.03
199.125	44.89
199.512	12.39
199.899	25.65
200.286	20.63
200.673	58.24
201.06	-4.72
201.447	24.46
201.833	27.16
202.22	18.11
202.607	20.65
202.994	57.7
203.38	33.49
203.767	-10.14
204.154	55.2
204.54	27.2
204.927	17.28
205.313	-0.67
205.699	48.44
206.086	11.21
206.472	50.61
206.858	58.99
207.245	-45.89
207.631	28.11
208.017	6.42
208.403	-5.64
208.789	46.23
209.175	-34.44
209.561	33.85
209.947	-3.11
210.333	3.39
210.719	29.16
211.105	-0.93
211.491	5.95
211.876	34.4
212.262	21.6
212.648	48.4
213.034	-7.6
213.419	24.3
213.805	16.15
214.19	2.79
214.576	-4.41
214.961	15.59
215.346	29.07
215.732	22.79
216.117	-43.03
216.502	-2.91
216.888	16.4
217.273	2.48
217.658	0.67
218.043	14
218.428	-4.83
218.813	0.47
219.198	-12.86
219.583	-29.43
219.968	-59.82
220.353	-12.72
220.738	-10.69
221.122	12.1
221.507	1.32
221.892	-5.4
222.276	-7.17
222.661	18.93
223.046	3.33
223.43	2.32
223.815	18.17
224.199	5.58
224.583	-17.23
224.968	1.05
225.352	-4.08
225.736	-2.56
226.121	9.6
226.505	4.39
226.889	6.81
227.273	6.7
227.657	5.2
228.041	9.56
228.425	4.08
228.809	3.61
229.193	2.46
229.577	6.87
229.961	0.37
230.344	2.12
230.728	2.24
231.112	2.93
231.495	1.13
231.879	2.44
232.263	4.05
232.646	1.46
233.03	0.83
233.413	1.87
233.797	2.03
234.18	2.05
234.563	3.14
234.946	2.53
235.33	2.86
235.713	1.72
236.096	3.94
236.479	2.33
236.862	3.14
237.245	2.67
237.628	1.29
238.011	3.17
238.394	3.49
238.777	3.81
239.16	2.99
239.543	4.04
239.925	3.79
240.308	2.29
240.691	2.6
241.073	3.72
241.456	2.43
241.838	3.53
242.221	3.05
242.603	3.18
242.986	2.85
243.368	2.84
243.75	2.72
244.133	2.53
244.515	2.51
244.897	2.57
245.279	2.38
245.661	2.38
246.043	1.96
246.425	2.98
246.807	2.2
247.189	2.04
247.571	1.96
247.953	3.15
248.335	2.64
248.717	2.51
249.098	2.32
249.48	2.51
249.862	2.77
250.243	2.56
250.625	2.59
251.006	3.14
251.388	2.92
251.769	3.03
252.151	1.31
252.532	3.16
252.913	2.69
253.295	1.5
253.676	2.31
254.057	2.67
254.438	2.81
254.819	2.58
255.2	2.2
255.581	2.01
255.962	2.26
256.343	2.91
256.724	2.44
257.105	2.33
257.486	2.84
257.867	2.07
258.247	2.23
258.628	2.25
259.009	2.81
259.389	3.03
259.77	2.1
260.15	2.42
260.531	2.44
260.911	2.92
261.292	2.36
261.672	2.58
262.052	2.6
262.432	2.49
262.813	2.36
263.193	2.65
263.573	2.56
263.953	2.47
264.333	2.71
264.713	3.17
265.093	2.79
265.473	2.55
265.853	2.39
266.233	2.53
266.612	2.45
266.992	2.86
267.372	3.12
267.752	1.81
268.131	2.94
268.511	2.59
268.89	2.19
269.27	1.84
269.649	2.31
270.029	2.74
270.408	2.49
270.787	2.81
271.167	2.73
271.546	2.92
271.925	2.82
272.304	2.48
272.683	2.84
273.062	1.93
273.441	2.46
273.82	2.44
274.199	2.79
274.578	2.7
274.957	2.84
275.336	2.77
275.715	2.43
276.093	2.71
276.472	2.66
276.851	2.46
277.229	2.39
277.608	3.04
277.986	2.25
278.365	3.29
278.743	2.78
279.122	2.11
279.5	2.37
279.878	1.94
280.257	2.41
280.635	2.94
281.013	3.09
281.391	2.55
281.769	2.56
282.147	2.56
282.525	2.54
282.903	2.42
283.281	2.71
283.659	2.83
284.037	3.18
284.415	1.8
284.792	2.25
285.17	2.55
285.548	2.25
285.925	2.17
286.303	2.51
286.68	2.45
287.058	2.86
287.435	2.84
287.813	2.28
288.19	2.23
288.567	2.46
288.945	2.68
289.322	2.73
289.699	2.16
290.076	3.11
290.453	2.93
290.83	2.66
291.207	3.28
291.584	2.19
291.961	2.74
292.338	2.5
292.715	2.78
293.092	2.49
293.469	2.63
293.845	2.6
294.222	2.56
294.599	2.25
294.975	3.38
295.352	2.9
295.728	2.68
296.105	3.07
296.481	3.2
296.858	2.88
297.234	3.14
297.61	2.96
297.986	3.01
298.363	3.04
298.739	3.24
299.115	2.82
299.491	2.54
299.867	2.88
300.243	2.9
300.619	3.04
300.995	3.16
301.371	3.16
301.746	3.08
302.122	3.64
302.498	2.9
302.874	3.37
303.249	3.46
303.625	3.52
304	3.37
304.376	3.03
304.751	2.76
305.127	2.78
305.502	3.47
305.878	3.22
306.253	3.72
306.628	3.28
307.003	3
307.378	3.11
307.754	2.97
308.129	3.62
308.504	3.37
308.879	3.2
309.254	3.66
309.629	2.98
310.003	3.52
310.378	3.7
310.753	3.39
311.128	3.94
311.502	3.52
311.877	3.58
312.252	3.39
312.626	4
313.001	3.14
313.375	3.42
313.75	3.2
314.124	3.37
314.498	3.78
314.873	3.15
315.247	3.31
315.621	3.58
315.995	3.85
316.369	3.4
316.743	4.08
317.117	3.86
317.491	2.95
317.865	3.61
318.239	3.86
318.613	4.17
318.987	3.35
319.361	2.78
319.734	3.66
320.108	3.55
320.482	3.76
320.855	3.82
321.229	3.94
321.602	3.9
321.976	3.63
322.349	3.95
322.723	3.85
323.096	3.78
323.469	3.85
323.843	3.74
324.216	3.92
324.589	3.53
324.962	4.19
325.335	4.21
325.708	4.22
326.081	4.45
326.454	3.94
326.827	4.24
327.2	4.1
327.573	4.63
327.945	3.98
328.318	3.33
328.691	3.73
329.063	3.82
329.436	3.81
329.809	3.93
330.181	4.11
330.553	4.19
330.926	3.75
331.298	4.42
331.671	3.38
332.043	3.94
332.415	4.56
332.787	3.82
333.159	3.96
333.532	3.79
333.904	3.85
334.276	3.74
334.648	4.45
335.02	4.07
335.391	3.46
335.763	4.09
336.135	3.88
336.507	4.5
336.879	4.01
337.25	4.28
337.622	4.28
337.993	3.81
338.365	4.2
338.736	4.22
339.108	4.3
339.479	3.99
339.851	4.29
340.222	3.78
340.593	3.63
340.964	4.04
341.336	4.32
341.707	4.31
342.078	3.9
342.449	3.27
342.82	3.95
343.191	3.86
343.562	4.03
343.933	4.09
344.303	3.95
344.674	4.26
345.045	3.81
345.416	4.22
345.786	4.17
346.157	4.37
346.527	4.18
346.898	4.15
347.268	4.21
347.639	3.97
348.009	4.16
348.38	4.39
348.75	4.24
349.12	4.31
349.49	4.23
349.861	4.75
350.231	3.72
350.601	3.91
350.971	4.36
351.341	4.45
351.711	4.7
352.081	4.44
352.45	4.19
352.82	3.94
353.19	4.65
353.56	4.6
353.929	4.33
354.299	4.4
354.669	4.03
355.038	4.19
355.408	4.16
355.777	4.36
356.147	4.11
356.516	4.39
356.885	4.46
357.254	4.27
357.624	4.2
357.993	3.88
358.362	4.09
358.731	4.1
359.1	3.89
359.469	4.07
359.838	4.29
360.207	4.13
360.576	4.57
360.945	4.15
361.314	4.59
361.682	4.2
362.051	4.31
362.42	4.26
362.788	4.53
363.157	4.24
363.525	4.07
363.894	4.2
364.262	3.99
364.631	4.36
364.999	4.28
365.367	4.3
365.735	4.21
366.104	4.33
366.472	4.28
366.84	4.42
367.208	4.37
367.576	4.44
367.944	4.34
368.312	4.27
368.68	4.49
369.048	4.4
369.416	4.4
369.783	4.75
370.151	4.35
370.519	4.63
370.886	4.64
371.254	4.55
371.621	4.69
371.989	4.11
372.356	4.63
372.724	4.51
373.091	4.63
373.458	4.46
373.826	4.46
374.193	4.4
374.56	4.75
374.927	4.39
375.294	4.3
375.661	4.6
376.028	4.56
376.395	4.5
376.762	4.34
377.129	4.39
377.496	4.49
377.863	4.93
378.229	4.75
378.596	4.71
378.963	4.47
379.329	4.64
379.696	4.6
380.062	4.72
380.429	4.36
380.795	4.46
381.161	4.5
381.528	4.8
381.894	4.52
382.26	4.44
382.626	4.7
382.993	4.58
383.359	4.42
383.725	4.57
384.091	4.58
384.457	4.4
384.823	4.47
385.188	4.7
385.554	4.39
385.92	4.48
386.286	4.79
386.651	4.43
387.017	4.81
387.383	4.61
387.748	4.47
388.114	4.36
388.479	4.52
388.845	4.98
389.21	4.73
389.575	4.48
389.94	4.34
390.306	4.42
390.671	4.62
391.036	4.71
391.401	4.94
391.766	4.71
392.131	4.5
392.496	4.8
392.861	4.67
393.226	4.71
393.591	4.67
393.956	4.84
394.32	4.69
394.685	4.69
395.05	4.87
395.414	4.89
395.779	4.6
396.143	4.36
396.508	4.74
396.872	4.65
397.236	4.53
397.601	4.58
397.965	4.43
398.329	4.61
398.694	4.86
399.058	4.56
399.422	4.93
399.786	4.88
400.15	4.56
400.514	4.84
400.878	4.76
401.242	4.87
401.605	4.67
401.969	4.38
402.333	4.78
402.697	4.78
403.06	4.61
403.424	4.71
403.787	4.83
404.151	4.74
404.514	4.55
404.878	4.76
405.241	4.76
405.604	4.68
405.968	4.71
406.331	4.84
406.694	4.68
407.057	4.71
407.42	5.06
407.783	4.91
408.146	4.72
408.509	4.75
408.872	4.94
409.235	4.75
409.598	5.04
409.961	4.85
410.323	4.81
410.686	4.64
411.049	4.76
411.411	4.82
411.774	4.9
412.136	4.63
412.499	4.82
412.861	5.01
413.223	4.78
413.586	4.92
413.948	4.93
414.31	4.93
414.672	4.53
415.035	4.77
415.397	4.97
415.759	4.86
416.121	4.84
416.483	4.91
416.845	4.67
417.206	4.8
417.568	4.93
417.93	4.79
418.292	4.75
418.653	4.94
419.015	4.67
419.377	4.81
419.738	4.78
420.1	4.84
420.461	4.76
420.822	4.62
421.184	4.7
421.545	4.75
421.906	4.7
422.267	4.67
422.629	4.7
422.99	4.6
423.351	4.7
423.712	4.76
424.073	4.83
424.434	4.55
424.795	4.71
425.155	4.84
425.516	4.72
425.877	4.83
426.238	4.66
426.598	4.83
426.959	4.7
427.32	4.81
427.68	4.79
428.041	4.79
428.401	4.9
428.761	4.86
429.122	4.83
429.482	4.95
429.842	5.01
430.202	4.9
430.563	4.83
430.923	5.09
431.283	5
431.643	5.05
432.003	5.29
432.363	4.92
432.722	5
433.082	4.9
433.442	4.94
433.802	4.94
434.161	4.81
434.521	5.09
434.881	4.97
435.24	4.92
435.6	4.82
435.959	4.86
436.319	5.02
436.678	5.06
437.037	4.89
437.396	4.92
437.756	5.18
438.115	4.73
438.474	4.83
438.833	4.85
439.192	4.8
439.551	4.71
439.91	5.09
440.269	5.07
440.628	5.02
440.987	5.11
441.345	5.07
441.704	4.99
442.063	5.05
442.421	5.02
442.78	5.04
443.138	5.02
443.497	5.1
443.855	5.03
444.214	4.94
444.572	5
444.93	5.14
445.288	5.11
445.647	5.35
446.005	4.91
446.363	5.03
446.721	5.05
447.079	5.14
447.437	5.05
447.795	4.93
448.153	5.01
448.51	4.96
448.868	4.9
449.226	4.99
449.584	5.08
449.941	4.91
450.299	5.03
450.656	4.93
451.014	5.09
451.371	5.1
451.729	5.07
452.086	5.05
452.443	5.21
452.801	5.13
453.158	5.24
453.515	5.17
453.872	5.19
454.229	5.35
454.586	5.07
454.943	5.11
455.3	4.99
455.657	5.18
456.014	5.08
456.371	5.12
456.727	5.2
457.084	5.05
457.441	5.09
457.797	5.29
458.154	4.93
458.51	5.24
458.867	4.99
459.223	5.21
459.58	5.22
459.936	5.31
460.292	5.05
460.648	4.97
461.005	4.94
461.361	5.15
461.717	4.97
462.073	5.12
462.429	5.1
462.785	5.15
463.141	5.26
463.496	5.18
463.852	5.2
464.208	5.38
464.564	5.34
464.919	5.26
465.275	5.4
465.631	5.3
465.986	5.36
466.342	5.38
466.697	5.2
467.052	5.25
467.408	5.34
467.763	5.26
468.118	5.5
468.473	5.27
468.829	5.25
469.184	5.41
469.539	5.39
469.894	5.24
470.249	5.4
470.603	5.41
470.958	5.45
471.313	5.6
471.668	5.34
472.023	5.43
472.377	5.41
472.732	5.33
473.086	5.37
473.441	5.43
473.795	5.51
474.15	5.39
474.504	5.22
474.859	5.38
475.213	5.54
475.567	5.4
475.921	5.5
476.275	5.41
476.63	5.65
476.984	5.4
477.338	5.5
477.692	5.51
478.045	5.45
478.399	5.36
478.753	5.47
479.107	5.56
479.461	5.43
479.814	5.52
480.168	5.55
480.521	5.49
480.875	5.51
481.228	5.41
481.582	5.6
481.935	5.66
482.289	5.58
482.642	5.46
482.995	5.38
483.348	5.41
483.701	5.55
484.055	5.44
484.408	5.33
484.761	5.37
485.114	5.27
485.466	5.18
485.819	5.12
486.172	5.06
486.525	5.11
486.878	5.14
487.23	5.17
487.583	5.26
487.936	5.29
488.288	5.34
488.641	5.4
488.993	5.3
489.345	5.23
489.698	5.2
490.05	5.2
490.402	5.23
490.754	5.28
491.107	5.31
491.459	5.41
491.811	5.42
492.163	5.51
492.515	5.47
492.866	5.48
493.218	5.35
493.57	5.34
493.922	5.31
494.274	5.36
494.625	5.36
494.977	5.39
495.328	5.49
495.68	5.57
496.031	5.56
496.383	5.67
496.734	5.73
497.086	5.56
497.437	5.64
497.788	5.58
498.139	5.71
498.49	5.68
498.842	5.63
499.193	5.69
499.544	5.61
499.894	5.66
500.245	5.6
500.596	5.64
500.947	5.72
501.298	5.61
501.648	5.73
501.999	5.83
502.35	5.73
502.7	5.89
503.051	5.85
503.401	5.81
503.752	5.81
504.102	5.85
504.452	5.74
504.803	5.76
505.153	5.94
505.503	5.86
505.853	5.88
506.203	5.72
506.553	5.68
506.903	5.75
507.253	5.82
507.603	5.89
507.953	5.93
508.303	5.79
508.652	5.95
509.002	5.87
509.352	5.84
509.701	5.94
510.051	5.81
510.4	5.75
510.75	5.89
511.099	5.89
511.449	5.88
511.798	5.96
512.147	5.9
512.496	5.99
512.846	5.81
513.195	5.86
513.544	5.93
513.893	5.76
514.242	5.93
514.591	5.92
514.939	5.94
515.288	5.86
515.637	5.93
515.986	5.95
516.334	5.97
516.683	6.07
517.032	5.94
517.38	5.9
517.729	5.99
518.077	6.17
518.426	5.99
518.774	5.9
519.122	6.12
519.47	5.97
519.819	5.92
520.167	5.88
520.515	5.94
520.863	5.99
521.211	5.96
521.559	6.06
521.907	5.91
522.255	6.06
522.602	6.17
522.95	5.99
523.298	6.11
523.645	6.18
523.993	6.19
524.341	6.16
524.688	6.15
525.036	6.27
525.383	6.2
525.73	6.41
526.078	6.28
526.425	6.34
526.772	6.14
527.119	6.18
527.466	6.14
527.814	6.16
528.161	6.18
528.508	6.2
528.854	6.18
529.201	6.16
529.548	6.23
529.895	6.21
530.242	6.04
530.588	6
530.935	5.98
531.282	6
531.628	6.06
531.975	6.05
532.321	6.09
532.667	6.2
533.014	6.26
533.36	6.41
533.706	6.34
534.052	6.41
534.399	6.37
534.745	6.29
535.091	6.23
535.437	6.26
535.783	6.31
536.129	6.29
536.474	6.4
536.82	6.46
537.166	6.41
537.512	6.51
537.857	6.59
538.203	6.55
538.549	6.56
538.894	6.38
539.239	6.43
539.585	6.51
539.93	6.53
540.276	6.63
540.621	6.66
540.966	6.75
541.311	6.74
541.656	6.74
542.001	6.88
542.346	6.73
542.691	6.64
543.036	6.52
543.381	6.49
543.726	6.48
544.071	6.51
544.415	6.6
544.76	6.57
545.105	6.7
545.449	6.69
545.794	6.71
546.138	6.73
546.483	6.83
546.827	6.84
547.171	7.01
547.516	6.92
547.86	7
548.204	6.83
548.548	6.86
548.892	6.93
549.236	6.89
549.58	6.92
549.924	6.92
550.268	7.02
550.612	7.18
550.956	7.28
551.3	7.14
551.643	7.2
551.987	7.21
552.33	7.29
552.674	7.25
553.017	7.24
553.361	7.32
553.704	7.39
554.048	7.3
554.391	7.37
554.734	7.39
555.077	7.27
555.42	7.27
555.764	7.33
556.107	7.5
556.45	7.4
556.793	7.33
557.135	7.28
557.478	7.33
557.821	7.48
558.164	7.53
558.507	7.64
558.849	7.65
559.192	7.74
559.534	7.76
559.877	7.52
560.219	7.66
560.562	7.87
560.904	7.61
561.246	7.88
561.589	7.65
561.931	7.82
562.273	7.88
562.615	7.99
562.957	7.85
563.299	8.09
563.641	8.04
563.983	7.79
564.325	7.64
564.667	7.96
565.008	7.98
565.35	7.95
565.692	7.97
566.033	7.94
566.375	8.07
566.716	7.94
567.058	8
567.399	8.14
567.741	7.97
568.082	8
568.423	8.04
568.764	8.08
569.105	7.97
569.447	8.03
569.788	8.04
570.129	8.15
570.47	8.22
570.811	8.46
571.151	8.28
571.492	8.34
571.833	8.41
572.174	8.35
572.514	8.27
572.855	8.36
573.195	8.4
573.536	8.36
573.876	8.49
574.217	8.37
574.557	8.34
574.898	8.39
575.238	8.35
575.578	8.36
575.918	8.42
576.258	8.48
576.598	8.7
576.938	8.62
577.278	8.48
577.618	8.49
577.958	8.62
578.298	8.74
578.638	8.8
578.977	8.82
579.317	8.8
579.657	8.53
579.996	8.75
580.336	8.99
580.675	8.95
581.014	8.77
581.354	9.01
581.693	9.08
582.032	9.13
582.372	9
582.711	9.28
583.05	9.45
583.389	9.24
583.728	8.96
584.067	9.27
584.406	9.39
584.745	9.22
585.083	9.37
585.422	9.46
585.761	9.28
586.1	9.31
586.438	9.24
586.777	9.37
587.115	9.49
587.454	9.46
587.792	9.5
588.13	9.66
588.469	9.59
588.807	9.17
589.145	9.67
589.483	9.6
589.821	9.6
590.159	9.58
590.497	9.41
590.835	9.75
591.173	9.45
591.511	9.72
591.849	9.58
592.187	9.55
592.524	9.82
592.862	9.73
593.2	10
593.537	9.81
593.875	9.52
594.212	9.95
594.55	9.93
594.887	9.83
595.224	9.97
595.561	9.98
595.899	9.97
596.236	10
596.573	9.93
596.91	10.37
597.247	9.93
597.584	10
597.921	10.28
598.258	10.34
598.594	10.25
598.931	10.01
599.268	10.08
599.604	10.22
599.941	10.22
600.277	10.32
600.614	10.49
600.95	10.43
601.287	10.41
601.623	10.46
601.959	10.43
602.296	10.91
602.632	10.57
602.968	10.59
603.304	10.86
603.64	10.44
603.976	10.76
604.312	10.81
604.648	10.97
604.984	10.76
605.319	10.94
605.655	10.63
605.991	10.71
606.326	10.63
606.662	10.59
606.998	10.6
607.333	10.57
607.668	10.58
608.004	10.88
608.339	10.67
608.674	11.08
609.01	11.25
609.345	11.08
609.68	11.24
610.015	11.12
610.35	11.35
610.685	11.2
611.02	11.35
611.355	11.24
611.689	11.01
612.024	11.42
612.359	11.26
612.694	11.3
613.028	11.56
613.363	11.54
613.697	11.6
614.032	11.53
614.366	11.61
614.7	11.74
615.035	11.54
615.369	11.79
615.703	11.55
616.037	11.65
616.371	12.01
616.705	11.77
617.039	11.68
617.373	12.08
617.707	11.95
618.041	11.85
618.375	11.75
618.709	11.89
619.042	12.03
619.376	12.55
619.71	12.34
620.043	12.11
620.377	12.14
620.71	12.3
621.043	12.35
621.377	12.12
621.71	12.05
622.043	12.43
622.376	12.59
622.709	12.61
623.043	12.42
623.376	12.47
623.709	12.21
624.041	12.48
624.374	12.4
624.707	12.51
625.04	12.54
625.373	13.09
625.705	12.36
626.038	12.64
626.37	12.43
626.703	12.69
627.035	12.36
627.368	12.91
627.7	12.76
628.032	12.9
628.365	12.86
628.697	12.77
629.029	12.9
629.361	12.8
629.693	12.83
630.025	12.9
630.357	12.78
630.689	13.02
631.021	13.22
631.353	13.06
631.684	12.78
632.016	13.36
632.348	13.18
632.679	13.02
633.011	13.04
633.342	12.9
633.674	13.34
634.005	13.4
634.336	13.86
634.668	13.41
634.999	13.38
635.33	13.14
635.661	13.6
635.992	13.91
636.323	13.99
636.654	13.56
636.985	13.44
637.316	13.48
637.647	13.66
637.977	13.4
638.308	13.77
638.639	13.52
638.969	13.9
639.3	13.91
639.63	14.08
639.961	13.79
640.291	13.67
640.622	14.05
640.952	13.92
641.282	13.79
641.612	14.44
641.943	14.57
642.273	14.04
642.603	14.08
642.933	14.25
643.263	14.72
643.592	14.2
643.922	14.26
644.252	14.1
644.582	14.08
644.911	14.26
645.241	14.56
645.571	14.93
645.9	14.08
646.23	14.4
646.559	14.57
646.888	14.94
647.218	14.45
647.547	14.62
647.876	14.37
648.205	14.84
648.534	14.41
648.863	15.07
649.192	14.45
649.521	14.91
649.85	14.87
650.179	14.67
650.508	14.77
650.837	15.05
651.165	15.06
651.494	14.89
651.822	15.11
652.151	15.23
652.479	15.07
652.808	15.12
653.136	14.87
653.465	15.72
653.793	15.52
654.121	15.65
654.449	15.07
654.777	15.1
655.105	15.13
655.433	15.65
655.761	15.5
656.089	15.9
656.417	14.97
656.745	16.12
657.073	15.94
657.4	16.32
657.728	15.7
658.056	15.5
658.383	15.77
658.711	15.56
659.038	15.22
659.365	16.07
659.693	16.01
660.02	16.26
660.347	15.97
660.674	15.41
661.001	15.81
661.329	15.88
661.656	16.04
661.982	15.8
662.309	16.01
662.636	16.17
662.963	16.25
663.29	16.37
663.616	16.46
663.943	15.87
664.27	16.58
664.596	15.9
664.923	16.53
665.249	16.2
665.576	16.15
665.902	16.22
666.228	16.49
666.554	16.81
666.881	16.23
667.207	16.44
667.533	16.52
667.859	16.62
668.185	17.07
668.511	16.92
668.837	17
669.162	17.38
669.488	16.6
669.814	16.5
670.139	16.77
670.465	16.9
670.791	17.06
671.116	16.78
671.442	17.01
671.767	16.8
672.092	17.16
672.418	17.37
672.743	17.37
673.068	17.48
673.393	17.15
673.718	16.96
674.043	16.97
674.368	17.3
674.693	17.7
675.018	18.12
675.343	17.53
675.667	17.39
675.992	17.91
676.317	17.94
676.641	17.33
676.966	17.42
677.29	17.82
677.615	17.71
677.939	17.17
678.264	17.89
678.588	17.8
678.912	17.97
679.236	18.05
679.56	17.62
679.885	18.48
680.209	17.98
680.532	17.71
680.856	17.87
681.18	18.13
681.504	18.39
681.828	18.48
682.152	18.13
682.475	17.98
682.799	18.57
683.122	17.86
683.446	18.35
683.769	18.48
684.093	18.29
684.416	18.92
684.739	18.01
685.062	17.85
685.386	18.6
685.709	18.58
686.032	18.84
686.355	18.59
686.678	18.69
687.001	18.74
687.324	18.34
