Data from 0341_forehead_Reflection__2__276.txt Node

Date: Fri Oct 20 22:54:27 CDT 2023
User: ToomeyLab
Spectrometer: FLMS14357
Trigger mode: 0
Integration Time (sec): 1.000000E-2
Scans to average: 100
Electric dark correction enabled: true
Nonlinearity correction enabled: false
Boxcar width: 0
XAxis mode: Wavelengths
Number of Pixels in Spectrum: 2048
>>>>>Begin Spectral Data<<<<<
189.047	1.45
189.435	1.45
189.823	1.45
190.211	621.15
190.599	249.41
190.987	39.49
191.375	248.13
191.763	193.72
192.151	100.63
192.538	5136.21
192.926	430.82
193.314	52.05
193.702	35.94
194.089	123.94
194.477	80.73
194.864	495.03
195.252	-42.58
195.639	-1038.03
196.027	83.59
196.414	119.59
196.801	89.25
197.189	1.29
197.576	36.16
197.963	357.89
198.351	84.3
198.738	9.16
199.125	71.33
199.512	76.72
199.899	36.13
200.286	13.79
200.673	58.08
201.06	51.67
201.447	24.41
201.833	42.95
202.22	38.89
202.607	62.11
202.994	53.91
203.38	57.2
203.767	39.75
204.154	69.87
204.54	72.22
204.927	50.24
205.313	-10.65
205.699	70.48
206.086	13.87
206.472	39.06
206.858	48.87
207.245	-9.97
207.631	42.86
208.017	4.26
208.403	63.08
208.789	56.19
209.175	66.36
209.561	17.88
209.947	24.34
210.333	21.44
210.719	56.99
211.105	60.13
211.491	64.09
211.876	7.73
212.262	46.36
212.648	45.54
213.034	21.05
213.419	7.47
213.805	14.47
214.19	30.91
214.576	34.74
214.961	44.67
215.346	54.41
215.732	19.65
216.117	3.48
216.502	30.11
216.888	36.57
217.273	17.41
217.658	22.41
218.043	39.81
218.428	3.01
218.813	19.34
219.198	37.26
219.583	-13.85
219.968	8.06
220.353	37.81
220.738	28.51
221.122	17.63
221.507	31.25
221.892	11.95
222.276	10.78
222.661	33.24
223.046	8.43
223.43	16.17
223.815	26.03
224.199	25.36
224.583	3.88
224.968	10.7
225.352	2.9
225.736	-1.85
226.121	12.1
226.505	6.01
226.889	5.66
227.273	5.39
227.657	10.24
228.041	6.56
228.425	6.23
228.809	5.82
229.193	2.53
229.577	6.08
229.961	3.82
230.344	3.93
230.728	3.33
231.112	4.31
231.495	2.72
231.879	4.37
232.263	5.52
232.646	2.74
233.03	3.56
233.413	2.56
233.797	4.41
234.18	4.35
234.563	6.08
234.946	6.86
235.33	5.74
235.713	3.44
236.096	3.51
236.479	4.67
236.862	4.65
237.245	4.57
237.628	2.2
238.011	5.22
238.394	3.37
238.777	4.73
239.16	4.08
239.543	6.16
239.925	5.86
240.308	4.68
240.691	2.95
241.073	5.88
241.456	5.14
241.838	3.38
242.221	4.35
242.603	4.54
242.986	3.74
243.368	4.85
243.75	3.63
244.133	2.92
244.515	3.24
244.897	3.4
245.279	3.9
245.661	3.35
246.043	3.46
246.425	3.44
246.807	3.01
247.189	3.23
247.571	3.48
247.953	3.11
248.335	3.71
248.717	3.01
249.098	2.98
249.48	3.12
249.862	3.45
250.243	3.75
250.625	3.56
251.006	3.69
251.388	3.48
251.769	4.23
252.151	3.92
252.532	3.73
252.913	4.16
253.295	3.1
253.676	3.45
254.057	3.38
254.438	3.54
254.819	3.43
255.2	3.78
255.581	3.73
255.962	3.14
256.343	3.66
256.724	2.39
257.105	3.75
257.486	4.16
257.867	3.94
258.247	4.4
258.628	4.11
259.009	3.87
259.389	3.35
259.77	3.52
260.15	4.46
260.531	3.9
260.911	3.53
261.292	2.97
261.672	3.53
262.052	3.47
262.432	3.22
262.813	3.43
263.193	3.21
263.573	3.74
263.953	3.54
264.333	3.36
264.713	3.78
265.093	3.65
265.473	3.89
265.853	3.78
266.233	4.03
266.612	3.64
266.992	3.34
267.372	3.99
267.752	3.84
268.131	3.79
268.511	3.53
268.89	3.34
269.27	3.08
269.649	3.11
270.029	3.58
270.408	3.59
270.787	3.77
271.167	3.59
271.546	3.9
271.925	3.68
272.304	3.55
272.683	3.56
273.062	3.51
273.441	3.63
273.82	3.1
274.199	4.01
274.578	3.4
274.957	3.54
275.336	3.37
275.715	3.52
276.093	3.03
276.472	3.68
276.851	3.82
277.229	3.78
277.608	3.55
277.986	3.14
278.365	3.63
278.743	3.25
279.122	3.49
279.5	3.5
279.878	3.17
280.257	3.43
280.635	3.84
281.013	3.39
281.391	3.61
281.769	3.11
282.147	3.18
282.525	3.32
282.903	3.44
283.281	3.63
283.659	3.49
284.037	3.61
284.415	3.08
284.792	3.2
285.17	3.3
285.548	3.46
285.925	3.07
286.303	3.05
286.68	3.24
287.058	3.74
287.435	3.19
287.813	2.9
288.19	3.1
288.567	3.49
288.945	3.75
289.322	3.65
289.699	2.87
290.076	4.08
290.453	3.33
290.83	3.32
291.207	3.92
291.584	3.17
291.961	3.34
292.338	3.02
292.715	3.58
293.092	3.92
293.469	3.82
293.845	3.48
294.222	3.64
294.599	3.58
294.975	3.95
295.352	4.18
295.728	3.79
296.105	3.49
296.481	3.36
296.858	3.27
297.234	3.81
297.61	3.38
297.986	3.42
298.363	3.99
298.739	3.82
299.115	3.9
299.491	3.7
299.867	3.88
300.243	3.77
300.619	3.78
300.995	3.81
301.371	4.22
301.746	3.58
302.122	4.33
302.498	4.08
302.874	3.72
303.249	3.97
303.625	4.08
304	4.99
304.376	3.46
304.751	3.79
305.127	4.45
305.502	4.67
305.878	4.42
306.253	4.73
306.628	4.48
307.003	4.24
307.378	4.31
307.754	4.47
308.129	4.77
308.504	5.09
308.879	4.85
309.254	5.07
309.629	4.37
310.003	3.97
310.378	5.38
310.753	4.68
311.128	4.99
311.502	4.82
311.877	4.86
312.252	5.07
312.626	5.18
313.001	4.83
313.375	4.75
313.75	4.86
314.124	4.47
314.498	5.19
314.873	4.82
315.247	5.41
315.621	4.9
315.995	5.35
316.369	5
316.743	5.82
317.117	5.55
317.491	4.91
317.865	5.74
318.239	6.08
318.613	5.88
318.987	5.81
319.361	4.86
319.734	5.37
320.108	5.39
320.482	6
320.855	5.91
321.229	6.24
321.602	5.93
321.976	5.53
322.349	6.18
322.723	5.87
323.096	6.59
323.469	6.09
323.843	5.92
324.216	6.16
324.589	6.29
324.962	6.46
325.335	6.44
325.708	6.33
326.081	6.55
326.454	6.29
326.827	7.03
327.2	6.67
327.573	6.91
327.945	6.37
328.318	6.17
328.691	6.79
329.063	6.88
329.436	6.47
329.809	6.55
330.181	7.07
330.553	7.06
330.926	6.81
331.298	6.55
331.671	7.34
332.043	7.2
332.415	7.06
332.787	7.04
333.159	6.35
333.532	7.16
333.904	6.87
334.276	7.44
334.648	7.09
335.02	7.64
335.391	7.04
335.763	7.74
336.135	7.49
336.507	7.19
336.879	7.02
337.25	7.62
337.622	7.65
337.993	7.3
338.365	7.57
338.736	7.35
339.108	7.62
339.479	7.39
339.851	7.48
340.222	6.98
340.593	7.29
340.964	7.74
341.336	8.05
341.707	7.51
342.078	7.72
342.449	7.51
342.82	7.79
343.191	7.81
343.562	7.91
343.933	7.49
344.303	7.91
344.674	7.85
345.045	8.13
345.416	7.99
345.786	8.12
346.157	7.99
346.527	7.74
346.898	7.87
347.268	8.09
347.639	8.16
348.009	7.77
348.38	8.21
348.75	8.35
349.12	8.04
349.49	7.65
349.861	8.22
350.231	8.19
350.601	8.61
350.971	8.37
351.341	8.52
351.711	8.67
352.081	8.59
352.45	8.2
352.82	8.65
353.19	8.6
353.56	8.66
353.929	8.35
354.299	8.61
354.669	9.22
355.038	8.59
355.408	8.66
355.777	8.52
356.147	8.8
356.516	8.58
356.885	8.75
357.254	8.91
357.624	8.58
357.993	8.38
358.362	8.81
358.731	8.58
359.1	8.59
359.469	8.76
359.838	8.91
360.207	8.82
360.576	9.18
360.945	8.78
361.314	9.26
361.682	9.21
362.051	9.01
362.42	9.14
362.788	9.38
363.157	9.14
363.525	9.1
363.894	9.08
364.262	9
364.631	9.34
364.999	9.45
365.367	9.48
365.735	9.71
366.104	9.31
366.472	9.39
366.84	9.63
367.208	9.45
367.576	9.58
367.944	9.84
368.312	9.88
368.68	9.95
369.048	9.84
369.416	10.19
369.783	10.18
370.151	9.66
370.519	9.86
370.886	9.86
371.254	10.21
371.621	10.21
371.989	9.86
372.356	10.26
372.724	10.4
373.091	10.25
373.458	9.87
373.826	10.31
374.193	9.92
374.56	10.27
374.927	10.34
375.294	10.65
375.661	10.31
376.028	10.28
376.395	10.73
376.762	10.55
377.129	10.37
377.496	10.46
377.863	10.77
378.229	10.8
378.596	10.91
378.963	10.69
379.329	10.75
379.696	10.65
380.062	10.63
380.429	10.87
380.795	10.98
381.161	10.87
381.528	11.23
381.894	10.8
382.26	11.05
382.626	11.12
382.993	11.02
383.359	11.04
383.725	11.46
384.091	11.52
384.457	11.26
384.823	11.27
385.188	11.5
385.554	11.29
385.92	11.37
386.286	11.54
386.651	11.24
387.017	11.64
387.383	11.38
387.748	11.33
388.114	11.08
388.479	11.69
388.845	11.53
389.21	11.64
389.575	11.48
389.94	11.49
390.306	11.49
390.671	11.63
391.036	11.51
391.401	11.79
391.766	11.87
392.131	11.82
392.496	12.05
392.861	11.94
393.226	11.91
393.591	11.86
393.956	11.95
394.32	12.19
394.685	11.8
395.05	12.26
395.414	12.16
395.779	11.83
396.143	12.03
396.508	12.16
396.872	11.99
397.236	12.22
397.601	12.14
397.965	11.93
398.329	12.11
398.694	12.22
399.058	12.07
399.422	12.27
399.786	12.24
400.15	12.17
400.514	12.49
400.878	12.68
401.242	12.64
401.605	12.26
401.969	12.39
402.333	12.35
402.697	12.57
403.06	12.58
403.424	12.52
403.787	12.76
404.151	12.68
404.514	12.5
404.878	12.78
405.241	12.8
405.604	12.69
405.968	12.64
406.331	12.55
406.694	12.54
407.057	12.5
407.42	12.72
407.783	12.69
408.146	12.54
408.509	12.65
408.872	12.88
409.235	13.01
409.598	12.98
409.961	13.11
410.323	13.09
410.686	12.83
411.049	12.95
411.411	12.71
411.774	12.79
412.136	12.74
412.499	13.01
412.861	13.05
413.223	13.15
413.586	13.05
413.948	12.93
414.31	13.18
414.672	13.2
415.035	12.99
415.397	13.1
415.759	13.22
416.121	13.31
416.483	13.19
416.845	13.21
417.206	13.32
417.568	13.39
417.93	13.31
418.292	13.07
418.653	13.33
419.015	13.29
419.377	13.4
419.738	13.28
420.1	13.32
420.461	13.39
420.822	13.19
421.184	13.47
421.545	13.4
421.906	13.43
422.267	13.5
422.629	13.57
422.99	13.38
423.351	13.4
423.712	13.5
424.073	13.66
424.434	13.6
424.795	13.78
425.155	13.85
425.516	13.86
425.877	13.95
426.238	13.94
426.598	14.08
426.959	14.01
427.32	14.14
427.68	14.21
428.041	14.32
428.401	14.54
428.761	14.68
429.122	14.64
429.482	14.81
429.842	15.03
430.202	14.97
430.563	15.03
430.923	15.24
431.283	15.07
431.643	15.07
432.003	15.55
432.363	15.15
432.722	15.45
433.082	15.45
433.442	15.4
433.802	15.63
434.161	15.41
434.521	15.79
434.881	15.76
435.24	15.59
435.6	15.53
435.959	15.66
436.319	15.71
436.678	15.85
437.037	16.02
437.396	16.06
437.756	16.19
438.115	16.12
438.474	16.16
438.833	16.35
439.192	16.18
439.551	16.33
439.91	16.41
440.269	16.37
440.628	16.52
440.987	16.41
441.345	16.35
441.704	16.51
442.063	16.48
442.421	16.53
442.78	16.62
443.138	16.62
443.497	16.57
443.855	16.74
444.214	17.04
444.572	16.97
444.93	17.25
445.288	17.26
445.647	17.31
446.005	17.23
446.363	17.31
446.721	17.26
447.079	17.42
447.437	17.32
447.795	17.16
448.153	17.21
448.51	17.32
448.868	17.2
449.226	17.38
449.584	17.46
449.941	17.45
450.299	17.69
450.656	17.66
451.014	17.89
451.371	18
451.729	18.03
452.086	17.94
452.443	18.09
452.801	18.38
453.158	18.28
453.515	18.32
453.872	18.47
454.229	18.55
454.586	18.63
454.943	18.47
455.3	18.56
455.657	18.6
456.014	18.8
456.371	18.76
456.727	19.01
457.084	18.94
457.441	18.91
457.797	18.99
458.154	18.91
458.51	19.27
458.867	19.09
459.223	19.14
459.58	19.3
459.936	19.43
460.292	19.35
460.648	19.2
461.005	19.33
461.361	19.25
461.717	19.01
462.073	19.11
462.429	19.22
462.785	19.37
463.141	19.52
463.496	19.56
463.852	19.84
464.208	19.97
464.564	20.11
464.919	19.97
465.275	20.31
465.631	20.39
465.986	20.36
466.342	20.47
466.697	20.56
467.052	20.22
467.408	20.33
467.763	20.56
468.118	20.71
468.473	20.5
468.829	20.62
469.184	20.75
469.539	20.81
469.894	20.72
470.249	20.76
470.603	20.86
470.958	21.09
471.313	21.18
471.668	21.21
472.023	21.28
472.377	21.32
472.732	21.19
473.086	21.53
473.441	21.43
473.795	21.62
474.15	21.58
474.504	21.52
474.859	21.78
475.213	21.82
475.567	21.61
475.921	21.81
476.275	21.8
476.63	21.95
476.984	22.14
477.338	22.02
477.692	22.03
478.045	22.11
478.399	22
478.753	22.12
479.107	22.2
479.461	22.22
479.814	22.42
480.168	22.19
480.521	22.14
480.875	22.31
481.228	22.51
481.582	22.53
481.935	22.37
482.289	22.6
482.642	22.63
482.995	22.54
483.348	22.66
483.701	22.51
484.055	22.49
484.408	22.27
484.761	22.25
485.114	22.06
485.466	21.84
485.819	21.65
486.172	21.58
486.525	21.73
486.878	22.02
487.23	22.16
487.583	22.35
487.936	22.49
488.288	22.64
488.641	22.67
488.993	22.47
489.345	22.4
489.698	22.36
490.05	22.4
490.402	22.49
490.754	22.67
491.107	22.89
491.459	23.07
491.811	23.31
492.163	23.43
492.515	23.57
492.866	23.57
493.218	23.31
493.57	23.06
493.922	23
494.274	23.18
494.625	23.32
494.977	23.69
495.328	23.81
495.68	24.3
496.031	24.32
496.383	24.45
496.734	24.55
497.086	24.64
497.437	24.83
497.788	24.78
498.139	24.86
498.49	24.65
498.842	24.49
499.193	24.77
499.544	24.65
499.894	24.86
500.245	24.78
500.596	25.12
500.947	25.19
501.298	25.2
501.648	25.18
501.999	25.53
502.35	25.45
502.7	25.71
503.051	25.75
503.401	25.53
503.752	25.84
504.102	25.95
504.452	25.85
504.803	25.97
505.153	25.97
505.503	25.96
505.853	26.09
506.203	25.93
506.553	26.11
506.903	26.29
507.253	26.25
507.603	26.29
507.953	26.43
508.303	26.51
508.652	26.41
509.002	26.46
509.352	26.66
509.701	26.61
510.051	26.37
510.4	26.39
510.75	26.39
511.099	26.51
511.449	26.49
511.798	26.58
512.147	26.62
512.496	26.69
512.846	26.67
513.195	26.82
513.544	26.9
513.893	26.79
514.242	26.89
514.591	27.11
514.939	27.01
515.288	27.12
515.637	27.31
515.986	27.31
516.334	27.39
516.683	27.46
517.032	27.48
517.38	27.47
517.729	27.65
518.077	27.68
518.426	27.76
518.774	27.56
519.122	27.71
519.47	27.63
519.819	27.46
520.167	27.42
520.515	27.36
520.863	27.34
521.211	27.5
521.559	27.66
521.907	27.65
522.255	27.87
522.602	28.09
522.95	27.84
523.298	28.04
523.645	28.37
523.993	28.39
524.341	28.42
524.688	28.35
525.036	28.73
525.383	28.58
525.73	28.76
526.078	28.86
526.425	28.94
526.772	28.64
527.119	28.52
527.466	28.16
527.814	28.07
528.161	28.2
528.508	28.38
528.854	28.42
529.201	28.54
529.548	28.47
529.895	28.32
530.242	28.05
530.588	27.71
530.935	27.75
531.282	27.97
531.628	28.18
531.975	28.34
532.321	28.51
532.667	28.65
533.014	28.88
533.36	29.13
533.706	29.13
534.052	29.16
534.399	29.11
534.745	29.04
535.091	28.83
535.437	28.79
535.783	28.82
536.129	29.03
536.474	29.36
536.82	29.48
537.166	29.72
537.512	29.96
537.857	29.92
538.203	29.84
538.549	29.82
538.894	29.63
539.239	29.7
539.585	29.95
539.93	30.13
540.276	30.3
540.621	30.5
540.966	30.44
541.311	30.72
541.656	30.87
542.001	30.95
542.346	30.77
542.691	30.45
543.036	30.16
543.381	29.95
543.726	29.82
544.071	29.98
544.415	30.21
544.76	30.44
545.105	30.54
545.449	30.57
545.794	30.78
546.138	30.92
546.483	31.2
546.827	31.43
547.171	31.48
547.516	31.3
547.86	31.67
548.204	31.46
548.548	31.26
548.892	31.58
549.236	31.55
549.58	31.64
549.924	32.04
550.268	32.03
550.612	32.15
550.956	32.37
551.3	32.28
551.643	32.63
551.987	32.59
552.33	32.72
552.674	32.75
553.017	32.77
553.361	32.79
553.704	33
554.048	32.82
554.391	32.86
554.734	32.82
555.077	32.66
555.42	32.82
555.764	32.97
556.107	33.22
556.45	33.17
556.793	33.25
557.135	33.25
557.478	33.57
557.821	33.55
558.164	33.56
558.507	33.61
558.849	33.93
559.192	34
559.534	34.12
559.877	33.7
560.219	33.97
560.562	34.33
560.904	34.04
561.246	34.28
561.589	34.24
561.931	34.47
562.273	34.28
562.615	34.7
562.957	34.5
563.299	34.31
563.641	34.42
563.983	34.39
564.325	34.27
564.667	34.69
565.008	34.74
565.35	34.8
565.692	34.86
566.033	34.94
566.375	35.07
566.716	35.19
567.058	34.96
567.399	35.01
567.741	34.74
568.082	34.91
568.423	34.95
568.764	34.67
569.105	35.14
569.447	35.15
569.788	34.9
570.129	35.47
570.47	35.49
570.811	35.67
571.151	35.34
571.492	35.62
571.833	35.54
572.174	35.7
572.514	35.7
572.855	35.68
573.195	35.76
573.536	35.61
573.876	35.78
574.217	35.74
574.557	35.64
574.898	35.97
575.238	35.94
575.578	36.08
575.918	36.28
576.258	36.3
576.598	36.3
576.938	36.41
577.278	36.23
577.618	36.21
577.958	36.54
578.298	36.28
578.638	36.65
578.977	36.8
579.317	36.89
579.657	36.67
579.996	37.2
580.336	37.18
580.675	37.41
581.014	37.31
581.354	37.34
581.693	37.57
582.032	37.7
582.372	37.63
582.711	37.62
583.05	37.89
583.389	37.66
583.728	37.89
584.067	37.96
584.406	38.27
584.745	38.21
585.083	38.06
585.422	37.8
585.761	38.26
586.1	38.36
586.438	38.12
586.777	38.23
587.115	38.56
587.454	38.7
587.792	38.57
588.13	38.85
588.469	38.88
588.807	38.85
589.145	38.73
589.483	38.5
589.821	38.72
590.159	38.85
590.497	38.99
590.835	39.16
591.173	38.95
591.511	39.12
591.849	39.07
592.187	39.1
592.524	39.16
592.862	39.28
593.2	39.61
593.537	39.41
593.875	39.54
594.212	39.52
594.55	39.56
594.887	39.69
595.224	39.55
595.561	39.66
595.899	39.49
596.236	39.64
596.573	40
596.91	40.01
597.247	40.04
597.584	39.97
597.921	40.31
598.258	39.99
598.594	40.22
598.931	39.65
599.268	39.72
599.604	39.95
599.941	39.89
600.277	40.14
600.614	40.47
600.95	40.29
601.287	40.45
601.623	40.79
601.959	40.96
602.296	40.96
602.632	40.87
602.968	41.17
603.304	40.97
603.64	40.94
603.976	41.22
604.312	41.25
604.648	41.46
604.984	41.24
605.319	40.75
605.655	40.85
605.991	40.98
606.326	41.02
606.662	40.82
606.998	40.94
607.333	40.65
607.668	40.89
608.004	41.35
608.339	41.32
608.674	41.49
609.01	41.77
609.345	41.96
609.68	41.87
610.015	42.05
610.35	42.24
610.685	42.44
611.02	42.12
611.355	41.91
611.689	41.89
612.024	41.95
612.359	41.79
612.694	42.22
613.028	42.52
613.363	42.61
613.697	42.61
614.032	42.63
614.366	43.14
614.7	42.85
615.035	43.32
615.369	43.42
615.703	43.08
616.037	43.31
616.371	42.84
616.705	43.53
617.039	43.13
617.373	43.08
617.707	43.76
618.041	43.56
618.375	43.66
618.709	43.71
619.042	44.05
619.376	44.04
619.71	43.89
620.043	43.96
620.377	43.57
620.71	43.92
621.043	44.49
621.377	43.69
621.71	44.29
622.043	44.3
622.376	44.26
622.709	44.44
623.043	44.74
623.376	44.04
623.709	44.68
624.041	44.42
624.374	44.37
624.707	44.65
625.04	45.01
625.373	44.35
625.705	45.04
626.038	44.67
626.37	44.14
626.703	44.88
627.035	44.75
627.368	44.93
627.7	45.46
628.032	45.42
628.365	44.87
628.697	45.27
629.029	44.79
629.361	45.11
629.693	44.89
630.025	45.19
630.357	45.17
630.689	45.26
631.021	45.37
631.353	45.34
631.684	45.78
632.016	45.63
632.348	45.66
632.679	45.79
633.011	46
633.342	45.98
633.674	45.73
634.005	46.27
634.336	46.18
634.668	46.08
634.999	46.31
635.33	45.77
635.661	46.21
635.992	46.32
636.323	46.32
636.654	46.46
636.985	46.29
637.316	46.1
637.647	46.47
637.977	46.31
638.308	46.56
638.639	46.75
638.969	46.81
639.3	46.71
639.63	46.5
639.961	46.79
640.291	46.88
640.622	46.87
640.952	47.27
641.282	47.59
641.612	47.69
641.943	47.77
642.273	47.42
642.603	48.06
642.933	48.14
643.263	47.88
643.592	48.34
643.922	48.21
644.252	48.11
644.582	47.89
644.911	47.83
645.241	48.17
645.571	48.3
645.9	47.79
646.23	48.1
646.559	48.37
646.888	48.54
647.218	48.23
647.547	48.14
647.876	48.36
648.205	48.49
648.534	47.93
648.863	49.05
649.192	47.95
649.521	48.76
649.85	48.07
650.179	49.19
650.508	49.18
650.837	49.05
651.165	49.12
651.494	48.77
651.822	49.08
652.151	49.09
652.479	48.75
652.808	49.13
653.136	48.88
653.465	49.47
653.793	49.49
654.121	49.32
654.449	48.82
654.777	49.57
655.105	49.41
655.433	49.85
655.761	49.55
656.089	49.56
656.417	49.25
656.745	50.21
657.073	50.13
657.4	49.93
657.728	50.64
658.056	49.89
658.383	50.4
658.711	49.89
659.038	49.88
659.365	50.52
659.693	50.29
660.02	49.93
660.347	50.62
660.674	50.65
661.001	50.03
661.329	49.96
661.656	50.09
661.982	49.98
662.309	50.62
662.636	50.41
662.963	50.5
663.29	50.37
663.616	50.71
663.943	50.99
664.27	50.77
664.596	51.11
664.923	50.91
665.249	50.92
665.576	51.12
665.902	50.89
666.228	51.94
666.554	51.8
666.881	51
667.207	51.9
667.533	51.74
667.859	51.84
668.185	52.31
668.511	51.54
668.837	51.55
669.162	51.65
669.488	52.28
669.814	51.9
670.139	52.65
670.465	52.18
670.791	52
671.116	51.46
671.442	52.38
671.767	51.96
672.092	52.16
