Data from 0341_chest_Reflection__2__263.txt Node

Date: Fri Oct 20 22:45:47 CDT 2023
User: ToomeyLab
Spectrometer: FLMS14357
Trigger mode: 0
Integration Time (sec): 1.000000E-2
Scans to average: 100
Electric dark correction enabled: true
Nonlinearity correction enabled: false
Boxcar width: 0
XAxis mode: Wavelengths
Number of Pixels in Spectrum: 2048
>>>>>Begin Spectral Data<<<<<
189.047	-69.03
189.435	-69.03
189.823	-69.03
190.211	159.38
190.599	117.95
190.987	43.3
191.375	162.82
191.763	82.98
192.151	256.76
192.538	2127.59
192.926	129.87
193.314	58.99
193.702	68.53
194.089	156.51
194.477	382.06
194.864	-1928.07
195.252	114.64
195.639	-1551.28
196.027	-50.33
196.414	74.08
196.801	101.09
197.189	-83.44
197.576	8.42
197.963	148.45
198.351	83.37
198.738	36.81
199.125	40.74
199.512	9.26
199.899	-20.92
200.286	-84.65
200.673	36.84
201.06	-2.44
201.447	12.4
201.833	25.67
202.22	8.79
202.607	39.42
202.994	42.39
203.38	11.15
203.767	19.29
204.154	38.16
204.54	18.31
204.927	37.66
205.313	-9.61
205.699	92.43
206.086	-9.16
206.472	26.91
206.858	37.63
207.245	-22.49
207.631	36.98
208.017	-8.89
208.403	-32.57
208.789	51.19
209.175	31
209.561	41.46
209.947	5.83
210.333	14.04
210.719	18.96
211.105	19.68
211.491	30.24
211.876	18.93
212.262	40.85
212.648	25.02
213.034	-10.62
213.419	-2.59
213.805	2.13
214.19	17.35
214.576	-21.16
214.961	3.92
215.346	13
215.732	20.14
216.117	14.82
216.502	-2.76
216.888	38
217.273	-19.78
217.658	-6.91
218.043	15.86
218.428	-4.95
218.813	19.51
219.198	-9.34
219.583	-38.62
219.968	15.67
220.353	36.12
220.738	-4.06
221.122	-23.42
221.507	-2.21
221.892	9.73
222.276	6.97
222.661	30.36
223.046	-0.95
223.43	6.81
223.815	3.3
224.199	22.54
224.583	-18.3
224.968	-8.03
225.352	0.24
225.736	2.35
226.121	8.16
226.505	8.06
226.889	2.48
227.273	3.52
227.657	7.3
228.041	6.73
228.425	4.1
228.809	9.88
229.193	5.89
229.577	5.14
229.961	3.99
230.344	2.64
230.728	3.09
231.112	4.93
231.495	4.6
231.879	4.58
232.263	3.99
232.646	4.03
233.03	2.78
233.413	3.33
233.797	4.12
234.18	4.25
234.563	5.89
234.946	5.12
235.33	4.67
235.713	3.85
236.096	6.11
236.479	4.85
236.862	2.84
237.245	3.64
237.628	3.11
238.011	4.02
238.394	3.68
238.777	3.95
239.16	3.34
239.543	5.06
239.925	5.8
240.308	5.66
240.691	3.52
241.073	4.84
241.456	4.58
241.838	3.21
242.221	3.85
242.603	4.23
242.986	4.38
243.368	4.87
243.75	3.84
244.133	3.31
244.515	3.54
244.897	3.79
245.279	4.04
245.661	3.32
246.043	3.44
246.425	4
246.807	4.07
247.189	4.01
247.571	3.17
247.953	3.76
248.335	3.74
248.717	3.17
249.098	3.51
249.48	3.49
249.862	3.55
250.243	3.96
250.625	3.78
251.006	3.79
251.388	3.69
251.769	3.44
252.151	2.62
252.532	2.85
252.913	3.64
253.295	2.87
253.676	3.61
254.057	3.27
254.438	3.72
254.819	3.53
255.2	3.89
255.581	3.6
255.962	4.07
256.343	4.27
256.724	3.41
257.105	3.02
257.486	3.59
257.867	4.59
258.247	3.13
258.628	2.78
259.009	3.44
259.389	3.6
259.77	3.01
260.15	3.4
260.531	3.76
260.911	3.5
261.292	3.36
261.672	3.34
262.052	3.54
262.432	3.26
262.813	3.16
263.193	3.6
263.573	3.78
263.953	3.01
264.333	3.46
264.713	4.27
265.093	3.38
265.473	3.98
265.853	3.29
266.233	3.38
266.612	3.34
266.992	3.37
267.372	2.91
267.752	3.04
268.131	3.36
268.511	3.88
268.89	3.46
269.27	3.28
269.649	2.83
270.029	3.46
270.408	3.61
270.787	3.69
271.167	3.08
271.546	3.48
271.925	3.67
272.304	3.47
272.683	3.43
273.062	3.68
273.441	3.5
273.82	3.38
274.199	3.3
274.578	3.43
274.957	3.59
275.336	3.61
275.715	3.59
276.093	3.57
276.472	3.54
276.851	3.94
277.229	3.76
277.608	2.9
277.986	3.15
278.365	3.85
278.743	3.14
279.122	3.41
279.5	3.57
279.878	3.03
280.257	3.79
280.635	3.19
281.013	3.21
281.391	3.69
281.769	3.15
282.147	3.32
282.525	3.52
282.903	3.43
283.281	3.32
283.659	3.24
284.037	3.52
284.415	2.96
284.792	2.96
285.17	3.13
285.548	3.04
285.925	2.59
286.303	2.85
286.68	2.81
287.058	3.82
287.435	3.47
287.813	2.92
288.19	3.25
288.567	3.26
288.945	3.43
289.322	3.46
289.699	2.56
290.076	3.55
290.453	3.53
290.83	3.39
291.207	3.54
291.584	3.08
291.961	3.18
292.338	2.99
292.715	3.27
293.092	3.2
293.469	3.44
293.845	3.09
294.222	3.37
294.599	3.41
294.975	4.36
295.352	3.83
295.728	3.58
296.105	3.39
296.481	3.37
296.858	3.32
297.234	3.28
297.61	3.03
297.986	2.97
298.363	3.48
298.739	3.32
299.115	3.38
299.491	3.32
299.867	3.57
300.243	3.35
300.619	3.43
300.995	3.27
301.371	3.74
301.746	3.21
302.122	3.87
302.498	3.31
302.874	3.74
303.249	3.12
303.625	3.3
304	3.98
304.376	3
304.751	3.39
305.127	2.75
305.502	4.11
305.878	3.42
306.253	3.59
306.628	3.8
307.003	3.47
307.378	3.49
307.754	3.28
308.129	4.1
308.504	3.38
308.879	3.85
309.254	4
309.629	2.62
310.003	3.11
310.378	3.56
310.753	3.67
311.128	3.85
311.502	3.58
311.877	3.68
312.252	3.37
312.626	3.82
313.001	3.33
313.375	3.81
313.75	3.37
314.124	3.21
314.498	3.66
314.873	3.47
315.247	3.77
315.621	3.66
315.995	3.69
316.369	3.55
316.743	3.86
317.117	3.6
317.491	3.1
317.865	3.94
318.239	4
318.613	3.86
318.987	3.84
319.361	3.32
319.734	3.24
320.108	2.72
320.482	3.4
320.855	3.48
321.229	3.88
321.602	3.85
321.976	3.44
322.349	4.09
322.723	3.87
323.096	3.27
323.469	3.8
323.843	3.72
324.216	4.01
324.589	3.65
324.962	4.49
325.335	3.97
325.708	3.38
326.081	3.38
326.454	4.34
326.827	4.16
327.2	3.71
327.573	4.29
327.945	3.78
328.318	3.47
328.691	3.68
329.063	3.85
329.436	3.35
329.809	4.01
330.181	3.82
330.553	3.99
330.926	4.08
331.298	3.7
331.671	3.53
332.043	3.11
332.415	3.84
332.787	3.99
333.159	3.52
333.532	4.05
333.904	3.76
334.276	3.06
334.648	4
335.02	4.25
335.391	3.73
335.763	3.96
336.135	3.76
336.507	3.82
336.879	3.62
337.25	3.3
337.622	4.21
337.993	4.1
338.365	3.76
338.736	3.79
339.108	3.68
339.479	3.84
339.851	4.13
340.222	3.38
340.593	3.5
340.964	4.01
341.336	4
341.707	3.53
342.078	4.09
342.449	3.49
342.82	3.74
343.191	3.87
343.562	4.01
343.933	3.76
344.303	4.02
344.674	4.21
345.045	3.88
345.416	3.98
345.786	3.69
346.157	3.84
346.527	3.79
346.898	3.69
347.268	3.7
347.639	3.95
348.009	3.92
348.38	4.01
348.75	3.77
349.12	4.06
349.49	3.82
349.861	4.14
350.231	3.62
350.601	3.98
350.971	4.22
351.341	3.92
351.711	4.2
352.081	3.98
352.45	3.68
352.82	4.01
353.19	4.12
353.56	3.93
353.929	3.9
354.299	3.93
354.669	4.01
355.038	4.25
355.408	3.83
355.777	3.83
356.147	3.83
356.516	3.79
356.885	3.98
357.254	3.8
357.624	3.8
357.993	3.84
358.362	4.17
358.731	3.46
359.1	3.62
359.469	3.49
359.838	3.79
360.207	4.13
360.576	4.15
360.945	3.57
361.314	3.74
361.682	4.02
362.051	3.92
362.42	3.67
362.788	4.11
363.157	3.94
363.525	3.73
363.894	3.85
364.262	3.94
364.631	3.78
364.999	3.83
365.367	4.06
365.735	3.89
366.104	3.74
366.472	3.85
366.84	4.39
367.208	3.91
367.576	3.76
367.944	4.01
368.312	3.74
368.68	4.43
369.048	3.74
369.416	4.17
369.783	4.12
370.151	3.84
370.519	3.78
370.886	4.15
371.254	4.24
371.621	4.15
371.989	4.02
372.356	4.15
372.724	4.41
373.091	4.31
373.458	3.72
373.826	4.07
374.193	3.85
374.56	4
374.927	4.03
375.294	4.15
375.661	3.98
376.028	4.13
376.395	4.21
376.762	3.59
377.129	4.02
377.496	3.93
377.863	4.33
378.229	4.35
378.596	4.21
378.963	4.05
379.329	4.12
379.696	3.93
380.062	4.12
380.429	3.91
380.795	3.97
381.161	3.94
381.528	4.41
381.894	3.84
382.26	4
382.626	4.22
382.993	4
383.359	3.92
383.725	4.14
384.091	4.22
384.457	3.98
384.823	4.17
385.188	4.23
385.554	4.09
385.92	3.96
386.286	4.22
386.651	3.97
387.017	4.23
387.383	4.11
387.748	4
388.114	4.07
388.479	3.93
388.845	4.27
389.21	4.17
389.575	3.89
389.94	4.17
390.306	3.88
390.671	4.06
391.036	4.13
391.401	4.42
391.766	4.08
392.131	4.19
392.496	4.36
392.861	4.1
393.226	4.16
393.591	4.08
393.956	4.25
394.32	4.41
394.685	4.06
395.05	4.24
395.414	4.47
395.779	4.01
396.143	4.07
396.508	4.19
396.872	4.07
397.236	4.09
397.601	4.2
397.965	3.89
398.329	3.8
398.694	4.18
399.058	3.95
399.422	4.22
399.786	4.15
400.15	3.95
400.514	3.99
400.878	4.22
401.242	4.32
401.605	4.22
401.969	3.96
402.333	4.1
402.697	4.32
403.06	4.08
403.424	4.14
403.787	4.27
404.151	4.16
404.514	4.25
404.878	4.45
405.241	4.2
405.604	3.92
405.968	4.09
406.331	4.15
406.694	4.04
407.057	4.06
407.42	4.45
407.783	4.4
408.146	4.22
408.509	4.1
408.872	4.27
409.235	4.1
409.598	4.21
409.961	4.15
410.323	4.19
410.686	3.97
411.049	3.79
411.411	3.93
411.774	4.23
412.136	4.07
412.499	4.1
412.861	4.27
413.223	4.26
413.586	4.1
413.948	4.33
414.31	4.3
414.672	4.11
415.035	4.07
415.397	4.16
415.759	4.03
416.121	4.21
416.483	4.4
416.845	4.32
417.206	4.18
417.568	4.13
417.93	4.14
418.292	4.11
418.653	4.19
419.015	4.08
419.377	4.15
419.738	3.99
420.1	4.02
420.461	4.11
420.822	4.16
421.184	4.07
421.545	4.15
421.906	4.07
422.267	4.11
422.629	4.28
422.99	3.98
423.351	4.09
423.712	4.13
424.073	4.13
424.434	4.1
424.795	4.01
425.155	4.13
425.516	4.11
425.877	4.21
426.238	4.01
426.598	4.08
426.959	4.04
427.32	4.19
427.68	4.18
428.041	4.12
428.401	4.19
428.761	4.15
429.122	4.12
429.482	4.17
429.842	4.13
430.202	4.23
430.563	4.17
430.923	4.27
431.283	4.11
431.643	4.31
432.003	4.35
432.363	4.18
432.722	4.38
433.082	4.17
433.442	4.1
433.802	4.51
434.161	4
434.521	4.38
434.881	4.4
435.24	4.23
435.6	4.2
435.959	4.24
436.319	4.24
436.678	4.28
437.037	4.18
437.396	4.33
437.756	4.28
438.115	4.12
438.474	4.39
438.833	4.35
439.192	4.1
439.551	4.24
439.91	4.45
440.269	4.46
440.628	4.35
440.987	4.23
441.345	4.15
441.704	4.23
442.063	4.26
442.421	4.25
442.78	4.23
443.138	4.36
443.497	4.37
443.855	4.3
444.214	4.25
444.572	4.29
444.93	4.47
445.288	4.32
445.647	4.49
446.005	4.1
446.363	4.26
446.721	4.29
447.079	4.52
447.437	4.33
447.795	4.29
448.153	4.25
448.51	4.26
448.868	4.24
449.226	4.29
449.584	4.29
449.941	4.33
450.299	4.38
450.656	4.3
451.014	4.24
451.371	4.33
451.729	4.23
452.086	4.36
452.443	4.45
452.801	4.45
453.158	4.47
453.515	4.24
453.872	4.32
454.229	4.42
454.586	4.37
454.943	4.33
455.3	4.4
455.657	4.43
456.014	4.25
456.371	4.41
456.727	4.42
457.084	4.49
457.441	4.42
457.797	4.41
458.154	4.37
458.51	4.42
458.867	4.42
459.223	4.46
459.58	4.4
459.936	4.38
460.292	4.24
460.648	4.26
461.005	4.38
461.361	4.35
461.717	4.19
462.073	4.32
462.429	4.29
462.785	4.33
463.141	4.47
463.496	4.33
463.852	4.4
464.208	4.57
464.564	4.52
464.919	4.42
465.275	4.54
465.631	4.49
465.986	4.41
466.342	4.52
466.697	4.44
467.052	4.39
467.408	4.5
467.763	4.61
468.118	4.79
468.473	4.45
468.829	4.39
469.184	4.5
469.539	4.57
469.894	4.52
470.249	4.63
470.603	4.53
470.958	4.5
471.313	4.66
471.668	4.43
472.023	4.53
472.377	4.6
472.732	4.61
473.086	4.67
473.441	4.53
473.795	4.77
474.15	4.45
474.504	4.51
474.859	4.51
475.213	4.72
475.567	4.74
475.921	4.62
476.275	4.5
476.63	4.76
476.984	4.8
477.338	4.44
477.692	4.62
478.045	4.56
478.399	4.45
478.753	4.57
479.107	4.61
479.461	4.48
479.814	4.75
480.168	4.64
480.521	4.7
480.875	4.63
481.228	4.66
481.582	4.69
481.935	4.53
482.289	4.73
482.642	4.58
482.995	4.58
483.348	4.59
483.701	4.47
484.055	4.56
484.408	4.52
484.761	4.33
485.114	4.36
485.466	4.33
485.819	4.29
486.172	4.19
486.525	4.3
486.878	4.32
487.23	4.41
487.583	4.46
487.936	4.4
488.288	4.44
488.641	4.48
488.993	4.44
489.345	4.41
489.698	4.38
490.05	4.38
490.402	4.33
490.754	4.37
491.107	4.47
491.459	4.48
491.811	4.6
492.163	4.51
492.515	4.55
492.866	4.58
493.218	4.53
493.57	4.41
493.922	4.46
494.274	4.47
494.625	4.47
494.977	4.5
495.328	4.61
495.68	4.68
496.031	4.66
496.383	4.71
496.734	4.68
497.086	4.74
497.437	4.75
497.788	4.58
498.139	4.83
498.49	4.69
498.842	4.63
499.193	4.8
499.544	4.69
499.894	4.73
500.245	4.67
500.596	4.78
500.947	4.81
501.298	4.78
501.648	4.76
501.999	4.89
502.35	4.86
502.7	4.88
503.051	4.8
503.401	4.67
503.752	4.88
504.102	4.83
504.452	4.77
504.803	4.88
505.153	4.99
505.503	4.87
505.853	4.98
506.203	4.86
506.553	4.8
506.903	4.87
507.253	4.77
507.603	4.81
507.953	4.88
508.303	4.86
508.652	4.91
509.002	5
509.352	4.96
509.701	4.91
510.051	4.86
510.4	4.83
510.75	4.92
511.099	4.92
511.449	4.87
511.798	4.97
512.147	4.92
512.496	4.95
512.846	4.85
513.195	5.01
513.544	4.87
513.893	4.8
514.242	4.9
514.591	4.92
514.939	4.96
515.288	4.87
515.637	5.01
515.986	4.94
516.334	5.02
516.683	4.97
517.032	4.93
517.38	4.88
517.729	5.03
518.077	5.06
518.426	5.06
518.774	4.98
519.122	5.07
519.47	4.99
519.819	4.9
520.167	4.95
520.515	4.95
520.863	5.01
521.211	4.98
521.559	4.97
521.907	4.97
522.255	4.96
522.602	5.18
522.95	5.03
523.298	5.16
523.645	5.12
523.993	5.08
524.341	5.07
524.688	5.1
525.036	5.23
525.383	5.04
525.73	5.18
526.078	5.16
526.425	5.28
526.772	5.22
527.119	5.08
527.466	5.03
527.814	5.13
528.161	5.05
528.508	5.09
528.854	5.1
529.201	5.08
529.548	5.11
529.895	5.15
530.242	4.99
530.588	4.91
530.935	4.9
531.282	5.01
531.628	5.04
531.975	5.01
532.321	5.12
532.667	5.17
533.014	5.2
533.36	5.16
533.706	5.25
534.052	5.16
534.399	5.15
534.745	5.08
535.091	5.2
535.437	5.18
535.783	5.2
536.129	5.17
536.474	5.24
536.82	5.32
537.166	5.34
537.512	5.44
537.857	5.43
538.203	5.43
538.549	5.48
538.894	5.34
539.239	5.32
539.585	5.4
539.93	5.49
540.276	5.49
540.621	5.53
540.966	5.52
541.311	5.47
541.656	5.59
542.001	5.56
542.346	5.52
542.691	5.51
543.036	5.43
543.381	5.36
543.726	5.28
544.071	5.35
544.415	5.3
544.76	5.41
545.105	5.49
545.449	5.44
545.794	5.59
546.138	5.54
546.483	5.58
546.827	5.59
547.171	5.71
547.516	5.54
547.86	5.78
548.204	5.6
548.548	5.68
548.892	5.66
549.236	5.82
549.58	5.65
549.924	5.84
550.268	5.78
550.612	5.81
550.956	6.02
551.3	5.89
551.643	5.97
551.987	6.05
552.33	5.92
552.674	5.82
553.017	5.88
553.361	6.06
553.704	6.12
554.048	6.02
554.391	6.09
554.734	6.11
555.077	6.16
555.42	5.88
555.764	5.98
556.107	6.34
556.45	6.14
556.793	5.99
557.135	5.83
557.478	6.14
557.821	6.27
558.164	6.23
558.507	6.24
558.849	6.33
559.192	6.51
559.534	6.27
559.877	6.24
560.219	6.48
560.562	6.33
560.904	6.3
561.246	6.52
561.589	6.22
561.931	6.43
562.273	6.42
562.615	6.54
562.957	6.26
563.299	6.63
563.641	6.49
563.983	6.27
564.325	6.4
564.667	6.61
565.008	6.54
565.35	6.56
565.692	6.59
566.033	6.79
566.375	6.63
566.716	6.66
567.058	6.72
567.399	6.63
567.741	6.5
568.082	6.78
568.423	6.68
568.764	6.57
569.105	6.8
569.447	6.63
569.788	6.66
570.129	6.84
570.47	6.64
570.811	6.86
571.151	6.79
571.492	6.75
571.833	6.81
572.174	6.93
572.514	6.83
572.855	6.9
573.195	7.1
573.536	6.75
573.876	7.09
574.217	6.96
574.557	6.86
574.898	6.88
575.238	6.92
575.578	6.91
575.918	6.95
576.258	7.13
576.598	7.21
576.938	7.09
577.278	7.24
577.618	7.04
577.958	7.03
578.298	7.09
578.638	7.26
578.977	7.1
579.317	7.23
579.657	7.21
579.996	7.23
580.336	7.47
580.675	7.43
581.014	7.2
581.354	7.3
581.693	7.49
582.032	7.35
582.372	7.36
582.711	7.82
583.05	7.66
583.389	7.53
583.728	7.67
584.067	7.71
584.406	7.7
584.745	7.78
585.083	7.73
585.422	7.76
585.761	7.45
586.1	7.71
586.438	7.36
586.777	7.63
587.115	8.05
587.454	7.83
587.792	7.72
588.13	7.97
588.469	8.06
588.807	7.73
589.145	7.78
589.483	7.8
589.821	7.87
590.159	7.98
590.497	7.8
590.835	7.86
591.173	8.13
591.511	7.98
591.849	7.98
592.187	7.97
592.524	8.02
592.862	8.19
593.2	8.05
593.537	8.15
593.875	7.91
594.212	8.23
594.55	8.42
594.887	8.17
595.224	8.22
595.561	8.06
595.899	8.22
596.236	8.32
596.573	8.47
596.91	8.41
597.247	8.27
597.584	8.3
597.921	8.6
598.258	8.78
598.594	8.66
598.931	8.39
599.268	8.32
599.604	8.53
599.941	8.51
600.277	8.57
600.614	8.52
600.95	8.54
601.287	8.58
601.623	8.7
601.959	8.7
602.296	8.97
602.632	8.71
602.968	8.58
603.304	9.02
603.64	8.8
603.976	8.92
604.312	9.03
604.648	9.09
604.984	9.05
605.319	8.98
605.655	8.83
605.991	8.79
606.326	9.01
606.662	8.7
606.998	8.73
607.333	8.83
607.668	8.89
608.004	9.13
608.339	9.14
608.674	9.27
609.01	9.35
609.345	9.14
609.68	9.22
610.015	9.51
610.35	9.67
610.685	9.46
611.02	9.41
611.355	9.1
611.689	9.28
612.024	9.47
612.359	9.64
612.694	9.4
613.028	9.47
613.363	9.77
613.697	9.6
614.032	9.76
614.366	9.43
614.7	9.82
615.035	9.64
615.369	9.38
615.703	9.48
616.037	9.77
616.371	9.65
616.705	9.84
617.039	9.82
617.373	10.05
617.707	10.06
618.041	9.98
618.375	10.14
618.709	9.86
619.042	10.24
619.376	10.33
619.71	10.17
620.043	10.38
620.377	9.93
620.71	9.91
621.043	10.25
621.377	10.16
621.71	10.13
622.043	10.45
622.376	10.13
622.709	10.22
623.043	10.27
623.376	10.32
623.709	10.09
624.041	10.1
624.374	10.58
624.707	10.55
625.04	10.36
625.373	10.67
625.705	10.56
626.038	10.98
626.37	10.19
626.703	10.63
627.035	10.6
627.368	10.64
627.7	10.93
628.032	10.81
628.365	10.83
628.697	10.75
629.029	10.73
629.361	10.69
629.693	10.66
630.025	11.14
630.357	10.87
630.689	11.06
631.021	11.39
631.353	10.98
631.684	10.78
632.016	11.14
632.348	10.82
632.679	10.89
633.011	11.3
633.342	10.58
633.674	11.22
634.005	11.26
634.336	11.54
634.668	10.74
634.999	11
635.33	10.87
635.661	11.43
635.992	11.61
636.323	11.29
636.654	11.76
636.985	11.23
637.316	11.21
637.647	11.34
637.977	11.21
638.308	11.76
638.639	11.39
638.969	11.61
639.3	11.42
639.63	11.58
639.961	11.99
640.291	11.64
640.622	11.55
640.952	12.05
641.282	11.88
641.612	11.74
641.943	11.73
642.273	11.7
642.603	12.14
642.933	11.85
643.263	11.98
643.592	11.78
643.922	12.43
644.252	11.77
644.582	11.8
644.911	11.85
645.241	12.24
645.571	12.67
645.9	12.29
646.23	12.6
646.559	12.21
646.888	12.39
647.218	12.65
647.547	12.13
647.876	12.06
648.205	12.57
648.534	12.5
648.863	12.53
649.192	12.09
649.521	12.6
649.85	12.11
650.179	12.35
650.508	12.38
650.837	12.87
651.165	12.94
651.494	12.27
651.822	12.73
652.151	13.18
652.479	12.62
652.808	12.81
653.136	12.4
653.465	13.1
653.793	12.87
654.121	12.89
654.449	12.89
654.777	12.39
655.105	12.81
655.433	13.22
655.761	12.94
656.089	13.34
656.417	12.66
656.745	12.96
657.073	12.48
657.4	13.68
657.728	13.26
658.056	12.93
658.383	13.16
658.711	12.7
659.038	13.28
659.365	13.71
659.693	13.76
660.02	13.91
660.347	13.55
660.674	13.39
661.001	13.07
661.329	13.8
661.656	13.51
661.982	13.69
662.309	13.48
662.636	13.74
662.963	13.54
663.29	14.05
663.616	14.05
663.943	13.4
664.27	13.66
664.596	13.62
664.923	13.8
665.249	14.06
665.576	14.01
665.902	13.84
666.228	14.07
666.554	14.3
666.881	13.81
667.207	14.35
667.533	13.77
667.859	14.27
668.185	14.85
668.511	14.4
668.837	15.16
669.162	14.82
669.488	14.56
669.814	13.71
670.139	14.29
670.465	14.23
670.791	14.3
671.116	14.1
671.442	14.27
671.767	14.06
672.092	14.44
672.418	14.38
672.743	14.43
673.068	15.14
673.393	14.84
673.718	14.74
674.043	14.48
674.368	15.18
674.693	14.87
675.018	15.56
675.343	14.09
675.667	14.6
675.992	14.67
676.317	15.14
676.641	15.35
676.966	15.4
677.29	14.84
677.615	16.17
677.939	14.68
678.264	15.39
678.588	14.9
678.912	15.41
679.236	14.66
679.56	14.44
679.885	15.36
680.209	15
680.532	15.12
680.856	14.66
681.18	15.22
681.504	15.72
681.828	15.08
682.152	15.37
682.475	14.84
682.799	15.78
683.122	15.6
683.446	15.45
683.769	15.69
684.093	15.85
684.416	16.06
684.739	15.32
685.062	15.15
685.386	15.53
685.709	15.31
686.032	15.45
686.355	15.48
686.678	15.64
687.001	15.69
687.324	14.92
687.646	16.19
687.969	16.66
