Data from 0341_chest_Reflection__0__261.txt Node

Date: Fri Oct 20 22:45:25 CDT 2023
User: ToomeyLab
Spectrometer: FLMS14357
Trigger mode: 0
Integration Time (sec): 1.000000E-2
Scans to average: 100
Electric dark correction enabled: true
Nonlinearity correction enabled: false
Boxcar width: 0
XAxis mode: Wavelengths
Number of Pixels in Spectrum: 2048
>>>>>Begin Spectral Data<<<<<
189.047	-69.51
189.435	-69.51
189.823	-69.51
190.211	-23.81
190.599	223.79
190.987	316.59
191.375	97.23
191.763	105.77
192.151	-36.4
192.538	-900
192.926	15.96
193.314	42.37
193.702	51.65
194.089	171.36
194.477	340.5
194.864	-909.36
195.252	173.48
195.639	1281.2
196.027	162.61
196.414	60.39
196.801	13.57
197.189	-45.86
197.576	65.89
197.963	-370.42
198.351	111.8
198.738	-3.13
199.125	34.16
199.512	35.84
199.899	48.06
200.286	63.2
200.673	17.64
201.06	10.27
201.447	-9.33
201.833	50.2
202.22	36.34
202.607	57.22
202.994	47.87
203.38	56.18
203.767	35.04
204.154	20.09
204.54	41.65
204.927	17.88
205.313	25.03
205.699	104.43
206.086	14.16
206.472	49.24
206.858	61.45
207.245	6.62
207.631	36.47
208.017	41.48
208.403	8.9
208.789	50.3
209.175	-8.86
209.561	24.44
209.947	29.76
210.333	36.1
210.719	-8.22
211.105	32.77
211.491	11.49
211.876	25.5
212.262	78.91
212.648	40.22
213.034	0.42
213.419	-8.59
213.805	1.29
214.19	-33.69
214.576	-13.62
214.961	10.75
215.346	52.86
215.732	1.44
216.117	-33.02
216.502	14.08
216.888	18.92
217.273	-26.43
217.658	7.06
218.043	6.11
218.428	23.48
218.813	30.8
219.198	28.27
219.583	-22.03
219.968	-23.91
220.353	4.01
220.738	2.35
221.122	7.13
221.507	7.03
221.892	10.95
222.276	5.62
222.661	25.6
223.046	9.11
223.43	14.67
223.815	24.37
224.199	17.8
224.583	-3
224.968	5.15
225.352	4.74
225.736	5.62
226.121	12.3
226.505	7.43
226.889	11.61
227.273	5.1
227.657	10.26
228.041	9.73
228.425	6.16
228.809	4.96
229.193	4.65
229.577	7.79
229.961	4.75
230.344	3.05
230.728	3.61
231.112	4.73
231.495	3.76
231.879	4.15
232.263	5.57
232.646	4.22
233.03	2.8
233.413	2.57
233.797	4.77
234.18	3.03
234.563	5.76
234.946	6.82
235.33	5.47
235.713	5.81
236.096	5.62
236.479	3.49
236.862	4.38
237.245	5.25
237.628	5.01
238.011	5.69
238.394	4.73
238.777	5.28
239.16	5.15
239.543	4.82
239.925	6.92
240.308	5.15
240.691	3.15
241.073	6.34
241.456	5
241.838	4.44
242.221	4.4
242.603	3.78
242.986	3.71
243.368	4.46
243.75	3.74
244.133	3.53
244.515	3.49
244.897	3.78
245.279	3.78
245.661	3.53
246.043	3.23
246.425	4.19
246.807	2.68
247.189	3.39
247.571	3.45
247.953	3.98
248.335	4.25
248.717	3.61
249.098	3.4
249.48	3.54
249.862	3.75
250.243	3.91
250.625	3.58
251.006	3.9
251.388	3.83
251.769	4.26
252.151	2.62
252.532	3.9
252.913	3.81
253.295	3.14
253.676	3.47
254.057	3.67
254.438	3.65
254.819	3.26
255.2	3.36
255.581	3.46
255.962	3.74
256.343	4.3
256.724	2.21
257.105	3.93
257.486	3.47
257.867	4.24
258.247	4.16
258.628	3.4
259.009	3.26
259.389	3.68
259.77	2.67
260.15	3.54
260.531	3.74
260.911	3.76
261.292	3.71
261.672	3.71
262.052	3.56
262.432	3.6
262.813	3.42
263.193	3.57
263.573	3.4
263.953	3.52
264.333	3.68
264.713	4.02
265.093	4.04
265.473	3.79
265.853	3.11
266.233	3.53
266.612	3.28
266.992	3.23
267.372	3.75
267.752	3.32
268.131	3.2
268.511	3.48
268.89	3.48
269.27	3.1
269.649	3.66
270.029	3.71
270.408	3.56
270.787	3.52
271.167	3.63
271.546	3.59
271.925	3.77
272.304	3.56
272.683	3.51
273.062	3.54
273.441	3.43
273.82	3.67
274.199	3.59
274.578	3.7
274.957	3.93
275.336	3.66
275.715	3.64
276.093	3.17
276.472	4.08
276.851	3.14
277.229	3.64
277.608	2.77
277.986	2.95
278.365	3.44
278.743	3.64
279.122	2.87
279.5	3.56
279.878	2.93
280.257	3.46
280.635	3.61
281.013	3.78
281.391	3.76
281.769	3.46
282.147	3.43
282.525	2.98
282.903	2.94
283.281	3.21
283.659	3.41
284.037	3.76
284.415	3.08
284.792	2.9
285.17	3.52
285.548	3.41
285.925	3.02
286.303	3.43
286.68	3.32
287.058	3.85
287.435	3.69
287.813	2.95
288.19	3.51
288.567	3.58
288.945	3.77
289.322	3.72
289.699	2.84
290.076	3.29
290.453	3.63
290.83	3.57
291.207	3.64
291.584	3.04
291.961	3.2
292.338	3.1
292.715	3.51
293.092	3.35
293.469	4.12
293.845	3.24
294.222	3.2
294.599	3.56
294.975	4.19
295.352	3.66
295.728	3.7
296.105	2.88
296.481	3.74
296.858	3.65
297.234	3.58
297.61	2.79
297.986	3.47
298.363	3.68
298.739	3.64
299.115	3.24
299.491	3.6
299.867	3.54
300.243	3.76
300.619	3.48
300.995	3.3
301.371	3.71
301.746	3.41
302.122	4.07
302.498	3.38
302.874	3.07
303.249	3.23
303.625	4.11
304	4.42
304.376	3.31
304.751	3.18
305.127	3.39
305.502	3.78
305.878	3.74
306.253	3.49
306.628	3.81
307.003	3.44
307.378	3.68
307.754	3.93
308.129	4.03
308.504	3.59
308.879	4.27
309.254	3.88
309.629	3.45
310.003	2.84
310.378	3.82
310.753	3.73
311.128	4.06
311.502	3.8
311.877	3.6
312.252	3.4
312.626	3.95
313.001	3.55
313.375	3.35
313.75	4
314.124	3.68
314.498	3.76
314.873	3.02
315.247	3.47
315.621	3.54
315.995	3.79
316.369	3.55
316.743	3.88
317.117	3.57
317.491	3.52
317.865	3.92
318.239	4.22
318.613	3.75
318.987	3.2
319.361	2.83
319.734	3.31
320.108	2.88
320.482	3.87
320.855	4.18
321.229	4.03
321.602	3.88
321.976	3.64
322.349	4.46
322.723	3.79
323.096	4.19
323.469	3.71
323.843	4.19
324.216	4.09
324.589	3.85
324.962	4.03
325.335	3.79
325.708	3.15
326.081	3.62
326.454	3.89
326.827	4.14
327.2	4.12
327.573	4.2
327.945	3.73
328.318	3.65
328.691	3.81
329.063	4.2
329.436	3.54
329.809	3.82
330.181	4.05
330.553	3.83
330.926	3.71
331.298	3.33
331.671	3.52
332.043	3.26
332.415	3.95
332.787	4.17
333.159	3.93
333.532	3.94
333.904	3.38
334.276	3.66
334.648	3.82
335.02	3.9
335.391	3.65
335.763	4.18
336.135	4.19
336.507	4.02
336.879	3.84
337.25	4.32
337.622	4.08
337.993	4.35
338.365	4.17
338.736	3.93
339.108	4.08
339.479	3.54
339.851	4
340.222	3.59
340.593	3.57
340.964	3.68
341.336	3.98
341.707	3.77
342.078	3.56
342.449	3.75
342.82	3.81
343.191	3.83
343.562	4.15
343.933	3.81
344.303	4.21
344.674	4.09
345.045	4.16
345.416	3.81
345.786	3.98
346.157	4.06
346.527	3.88
346.898	3.68
347.268	3.87
347.639	4.37
348.009	3.95
348.38	4.15
348.75	4.04
349.12	3.79
349.49	3.57
349.861	3.95
350.231	3.65
350.601	4.03
350.971	4.13
351.341	4.28
351.711	3.95
352.081	4.16
352.45	3.91
352.82	4.03
353.19	3.98
353.56	3.82
353.929	3.96
354.299	3.89
354.669	3.7
355.038	4.25
355.408	4.23
355.777	4.09
356.147	4.11
356.516	3.91
356.885	4.09
357.254	3.98
357.624	3.82
357.993	3.85
358.362	3.76
358.731	3.43
359.1	3.29
359.469	3.92
359.838	4.1
360.207	3.75
360.576	4.21
360.945	3.75
361.314	3.86
361.682	3.82
362.051	3.73
362.42	3.42
362.788	3.91
363.157	3.92
363.525	3.85
363.894	3.78
364.262	3.69
364.631	3.92
364.999	3.91
365.367	4.12
365.735	3.93
366.104	3.56
366.472	4.01
366.84	4
367.208	4.12
367.576	3.82
367.944	3.93
368.312	4.04
368.68	3.77
369.048	3.99
369.416	3.67
369.783	4.1
370.151	3.69
370.519	3.92
370.886	4.18
371.254	4.33
371.621	4.25
371.989	3.63
372.356	3.86
372.724	4.2
373.091	3.97
373.458	3.56
373.826	3.81
374.193	3.68
374.56	4.08
374.927	3.79
375.294	4.05
375.661	4.05
376.028	4.19
376.395	4.07
376.762	3.49
377.129	3.78
377.496	3.9
377.863	4.25
378.229	4.14
378.596	4.08
378.963	4
379.329	4.06
379.696	4.22
380.062	3.92
380.429	3.89
380.795	3.55
381.161	4.07
381.528	4.29
381.894	4.22
382.26	3.62
382.626	4.24
382.993	3.84
383.359	3.73
383.725	4.12
384.091	3.93
384.457	3.92
384.823	3.94
385.188	4.23
385.554	3.96
385.92	3.95
386.286	4.14
386.651	3.82
387.017	4.01
387.383	4.28
387.748	3.92
388.114	3.86
388.479	3.97
388.845	4.17
389.21	4.07
389.575	3.59
389.94	4.11
390.306	3.78
390.671	3.78
391.036	3.92
391.401	4.07
391.766	4.1
392.131	3.73
392.496	4.33
392.861	4.08
393.226	4.04
393.591	3.9
393.956	3.83
394.32	4.1
394.685	3.97
395.05	4.32
395.414	4.19
395.779	4.05
396.143	3.93
396.508	3.83
396.872	3.93
397.236	3.79
397.601	3.97
397.965	3.68
398.329	3.84
398.694	4.11
399.058	4.02
399.422	4.21
399.786	3.9
400.15	3.57
400.514	3.88
400.878	4.18
401.242	4.22
401.605	4.06
401.969	3.92
402.333	3.8
402.697	4.21
403.06	4.12
403.424	3.83
403.787	3.99
404.151	4
404.514	4.14
404.878	4.06
405.241	4.16
405.604	3.83
405.968	4.04
406.331	3.93
406.694	3.92
407.057	3.91
407.42	4.31
407.783	4.03
408.146	3.87
408.509	4.1
408.872	4.36
409.235	4.05
409.598	4.14
409.961	4.13
410.323	4.04
410.686	3.9
411.049	3.99
411.411	3.77
411.774	4.03
412.136	3.82
412.499	4.05
412.861	4.07
413.223	3.95
413.586	3.93
413.948	4.12
414.31	4.36
414.672	4.01
415.035	3.99
415.397	3.98
415.759	4.23
416.121	4.15
416.483	4.36
416.845	4.06
417.206	4.23
417.568	4.14
417.93	4.07
418.292	3.87
418.653	3.96
419.015	3.91
419.377	3.97
419.738	3.86
420.1	3.77
420.461	3.93
420.822	3.88
421.184	4
421.545	4.04
421.906	3.92
422.267	3.95
422.629	4.04
422.99	3.85
423.351	3.84
423.712	3.86
424.073	3.93
424.434	3.82
424.795	3.88
425.155	3.97
425.516	3.97
425.877	3.99
426.238	3.85
426.598	3.9
426.959	3.78
427.32	3.85
427.68	4
428.041	3.97
428.401	3.89
428.761	3.92
429.122	3.91
429.482	4.02
429.842	4.16
430.202	3.99
430.563	4.06
430.923	4.11
431.283	3.97
431.643	4.2
432.003	4.21
432.363	4.04
432.722	4.18
433.082	3.99
433.442	3.94
433.802	4.26
434.161	4.03
434.521	4.15
434.881	4.06
435.24	4.04
435.6	4
435.959	4.12
436.319	4.05
436.678	4.06
437.037	4.06
437.396	3.97
437.756	4.13
438.115	3.9
438.474	4.13
438.833	4.03
439.192	3.92
439.551	3.98
439.91	4.09
440.269	4.12
440.628	4.07
440.987	4.02
441.345	4.08
441.704	3.99
442.063	4.05
442.421	3.95
442.78	3.98
443.138	4.11
443.497	4.07
443.855	4.01
444.214	4.06
444.572	4.07
444.93	4.27
445.288	4.12
445.647	4.24
446.005	3.94
446.363	3.93
446.721	3.99
447.079	4.19
447.437	4.07
447.795	3.95
448.153	3.99
448.51	4.14
448.868	4.01
449.226	3.96
449.584	4.07
449.941	3.97
450.299	4.09
450.656	4.03
451.014	4.03
451.371	4.09
451.729	4.07
452.086	4.22
452.443	4.1
452.801	4.01
453.158	4.13
453.515	4.21
453.872	4.31
454.229	4.12
454.586	4.21
454.943	4.16
455.3	4.1
455.657	4.26
456.014	4.08
456.371	4.16
456.727	4.16
457.084	4.25
457.441	4.23
457.797	4.04
458.154	4.1
458.51	4
458.867	4.1
459.223	4.17
459.58	4.13
459.936	4.26
460.292	4.17
460.648	4.05
461.005	4
461.361	3.97
461.717	3.92
462.073	4.16
462.429	4.07
462.785	4.14
463.141	4.18
463.496	4.14
463.852	4.12
464.208	4.23
464.564	4.15
464.919	4.23
465.275	4.39
465.631	4.34
465.986	4.17
466.342	4.25
466.697	4.2
467.052	4.25
467.408	4.23
467.763	4.48
468.118	4.35
468.473	4.32
468.829	4.2
469.184	4.15
469.539	4.26
469.894	4.26
470.249	4.29
470.603	4.27
470.958	4.33
471.313	4.24
471.668	4.33
472.023	4.25
472.377	4.41
472.732	4.28
473.086	4.35
473.441	4.56
473.795	4.39
474.15	4.19
474.504	4.23
474.859	4.34
475.213	4.37
475.567	4.37
475.921	4.44
476.275	4.33
476.63	4.35
476.984	4.4
477.338	4.24
477.692	4.34
478.045	4.34
478.399	4.29
478.753	4.49
479.107	4.34
479.461	4.4
479.814	4.45
480.168	4.33
480.521	4.43
480.875	4.4
481.228	4.4
481.582	4.41
481.935	4.35
482.289	4.44
482.642	4.35
482.995	4.31
483.348	4.4
483.701	4.28
484.055	4.32
484.408	4.23
484.761	4.28
485.114	4.16
485.466	4.11
485.819	4.1
486.172	4.02
486.525	4.06
486.878	4.06
487.23	4.11
487.583	4.19
487.936	4.19
488.288	4.25
488.641	4.32
488.993	4.15
489.345	4.2
489.698	4.14
490.05	4.14
490.402	4.14
490.754	4.18
491.107	4.18
491.459	4.26
491.811	4.28
492.163	4.31
492.515	4.27
492.866	4.34
493.218	4.22
493.57	4.23
493.922	4.17
494.274	4.24
494.625	4.25
494.977	4.25
495.328	4.4
495.68	4.43
496.031	4.27
496.383	4.58
496.734	4.54
497.086	4.62
497.437	4.5
497.788	4.42
498.139	4.65
498.49	4.44
498.842	4.38
499.193	4.55
499.544	4.56
499.894	4.42
500.245	4.42
500.596	4.48
500.947	4.47
501.298	4.4
501.648	4.56
501.999	4.6
502.35	4.6
502.7	4.67
503.051	4.61
503.401	4.72
503.752	4.58
504.102	4.59
504.452	4.57
504.803	4.52
505.153	4.62
505.503	4.52
505.853	4.81
506.203	4.57
506.553	4.63
506.903	4.64
507.253	4.74
507.603	4.68
507.953	4.74
508.303	4.64
508.652	4.65
509.002	4.65
509.352	4.78
509.701	4.73
510.051	4.62
510.4	4.71
510.75	4.7
511.099	4.62
511.449	4.69
511.798	4.67
512.147	4.6
512.496	4.58
512.846	4.61
513.195	4.71
513.544	4.62
513.893	4.54
514.242	4.67
514.591	4.64
514.939	4.57
515.288	4.57
515.637	4.77
515.986	4.78
516.334	4.75
516.683	4.64
517.032	4.65
517.38	4.66
517.729	4.82
518.077	4.82
518.426	4.74
518.774	4.64
519.122	4.74
519.47	4.69
519.819	4.55
520.167	4.63
520.515	4.73
520.863	4.73
521.211	4.77
521.559	4.74
521.907	4.75
522.255	4.74
522.602	4.93
522.95	4.79
523.298	4.84
523.645	4.8
523.993	4.76
524.341	4.75
524.688	4.9
525.036	5.01
525.383	4.72
525.73	5
526.078	4.86
526.425	4.91
526.772	4.83
527.119	4.78
527.466	4.77
527.814	4.81
528.161	4.83
528.508	4.81
528.854	4.83
529.201	4.89
529.548	4.75
529.895	4.84
530.242	4.77
530.588	4.68
530.935	4.66
531.282	4.73
531.628	4.76
531.975	4.72
532.321	4.8
532.667	4.91
533.014	4.99
533.36	4.96
533.706	4.92
534.052	4.97
534.399	4.94
534.745	4.82
535.091	4.95
535.437	4.97
535.783	4.89
536.129	4.99
536.474	4.97
536.82	5.05
537.166	4.99
537.512	5.08
537.857	5.11
538.203	5.09
538.549	5.15
538.894	5.03
539.239	4.99
539.585	5.18
539.93	5.11
540.276	5.34
540.621	5.24
540.966	5.29
541.311	5.27
541.656	5.2
542.001	5.33
542.346	5.36
542.691	5.19
543.036	5.2
543.381	5.07
543.726	5.06
544.071	5.07
544.415	5.15
544.76	5.17
545.105	5.23
545.449	5.28
545.794	5.34
546.138	5.28
546.483	5.33
546.827	5.35
547.171	5.45
547.516	5.29
547.86	5.49
548.204	5.37
548.548	5.48
548.892	5.47
549.236	5.53
549.58	5.42
549.924	5.42
550.268	5.54
550.612	5.65
550.956	5.82
551.3	5.77
551.643	5.75
551.987	5.75
552.33	5.84
552.674	5.82
553.017	5.58
553.361	5.77
553.704	5.8
554.048	5.71
554.391	5.77
554.734	5.81
555.077	5.74
555.42	5.77
555.764	5.71
556.107	5.91
556.45	5.81
556.793	5.75
557.135	5.9
557.478	5.87
557.821	5.94
558.164	6.05
558.507	6.06
558.849	6.07
559.192	6.07
559.534	6.06
559.877	5.74
560.219	6.03
560.562	6.04
560.904	6.02
561.246	6.34
561.589	5.96
561.931	6.13
562.273	6.3
562.615	6.26
562.957	6.23
563.299	6.25
563.641	6.22
563.983	6.18
564.325	6.1
564.667	6.24
565.008	6.07
565.35	6.22
565.692	6.24
566.033	6.36
566.375	6.27
566.716	6.54
567.058	6.24
567.399	6.45
567.741	6.43
568.082	6.37
568.423	6.44
568.764	6.35
569.105	6.45
569.447	6.46
569.788	6.36
570.129	6.49
570.47	6.69
570.811	6.56
571.151	6.44
571.492	6.79
571.833	6.74
572.174	6.85
572.514	6.53
572.855	6.72
573.195	6.84
573.536	6.56
573.876	6.77
574.217	6.7
574.557	6.57
574.898	6.61
575.238	6.6
575.578	6.82
575.918	6.58
576.258	6.9
576.598	6.95
576.938	6.92
577.278	6.98
577.618	6.58
577.958	6.71
578.298	6.85
578.638	7.01
578.977	7.07
579.317	7.12
579.657	7.07
579.996	7.07
580.336	7.14
580.675	7.12
581.014	7.11
581.354	7.01
581.693	7.17
582.032	7.27
582.372	7.24
582.711	7.2
583.05	7.78
583.389	7.52
583.728	7.44
584.067	7.54
584.406	7.46
584.745	7.35
585.083	7.48
585.422	7.53
585.761	7.55
586.1	7.39
586.438	7.48
586.777	7.54
587.115	7.8
587.454	7.49
587.792	7.58
588.13	7.71
588.469	7.99
588.807	7.56
589.145	7.62
589.483	7.75
589.821	7.7
590.159	7.72
590.497	7.98
590.835	7.87
591.173	7.63
591.511	7.92
591.849	7.64
592.187	7.75
592.524	7.6
592.862	7.95
593.2	7.9
593.537	7.99
593.875	8.13
594.212	8.18
594.55	8.2
594.887	8.26
595.224	7.97
595.561	8.03
595.899	8.08
596.236	8.18
596.573	8.17
596.91	8.09
597.247	8.19
597.584	8.02
597.921	8.35
598.258	8.52
598.594	8.24
598.931	8.09
599.268	8.22
599.604	8.44
599.941	8.24
600.277	8.33
600.614	8.53
600.95	8.34
601.287	8.38
601.623	8.56
601.959	8.54
602.296	8.78
602.632	8.45
602.968	8.52
603.304	8.77
603.64	8.56
603.976	8.65
604.312	9.06
604.648	8.77
604.984	9.11
605.319	8.87
605.655	8.56
605.991	8.92
606.326	8.7
606.662	8.78
606.998	8.84
607.333	8.78
607.668	9.02
608.004	9.14
608.339	8.95
608.674	8.97
609.01	8.9
609.345	9.24
609.68	9.52
610.015	9.4
610.35	9.1
610.685	9.35
611.02	9.26
611.355	9.27
611.689	9.33
612.024	9.32
612.359	9.34
612.694	9.64
613.028	9.49
613.363	9.47
613.697	9.38
614.032	9.69
614.366	9.58
614.7	9.62
615.035	9.72
615.369	9.85
615.703	9.71
616.037	9.77
616.371	9.8
616.705	9.68
617.039	9.79
617.373	9.8
617.707	10.1
618.041	10.06
618.375	9.95
618.709	10.21
619.042	10.24
619.376	10.2
619.71	10.45
620.043	10.3
620.377	10.12
620.71	10.08
621.043	10.46
621.377	10.03
621.71	10.61
622.043	10.29
622.376	10.26
622.709	10.51
623.043	10.37
623.376	10.5
623.709	10.17
624.041	10.34
624.374	10.72
624.707	10.5
625.04	10.47
625.373	11.08
625.705	10.51
626.038	10.6
626.37	10.61
626.703	10.63
627.035	10.22
627.368	10.95
627.7	10.98
628.032	10.89
628.365	11.13
628.697	11.04
629.029	10.83
629.361	11.05
629.693	10.74
630.025	11.02
630.357	10.82
630.689	11.13
631.021	11.28
631.353	11
631.684	11
632.016	11.15
632.348	11.09
632.679	11.09
633.011	11.52
633.342	11.3
633.674	11
634.005	11.65
634.336	11.62
634.668	11.05
634.999	11.61
635.33	11.64
635.661	11.81
635.992	11.78
636.323	12
636.654	11.97
636.985	11.86
637.316	11.71
637.647	11.79
637.977	11.61
638.308	11.97
638.639	12.01
638.969	12.36
639.3	11.73
639.63	12.16
639.961	11.76
640.291	11.72
640.622	12.06
640.952	12.24
641.282	12.08
641.612	12.46
641.943	12.29
642.273	12.13
642.603	12.62
642.933	12.32
643.263	12.69
643.592	12.74
643.922	12.74
644.252	12.12
644.582	12.06
644.911	12.62
645.241	12.32
645.571	12.91
645.9	12.52
646.23	12.6
646.559	12.64
646.888	12.67
647.218	12.82
647.547	12.77
647.876	12.64
648.205	12.82
648.534	12.97
648.863	12.99
649.192	12.56
649.521	13.23
649.85	12.81
650.179	13.02
650.508	13.18
650.837	13.43
651.165	13.45
651.494	13.02
651.822	13.05
652.151	13.57
652.479	13.24
652.808	13.27
653.136	13.19
653.465	13.56
653.793	13.57
654.121	13.92
654.449	13.61
654.777	13.53
655.105	13.22
655.433	13.74
655.761	13.68
656.089	13.77
656.417	14.34
656.745	13.63
657.073	13.61
657.4	14.49
657.728	14.08
658.056	13.84
658.383	14.23
658.711	13.56
659.038	14.04
659.365	14.23
659.693	14.02
660.02	14.04
660.347	14.12
660.674	13.78
661.001	14.15
661.329	14.5
661.656	14.28
661.982	14.1
662.309	14.57
662.636	14.49
662.963	14.62
663.29	14.42
663.616	14.8
663.943	14.41
664.27	14.58
664.596	14.48
664.923	13.96
665.249	15.05
665.576	14.85
665.902	14.61
666.228	14.96
666.554	15.27
666.881	14.94
667.207	15.12
667.533	14.79
667.859	15.71
668.185	15.48
668.511	16.12
668.837	15.53
669.162	15.49
669.488	15.52
669.814	15.06
670.139	15.05
670.465	15.15
670.791	15.08
671.116	15.17
671.442	15.42
671.767	15.35
672.092	15.54
672.418	15.39
672.743	15.08
673.068	15.79
673.393	15.77
673.718	15.28
674.043	15.56
674.368	16.16
674.693	16.26
675.018	16.72
675.343	16.02
675.667	16.15
675.992	15.72
676.317	16.29
676.641	16.16
676.966	16.2
677.29	15.98
677.615	16.8
677.939	15.85
678.264	16.25
678.588	15.9
678.912	16.87
679.236	16.07
679.56	16.44
679.885	16.89
680.209	16.77
680.532	16.14
680.856	15.92
681.18	16.74
681.504	17.04
681.828	16.94
682.152	16.8
682.475	16.74
682.799	16.85
683.122	17.02
683.446	16.74
683.769	16.61
684.093	16.7
684.416	16.67
684.739	16.33
685.062	16.08
685.386	16.31
685.709	16.9
686.032	17.05
686.355	17.65
686.678	16.82
687.001	17.91
687.324	17.13
687.646	17.27
687.969	17.87
