Data from 97276_forehead_Reflection__0__111.txt Node

Date: Fri Sep 23 20:33:45 CDT 2022
User: ToomeyLab
Spectrometer: FLMS14357
Trigger mode: 0
Integration Time (sec): 1.000000E-2
Scans to average: 100
Electric dark correction enabled: true
Nonlinearity correction enabled: false
Boxcar width: 0
XAxis mode: Wavelengths
Number of Pixels in Spectrum: 2048
>>>>>Begin Spectral Data<<<<<
189.047	-49.52
189.435	-49.52
189.823	-49.52
190.211	59.64
190.599	433.16
190.987	23.93
191.375	-69.34
191.763	60.05
192.151	84.93
192.538	-39.44
192.926	62.18
193.314	56.95
193.702	73.11
194.089	386.12
194.477	137.53
194.864	-247.87
195.252	17.46
195.639	155.06
196.027	-1.87
196.414	80.04
196.801	72.46
197.189	-181.36
197.576	67.73
197.963	-28.79
198.351	35.72
198.738	22.22
199.125	50.46
199.512	45.01
199.899	5.02
200.286	1.35
200.673	19.72
201.06	41.06
201.447	62.27
201.833	25.4
202.22	17.52
202.607	36.99
202.994	-12.88
203.38	17.51
203.767	13
204.154	39.89
204.54	15.17
204.927	32.68
205.313	31.51
205.699	10.52
206.086	10.26
206.472	10.73
206.858	58.96
207.245	43.03
207.631	37.04
208.017	17.11
208.403	11.2
208.789	61.5
209.175	30.97
209.561	33.22
209.947	9.14
210.333	5.17
210.719	-7.52
211.105	33.55
211.491	54.63
211.876	35.31
212.262	9.11
212.648	-3.82
213.034	-35.74
213.419	-38.57
213.805	47.94
214.19	10.38
214.576	67.91
214.961	45.97
215.346	6.57
215.732	22.84
216.117	21.65
216.502	33.41
216.888	12.6
217.273	25.75
217.658	7.63
218.043	13.96
218.428	16.9
218.813	9.31
219.198	1.37
219.583	3.62
219.968	31.77
220.353	1.21
220.738	0.34
221.122	15.38
221.507	4.55
221.892	-2.45
222.276	12.28
222.661	-2.77
223.046	3.86
223.43	3.87
223.815	9.03
224.199	5.98
224.583	5.83
224.968	6.08
225.352	8.99
225.736	-1.89
226.121	7.13
226.505	3.52
226.889	8.54
227.273	8.21
227.657	3.48
228.041	8.96
228.425	2.49
228.809	4.96
229.193	5.35
229.577	5.78
229.961	2.38
230.344	2.66
230.728	2.9
231.112	2.42
231.495	2.68
231.879	0.86
232.263	3.11
232.646	1.39
233.03	4
233.413	2.44
233.797	3.94
234.18	5.26
234.563	3.26
234.946	3.34
235.33	4.34
235.713	4.3
236.096	1.58
236.479	2.78
236.862	3.53
237.245	3.35
237.628	4.18
238.011	4.22
238.394	3.42
238.777	4.19
239.16	3.97
239.543	2.54
239.925	2.23
240.308	2.98
240.691	5.12
241.073	2.26
241.456	2.38
241.838	4.82
242.221	3.83
242.603	3.63
242.986	2.61
243.368	2.71
243.75	3.28
244.133	2.9
244.515	2.7
244.897	2.94
245.279	3.39
245.661	4.18
246.043	2.94
246.425	2.22
246.807	2.57
247.189	3.3
247.571	2.39
247.953	2.49
248.335	2.84
248.717	2.85
249.098	2.73
249.48	2.82
249.862	2.78
250.243	3.16
250.625	2.95
251.006	3.7
251.388	2.86
251.769	2.97
252.151	2.23
252.532	3.6
252.913	3.85
253.295	3.11
253.676	3.4
254.057	2.82
254.438	3.01
254.819	3.12
255.2	3.79
255.581	4.98
255.962	2.71
256.343	3.61
256.724	2.45
257.105	3.79
257.486	2.8
257.867	3.22
258.247	4.06
258.628	2.65
259.009	3.16
259.389	2.78
259.77	2.33
260.15	3.12
260.531	2.64
260.911	2.66
261.292	2.92
261.672	2.47
262.052	2.55
262.432	2.55
262.813	3.16
263.193	2.7
263.573	3.1
263.953	2.92
264.333	2.72
264.713	3.05
265.093	3.3
265.473	3.4
265.853	3.01
266.233	2.58
266.612	3.21
266.992	2.82
267.372	3.23
267.752	2.46
268.131	3.24
268.511	2.72
268.89	2.66
269.27	2.9
269.649	2.36
270.029	2.74
270.408	3.33
270.787	2.99
271.167	2.7
271.546	2.95
271.925	2.81
272.304	2.32
272.683	2.43
273.062	2.47
273.441	2.75
273.82	2.86
274.199	2.87
274.578	2.7
274.957	2.85
275.336	2.92
275.715	2.71
276.093	2.89
276.472	3.02
276.851	2.56
277.229	2.72
277.608	2.92
277.986	2.67
278.365	2.55
278.743	3.03
279.122	2.73
279.5	2.76
279.878	2.57
280.257	2.69
280.635	2.51
281.013	2.41
281.391	2.56
281.769	3.01
282.147	2.82
282.525	2.76
282.903	2.5
283.281	2.87
283.659	2.93
284.037	2.55
284.415	2.49
284.792	2.83
285.17	2.74
285.548	2.36
285.925	2.87
286.303	3.64
286.68	2.79
287.058	2.81
287.435	2.73
287.813	3.03
288.19	2.75
288.567	3.13
288.945	2.68
289.322	2.96
289.699	3.1
290.076	2.83
290.453	2.68
290.83	2.85
291.207	2.63
291.584	2.9
291.961	3.09
292.338	3.1
292.715	2.6
293.092	2.71
293.469	3.27
293.845	3.37
294.222	3
294.599	3.18
294.975	3.21
295.352	3.37
295.728	3.4
296.105	3
296.481	2.96
296.858	3.02
297.234	3.33
297.61	2.97
297.986	3.23
298.363	3.14
298.739	3.2
299.115	3.12
299.491	2.98
299.867	3.24
300.243	3.25
300.619	3.94
300.995	3.44
301.371	3.33
301.746	3.97
302.122	3.8
302.498	3.69
302.874	3.45
303.249	3.63
303.625	3.23
304	3.72
304.376	3.74
304.751	3.44
305.127	3.72
305.502	3.73
305.878	3.81
306.253	4.01
306.628	3.93
307.003	3.63
307.378	4.22
307.754	4.48
308.129	3.75
308.504	3.88
308.879	4.44
309.254	4.12
309.629	4.29
310.003	4.18
310.378	4.53
310.753	4.18
311.128	3.85
311.502	4.3
311.877	4.21
312.252	3.81
312.626	4.39
313.001	4.64
313.375	4.3
313.75	4.18
314.124	3.85
314.498	4.98
314.873	4.88
315.247	4.56
315.621	4.68
315.995	4.99
316.369	4.8
316.743	4.07
317.117	3.94
317.491	4.62
317.865	4.74
318.239	5.52
318.613	4.8
318.987	4.98
319.361	4.59
319.734	5.14
320.108	5.04
320.482	5.12
320.855	4.51
321.229	5.37
321.602	4.94
321.976	5.77
322.349	5.11
322.723	5.09
323.096	5.31
323.469	4.93
323.843	4.57
324.216	5.94
324.589	6.33
324.962	5.17
325.335	5.28
325.708	5.64
326.081	5.43
326.454	5.65
326.827	5.69
327.2	5.29
327.573	5.58
327.945	6.02
328.318	5.25
328.691	5.45
329.063	5.51
329.436	5.51
329.809	6.17
330.181	5.59
330.553	5.2
330.926	5.67
331.298	5.77
331.671	6.24
332.043	6.66
332.415	6.01
332.787	5.97
333.159	6.01
333.532	5.89
333.904	5.85
334.276	5.26
334.648	6.16
335.02	5.9
335.391	6.07
335.763	5.72
336.135	6.24
336.507	6.44
336.879	6.05
337.25	6.46
337.622	6.36
337.993	6.07
338.365	6.47
338.736	6.63
339.108	6.91
339.479	6.32
339.851	6.41
340.222	6.32
340.593	6.3
340.964	6.85
341.336	6.52
341.707	7.06
342.078	6.41
342.449	6.48
342.82	6.76
343.191	6.44
343.562	6.63
343.933	7.1
344.303	6.73
344.674	6.5
345.045	6.93
345.416	7.05
345.786	6.9
346.157	6.6
346.527	6.88
346.898	7.2
347.268	6.82
347.639	6.65
348.009	6.83
348.38	6.79
348.75	6.82
349.12	7.01
349.49	7
349.861	7.31
350.231	6.75
350.601	7.04
350.971	6.94
351.341	7.15
351.711	7.27
352.081	6.72
352.45	7.16
352.82	7.02
353.19	7.39
353.56	7.31
353.929	6.97
354.299	7.57
354.669	7.33
355.038	7.71
355.408	7.29
355.777	7.72
356.147	7.24
356.516	7.72
356.885	7.41
357.254	7.39
357.624	7.28
357.993	7.96
358.362	7.52
358.731	7.37
359.1	7.71
359.469	7.76
359.838	7.73
360.207	7.74
360.576	7.92
360.945	7.63
361.314	7.67
361.682	7.86
362.051	7.98
362.42	8.16
362.788	7.81
363.157	8.02
363.525	8.08
363.894	7.8
364.262	7.88
364.631	8.14
364.999	8.14
365.367	7.96
365.735	8.35
366.104	8.34
366.472	8.25
366.84	8.17
367.208	8.44
367.576	8.56
367.944	8.29
368.312	8.56
368.68	8.14
369.048	8.32
369.416	8.48
369.783	8.64
370.151	8.5
370.519	8.45
370.886	8.65
371.254	8.98
371.621	8.73
371.989	8.81
372.356	8.97
372.724	8.74
373.091	8.79
373.458	8.68
373.826	8.74
374.193	9.05
374.56	8.86
374.927	8.79
375.294	8.69
375.661	8.69
376.028	8.82
376.395	9.29
376.762	8.93
377.129	9.06
377.496	9.32
377.863	9.1
378.229	9
378.596	8.79
378.963	9.43
379.329	9.43
379.696	9.22
380.062	9.21
380.429	9.11
380.795	9.19
381.161	9.62
381.528	9.34
381.894	9.32
382.26	9.41
382.626	9.57
382.993	9.63
383.359	9.72
383.725	9.65
384.091	9.65
384.457	9.82
384.823	9.87
385.188	9.7
385.554	9.85
385.92	9.98
386.286	9.97
386.651	9.89
387.017	9.67
387.383	9.88
387.748	10.17
388.114	9.91
388.479	9.94
388.845	10.07
389.21	9.85
389.575	10.11
389.94	9.94
390.306	10.02
390.671	10.15
391.036	10.1
391.401	10.23
391.766	10.53
392.131	10.19
392.496	10.33
392.861	10.29
393.226	10.04
393.591	10.24
393.956	10.36
394.32	10.15
394.685	10.3
395.05	10.42
395.414	10.54
395.779	10.3
396.143	10.3
396.508	10.52
396.872	10.55
397.236	10.64
397.601	10.53
397.965	10.77
398.329	10.87
398.694	10.71
399.058	10.49
399.422	11.14
399.786	11.25
400.15	10.93
400.514	10.85
400.878	10.96
401.242	10.77
401.605	11.19
401.969	11.1
402.333	10.84
402.697	10.69
403.06	11.01
403.424	10.84
403.787	11.1
404.151	11.03
404.514	11.01
404.878	11.11
405.241	11.16
405.604	10.93
405.968	11.21
406.331	11.06
406.694	11.45
407.057	11.03
407.42	11.22
407.783	11.15
408.146	11.33
408.509	11.14
408.872	11.27
409.235	11.28
409.598	11.47
409.961	11.54
410.323	11.27
410.686	11.62
411.049	11.67
411.411	11.78
411.774	11.35
412.136	11.44
412.499	11.43
412.861	11.45
413.223	11.5
413.586	11.77
413.948	11.45
414.31	11.47
414.672	11.85
415.035	11.7
415.397	11.76
415.759	11.86
416.121	11.9
416.483	11.81
416.845	11.63
417.206	11.69
417.568	11.82
417.93	11.86
418.292	11.92
418.653	11.97
419.015	12.08
419.377	11.81
419.738	12.11
420.1	11.87
420.461	11.93
420.822	12
421.184	11.96
421.545	12.03
421.906	12.05
422.267	12
422.629	11.99
422.99	12.01
423.351	11.94
423.712	11.96
424.073	12.03
424.434	12.19
424.795	12.31
425.155	12.19
425.516	12.32
425.877	12.34
426.238	12.38
426.598	12.19
426.959	12.35
427.32	12.42
427.68	12.53
428.041	12.62
428.401	12.65
428.761	12.76
429.122	12.67
429.482	12.76
429.842	13.01
430.202	12.91
430.563	12.83
430.923	12.92
431.283	13.01
431.643	12.9
432.003	12.99
432.363	13.16
432.722	13.29
433.082	13.18
433.442	12.97
433.802	13.22
434.161	13.51
434.521	13.17
434.881	13.27
435.24	13.19
435.6	13.46
435.959	13.35
436.319	13.41
436.678	13.61
437.037	13.56
437.396	13.56
437.756	13.84
438.115	13.53
438.474	13.81
438.833	13.92
439.192	13.97
439.551	13.82
439.91	13.84
440.269	13.88
440.628	13.76
440.987	13.69
441.345	14.07
441.704	13.86
442.063	13.88
442.421	13.89
442.78	13.9
443.138	13.99
443.497	14.03
443.855	14.12
444.214	14.19
444.572	14.18
444.93	14.25
445.288	14.36
445.647	14.56
446.005	14.51
446.363	14.48
446.721	14.36
447.079	14.33
447.437	14.43
447.795	14.39
448.153	14.23
448.51	14.27
448.868	14.37
449.226	14.55
449.584	14.51
449.941	14.57
450.299	14.59
450.656	14.67
451.014	14.78
451.371	14.62
451.729	14.83
452.086	14.96
452.443	15.03
452.801	15.06
453.158	15.09
453.515	14.93
453.872	15.3
454.229	15.11
454.586	15.37
454.943	15.26
455.3	15.19
455.657	15.34
456.014	15.4
456.371	15.28
456.727	15.44
457.084	15.46
457.441	15.61
457.797	15.32
458.154	15.55
458.51	15.59
458.867	15.85
459.223	15.64
459.58	15.75
459.936	15.84
460.292	15.7
460.648	15.96
461.005	15.78
461.361	15.73
461.717	15.67
462.073	15.65
462.429	15.57
462.785	15.76
463.141	15.79
463.496	16.04
463.852	16.22
464.208	16.14
464.564	16.22
464.919	16.26
465.275	16.3
465.631	16.17
465.986	16.21
466.342	16.45
466.697	16.48
467.052	16.41
467.408	16.65
467.763	16.68
468.118	16.5
468.473	16.48
468.829	16.61
469.184	16.62
469.539	16.64
469.894	16.8
470.249	16.8
470.603	16.8
470.958	16.87
471.313	16.9
471.668	17.09
472.023	16.71
472.377	17.16
472.732	17.06
473.086	17.03
473.441	17.24
473.795	17.06
474.15	17.06
474.504	17.32
474.859	17.22
475.213	17.25
475.567	17.14
475.921	17.47
476.275	17.18
476.63	17.28
476.984	17.56
477.338	17.49
477.692	17.5
478.045	17.54
478.399	17.67
478.753	17.76
479.107	17.68
479.461	17.69
479.814	17.53
480.168	17.74
480.521	17.8
480.875	17.82
481.228	17.84
481.582	17.85
481.935	17.85
482.289	17.83
482.642	17.9
482.995	17.92
483.348	17.61
483.701	17.84
484.055	17.71
484.408	17.78
484.761	17.68
485.114	17.53
485.466	17.38
485.819	17.33
486.172	17.25
486.525	17.24
486.878	17.2
487.23	17.33
487.583	17.56
487.936	17.84
488.288	17.83
488.641	17.83
488.993	17.82
489.345	17.73
489.698	17.63
490.05	17.78
490.402	17.73
490.754	17.85
491.107	17.97
491.459	18.15
491.811	18.24
492.163	18.46
492.515	18.52
492.866	18.45
493.218	18.36
493.57	18.24
493.922	18.15
494.274	18.17
494.625	18.2
494.977	18.36
495.328	18.73
495.68	18.78
496.031	19.05
496.383	19.18
496.734	19.11
497.086	19.42
497.437	19.28
497.788	19.45
498.139	19.41
498.49	19.27
498.842	19.25
499.193	19.2
499.544	19.13
499.894	19.2
500.245	19.45
500.596	19.45
500.947	19.55
501.298	19.68
501.648	19.69
501.999	19.9
502.35	19.76
502.7	19.94
503.051	19.83
503.401	19.99
503.752	19.79
504.102	20.1
504.452	20.07
504.803	20.03
505.153	20.27
505.503	20.11
505.853	20.16
506.203	20.18
506.553	20.17
506.903	20.27
507.253	20.27
507.603	20.41
507.953	20.24
508.303	20.46
508.652	20.42
509.002	20.52
509.352	20.61
509.701	20.55
510.051	20.42
510.4	20.5
510.75	20.45
511.099	20.48
511.449	20.38
511.798	20.7
512.147	20.58
512.496	20.5
512.846	20.57
513.195	20.64
513.544	20.83
513.893	20.77
514.242	20.86
514.591	20.8
514.939	20.95
515.288	20.82
515.637	20.92
515.986	20.96
516.334	20.92
516.683	21.06
517.032	21.08
517.38	21.32
517.729	21.33
518.077	21.22
518.426	21.34
518.774	21.34
519.122	21.34
519.47	21.17
519.819	21.23
520.167	21.08
520.515	21.16
520.863	21.11
521.211	21.14
521.559	21.11
521.907	21.25
522.255	21.27
522.602	21.47
522.95	21.62
523.298	21.63
523.645	21.68
523.993	21.61
524.341	21.94
524.688	21.83
525.036	21.85
525.383	21.83
525.73	21.93
526.078	21.91
526.425	22.03
526.772	21.75
527.119	21.91
527.466	21.82
527.814	21.73
528.161	21.82
528.508	21.7
528.854	21.87
529.201	21.85
529.548	21.83
529.895	21.65
530.242	21.62
530.588	21.61
530.935	21.51
531.282	21.48
531.628	21.32
531.975	21.5
532.321	21.71
532.667	21.9
533.014	22.01
533.36	22.08
533.706	22.24
534.052	22.3
534.399	22.3
534.745	22.27
535.091	22.21
535.437	22.05
535.783	22.05
536.129	22.01
536.474	22.25
536.82	22.41
537.166	22.57
537.512	22.51
537.857	22.75
538.203	22.74
538.549	22.68
538.894	22.76
539.239	22.76
539.585	22.75
539.93	22.78
540.276	23
540.621	23.22
540.966	23.12
541.311	23.49
541.656	23.29
542.001	23.47
542.346	23.27
542.691	23.11
543.036	23.01
543.381	22.98
543.726	22.83
544.071	22.71
544.415	22.82
544.76	22.76
545.105	23.07
545.449	23.19
545.794	23.24
546.138	23.32
546.483	23.44
546.827	23.67
547.171	23.64
547.516	23.74
547.86	23.74
548.204	23.79
548.548	23.8
548.892	23.7
549.236	24.01
549.58	23.9
549.924	24.18
550.268	24.07
550.612	24.07
550.956	24.35
551.3	24.38
551.643	24.35
551.987	24.6
552.33	24.55
552.674	24.79
553.017	24.48
553.361	24.74
553.704	24.72
554.048	24.83
554.391	24.75
554.734	24.63
555.077	24.64
555.42	24.63
555.764	24.64
556.107	24.83
556.45	25.06
556.793	24.96
557.135	25.08
557.478	25.2
557.821	25.13
558.164	25.29
558.507	25.15
558.849	25.43
559.192	25.48
559.534	25.34
559.877	25.56
560.219	25.59
560.562	25.74
560.904	25.44
561.246	25.34
561.589	25.68
561.931	25.69
562.273	25.89
562.615	25.49
562.957	25.73
563.299	25.73
563.641	25.74
563.983	25.8
564.325	25.83
564.667	26.04
565.008	25.85
565.35	26.15
565.692	26.03
566.033	26.23
566.375	26.19
566.716	26.07
567.058	26.11
567.399	25.97
567.741	26.06
568.082	26.17
568.423	25.97
568.764	26.14
569.105	26.02
569.447	25.94
569.788	26.13
570.129	26.26
570.47	26.41
570.811	26.53
571.151	26.72
571.492	26.52
571.833	26.56
572.174	26.44
572.514	26.73
572.855	26.49
573.195	26.52
573.536	26.68
573.876	26.52
574.217	26.73
574.557	26.74
574.898	26.49
575.238	26.73
575.578	26.64
575.918	26.82
576.258	26.8
576.598	26.84
576.938	26.97
577.278	27.15
577.618	27.03
577.958	26.99
578.298	27.04
578.638	26.95
578.977	27.18
579.317	27.27
579.657	27.3
579.996	27.05
580.336	27.56
580.675	27.38
581.014	27.45
581.354	27.69
581.693	27.68
582.032	27.73
582.372	27.75
582.711	27.78
583.05	28.04
583.389	28.01
583.728	27.88
584.067	27.84
584.406	27.85
584.745	27.91
585.083	27.61
585.422	27.9
585.761	28.25
586.1	28.48
586.438	28.1
586.777	28.01
587.115	28.16
587.454	28.49
587.792	28.41
588.13	28.54
588.469	28.2
588.807	28.27
589.145	28.36
589.483	28.45
589.821	28.36
590.159	28.4
590.497	28.28
590.835	28.39
591.173	28.66
591.511	28.58
591.849	28.64
592.187	28.32
592.524	28.85
592.862	28.8
593.2	28.71
593.537	28.74
593.875	29.04
594.212	28.96
594.55	28.72
594.887	28.92
595.224	28.73
595.561	28.94
595.899	28.91
596.236	28.8
596.573	29.24
596.91	28.93
597.247	29.18
597.584	28.96
597.921	29.25
598.258	29.12
598.594	29.02
598.931	29.12
599.268	29.02
599.604	29.07
599.941	29.14
600.277	28.88
600.614	28.95
600.95	29.3
601.287	29.19
601.623	29.35
601.959	29.27
602.296	29.78
602.632	29.68
602.968	29.46
603.304	29.44
603.64	29.49
603.976	29.98
604.312	29.57
604.648	29.85
604.984	29.67
605.319	29.9
605.655	29.91
605.991	29.82
606.326	29.63
606.662	29.72
606.998	29.6
607.333	29.74
607.668	29.72
608.004	29.61
608.339	29.86
608.674	29.84
609.01	29.91
609.345	30.22
609.68	30.35
610.015	30.46
610.35	30.37
610.685	30.06
611.02	30.39
611.355	30.46
611.689	30.47
612.024	30.23
612.359	30.2
612.694	30.36
613.028	30.38
613.363	30.42
613.697	30.76
614.032	30.64
614.366	30.79
614.7	30.72
615.035	30.98
615.369	30.85
615.703	30.57
616.037	30.74
616.371	30.8
616.705	31.07
617.039	31.1
617.373	30.71
617.707	31.19
618.041	30.89
618.375	31.17
618.709	31
619.042	31.14
619.376	31.58
619.71	31.49
620.043	31.05
620.377	31.52
620.71	31.56
621.043	31.65
621.377	31.37
621.71	31.63
622.043	31.73
622.376	31.39
622.709	31.64
623.043	31.62
623.376	31.9
623.709	31.92
624.041	32.14
624.374	31.64
624.707	31.98
625.04	32.04
625.373	32.05
625.705	32.22
626.038	31.86
626.37	31.91
626.703	32.25
627.035	32.54
627.368	32.08
627.7	32.19
628.032	32.34
628.365	32.61
628.697	32.23
629.029	32.3
629.361	32.46
629.693	32.25
630.025	32.38
630.357	32.5
630.689	32.17
631.021	32.59
631.353	32.07
631.684	32.85
632.016	32.61
632.348	32.37
632.679	32.46
633.011	32.88
633.342	32.55
633.674	32.68
634.005	32.27
634.336	32.76
634.668	33.26
634.999	32.99
635.33	33.01
635.661	33.06
635.992	33.13
636.323	33.15
636.654	33.12
636.985	32.96
637.316	32.74
637.647	33.3
637.977	33.25
638.308	33.03
638.639	33.02
638.969	33.16
639.3	33.1
639.63	33.01
639.961	33.62
640.291	33.35
640.622	33.48
640.952	33.33
641.282	33.58
641.612	33.56
641.943	33.48
642.273	33.44
642.603	33.94
642.933	33.61
643.263	33.35
643.592	33.93
643.922	33.64
644.252	33.99
644.582	34
644.911	33.79
645.241	34.04
645.571	34.1
645.9	34
646.23	34.37
646.559	33.54
646.888	33.9
647.218	33.53
647.547	34.15
647.876	33.78
648.205	34.51
648.534	34.22
648.863	34.73
649.192	34.52
649.521	33.98
649.85	33.92
650.179	33.94
650.508	34.57
650.837	34.39
651.165	35.01
651.494	34.5
651.822	34.92
652.151	34.47
652.479	34.83
652.808	34.59
653.136	34.27
653.465	34.58
653.793	34.56
654.121	34.18
654.449	34.4
654.777	34.63
655.105	34.74
655.433	34.53
655.761	34.85
656.089	34.75
656.417	34.34
656.745	34.97
657.073	34.4
657.4	35.52
657.728	35.18
658.056	35.11
658.383	35.55
658.711	34.78
659.038	35.03
659.365	35.08
659.693	35.32
660.02	34.99
660.347	35.48
660.674	35.4
661.001	35.25
661.329	35.19
661.656	35.94
661.982	35.3
662.309	35.56
662.636	35.43
662.963	35.67
663.29	35.59
663.616	35.51
663.943	35.46
664.27	35.27
664.596	36.02
664.923	35.94
665.249	35.74
665.576	36.23
665.902	35.88
666.228	35.78
666.554	35.6
666.881	35.85
667.207	36.08
667.533	36.3
667.859	36.1
668.185	37.09
668.511	35.49
668.837	35.94
669.162	36.19
669.488	35.68
669.814	36.38
670.139	36.09
670.465	36.37
670.791	36.2
671.116	36.02
671.442	36.23
671.767	35.96
672.092	36.17
672.418	36.08
672.743	36.8
673.068	35.76
673.393	36.06
673.718	36.26
