Data from 97276_forehead_Reflection__3__114.txt Node

Date: Fri Sep 23 20:34:24 CDT 2022
User: ToomeyLab
Spectrometer: FLMS14357
Trigger mode: 0
Integration Time (sec): 1.000000E-2
Scans to average: 100
Electric dark correction enabled: true
Nonlinearity correction enabled: false
Boxcar width: 0
XAxis mode: Wavelengths
Number of Pixels in Spectrum: 2048
>>>>>Begin Spectral Data<<<<<
189.047	18.26
189.435	18.26
189.823	18.26
190.211	9.66
190.599	-710.23
190.987	14.37
191.375	47.99
191.763	39.01
192.151	45.49
192.538	-0.65
192.926	35.39
193.314	37.7
193.702	115.2
194.089	365.62
194.477	94.44
194.864	-531.72
195.252	116.48
195.639	-8.81
196.027	40.48
196.414	96.53
196.801	137.18
197.189	-167.42
197.576	8.52
197.963	-19.06
198.351	36.43
198.738	21.45
199.125	22.7
199.512	15.52
199.899	-0.78
200.286	16.72
200.673	11.35
201.06	70.39
201.447	18.35
201.833	35.5
202.22	14.12
202.607	1.72
202.994	-3.96
203.38	-28.26
203.767	-77.3
204.154	29.67
204.54	23.59
204.927	7.76
205.313	47.49
205.699	-22.4
206.086	-5.35
206.472	39.7
206.858	42.16
207.245	18.99
207.631	49.39
208.017	0.45
208.403	16.17
208.789	30.35
209.175	41.32
209.561	26.47
209.947	11.69
210.333	9.07
210.719	-40.62
211.105	20.63
211.491	18.54
211.876	18.76
212.262	-26.18
212.648	-16.59
213.034	-15.75
213.419	-19.12
213.805	22.07
214.19	-19.24
214.576	1.01
214.961	21.95
215.346	-7.87
215.732	30.61
216.117	13.59
216.502	2.2
216.888	30.96
217.273	-1.52
217.658	-9
218.043	37.6
218.428	-3.17
218.813	27.66
219.198	20.49
219.583	18.27
219.968	16.73
220.353	-0.68
220.738	18.86
221.122	11.86
221.507	15.43
221.892	12.02
222.276	-19.15
222.661	5.37
223.046	2.56
223.43	5.25
223.815	8.16
224.199	-3.91
224.583	7.49
224.968	10.48
225.352	11.62
225.736	-4.37
226.121	4.34
226.505	6.32
226.889	10.3
227.273	6.16
227.657	3.2
228.041	4.38
228.425	6.93
228.809	3.11
229.193	5.57
229.577	5.24
229.961	4.87
230.344	4.6
230.728	3.35
231.112	3.55
231.495	3.17
231.879	2.72
232.263	4.7
232.646	4.43
233.03	3.17
233.413	4.07
233.797	3.85
234.18	6.44
234.563	3.34
234.946	5.62
235.33	3.92
235.713	4.9
236.096	2.65
236.479	2.88
236.862	3.46
237.245	4.67
237.628	5.75
238.011	5.97
238.394	4.47
238.777	5.08
239.16	4.89
239.543	4.58
239.925	4.51
240.308	5.33
240.691	4.09
241.073	2.87
241.456	3.37
241.838	6.88
242.221	5.72
242.603	4.84
242.986	3.23
243.368	3.48
243.75	4.42
244.133	4.21
244.515	4.11
244.897	3.99
245.279	4.41
245.661	4.94
246.043	4.21
246.425	3.96
246.807	4
247.189	5.14
247.571	4.29
247.953	4.37
248.335	4.55
248.717	4.25
249.098	4.11
249.48	4.2
249.862	4.58
250.243	4.42
250.625	4.14
251.006	4.47
251.388	3.55
251.769	4.76
252.151	2.45
252.532	4.13
252.913	4.94
253.295	4.55
253.676	4.6
254.057	4.28
254.438	4
254.819	4.66
255.2	5.06
255.581	5.13
255.962	4.44
256.343	4.09
256.724	3.67
257.105	4.87
257.486	3.9
257.867	4.35
258.247	4.21
258.628	3.52
259.009	3.7
259.389	4.42
259.77	3.67
260.15	4.37
260.531	4.62
260.911	4.05
261.292	4.22
261.672	4.04
262.052	3.95
262.432	4.19
262.813	4.22
263.193	4.02
263.573	4.25
263.953	4.07
264.333	4.58
264.713	4.74
265.093	4.51
265.473	4.82
265.853	2.68
266.233	4.31
266.612	4.64
266.992	4.57
267.372	3.82
267.752	4.37
268.131	4.57
268.511	3.73
268.89	4.11
269.27	4.42
269.649	4.17
270.029	4.43
270.408	4.53
270.787	3.6
271.167	3.57
271.546	4.31
271.925	3.99
272.304	3.79
272.683	3.93
273.062	3.87
273.441	4.1
273.82	3.96
274.199	4.4
274.578	3.98
274.957	3.95
275.336	4.39
275.715	3.84
276.093	4.22
276.472	4.83
276.851	4.38
277.229	3.83
277.608	4.25
277.986	3.91
278.365	4.3
278.743	4.58
279.122	3.61
279.5	3.97
279.878	3.6
280.257	3.84
280.635	4.22
281.013	3.84
281.391	4.13
281.769	4.13
282.147	4.03
282.525	4.8
282.903	4.02
283.281	4.16
283.659	4.38
284.037	4.06
284.415	3.95
284.792	4.01
285.17	3.72
285.548	3.82
285.925	4.09
286.303	4.41
286.68	3.85
287.058	4.31
287.435	3.87
287.813	4.29
288.19	4.13
288.567	3.77
288.945	4.14
289.322	4.21
289.699	4.27
290.076	4.06
290.453	4
290.83	4.37
291.207	4.11
291.584	4.36
291.961	4.44
292.338	4.27
292.715	4.29
293.092	3.8
293.469	4.54
293.845	4.6
294.222	4.85
294.599	4.07
294.975	4.45
295.352	4.73
295.728	4.49
296.105	4.96
296.481	4.27
296.858	4.96
297.234	4.78
297.61	4.79
297.986	4.63
298.363	4.41
298.739	4.61
299.115	4.44
299.491	4.53
299.867	4.43
300.243	4.9
300.619	5.09
300.995	5.06
301.371	4.71
301.746	5.12
302.122	4.99
302.498	5.05
302.874	4.45
303.249	5.24
303.625	5.14
304	4.99
304.376	4.95
304.751	4.79
305.127	4.79
305.502	5.1
305.878	5.45
306.253	5.07
306.628	5.16
307.003	4.92
307.378	5.36
307.754	5.75
308.129	5.1
308.504	5.29
308.879	5.21
309.254	5.52
309.629	5.62
310.003	5.78
310.378	5.65
310.753	5.35
311.128	5.33
311.502	5.23
311.877	5.63
312.252	5.25
312.626	5.59
313.001	5.69
313.375	5.76
313.75	5.52
314.124	5.68
314.498	6.32
314.873	6.43
315.247	6.19
315.621	6.2
315.995	6.28
316.369	6.08
316.743	6.19
317.117	5.74
317.491	5.69
317.865	6.19
318.239	6.4
318.613	5.97
318.987	5.86
319.361	6.14
319.734	6.64
320.108	6.12
320.482	6.5
320.855	5.86
321.229	6.74
321.602	6.54
321.976	6.41
322.349	6.54
322.723	7.06
323.096	6.73
323.469	6.52
323.843	6.76
324.216	7.01
324.589	7.06
324.962	7.1
325.335	6.42
325.708	6.38
326.081	6.59
326.454	6.76
326.827	6.63
327.2	6.67
327.573	6.81
327.945	7.47
328.318	6.43
328.691	7.28
329.063	7.18
329.436	6.78
329.809	7.49
330.181	7.21
330.553	6.94
330.926	6.62
331.298	7.06
331.671	7.3
332.043	7.21
332.415	7.25
332.787	7
333.159	7.2
333.532	7.15
333.904	7.25
334.276	6.87
334.648	7.44
335.02	7.68
335.391	7.44
335.763	7.56
336.135	7.26
336.507	7.94
336.879	7.41
337.25	7.76
337.622	7.56
337.993	7.33
338.365	7.44
338.736	8.1
339.108	8.25
339.479	7.46
339.851	7.89
340.222	8.12
340.593	7.46
340.964	7.63
341.336	7.8
341.707	8.31
342.078	7.92
342.449	7.55
342.82	7.93
343.191	8.21
343.562	7.57
343.933	8.38
344.303	8.22
344.674	8.28
345.045	8.37
345.416	8.06
345.786	8.7
346.157	8.56
346.527	8.26
346.898	8.46
347.268	7.94
347.639	8.15
348.009	8.08
348.38	8.45
348.75	8.67
349.12	8.13
349.49	8.63
349.861	8.68
350.231	8.17
350.601	8.37
350.971	8.78
351.341	8.29
351.711	8.67
352.081	8.36
352.45	8.44
352.82	8.43
353.19	8.88
353.56	8.94
353.929	8.3
354.299	8.77
354.669	8.85
355.038	9.3
355.408	8.65
355.777	8.79
356.147	8.89
356.516	9.1
356.885	8.83
357.254	8.88
357.624	9.02
357.993	9.02
358.362	9.03
358.731	9.09
359.1	8.9
359.469	9.05
359.838	9.29
360.207	9.35
360.576	9.07
360.945	9.03
361.314	9.29
361.682	9.5
362.051	9.6
362.42	9.68
362.788	9.31
363.157	9.37
363.525	9.63
363.894	9.59
364.262	9.21
364.631	9.73
364.999	9.63
365.367	9.46
365.735	9.69
366.104	9.87
366.472	9.71
366.84	9.59
367.208	9.69
367.576	9.92
367.944	9.81
368.312	9.58
368.68	10.02
369.048	10.11
369.416	9.92
369.783	9.83
370.151	9.69
370.519	10.17
370.886	9.58
371.254	10.21
371.621	10.17
371.989	10.19
372.356	10.34
372.724	9.96
373.091	10.28
373.458	10.18
373.826	10.19
374.193	10.37
374.56	10.16
374.927	10.24
375.294	10.55
375.661	10.04
376.028	10.2
376.395	10.32
376.762	10.07
377.129	10.48
377.496	10.63
377.863	10.69
378.229	10.55
378.596	10.57
378.963	10.66
379.329	10.76
379.696	10.67
380.062	10.7
380.429	10.35
380.795	10.22
381.161	10.96
381.528	10.71
381.894	10.91
382.26	10.68
382.626	11.04
382.993	10.97
383.359	10.72
383.725	11.07
384.091	10.97
384.457	11.19
384.823	10.87
385.188	11.18
385.554	11.24
385.92	11.19
386.286	11.24
386.651	11.21
387.017	11.38
387.383	11.31
387.748	11.32
388.114	11.34
388.479	11.04
388.845	11.15
389.21	11.22
389.575	11.46
389.94	11.32
390.306	11.15
390.671	11.44
391.036	11.41
391.401	11.87
391.766	11.31
392.131	11.51
392.496	11.57
392.861	11.64
393.226	11.55
393.591	11.5
393.956	11.8
394.32	11.69
394.685	11.55
395.05	12.07
395.414	11.58
395.779	11.83
396.143	11.61
396.508	11.6
396.872	11.62
397.236	11.84
397.601	11.89
397.965	11.96
398.329	12.11
398.694	11.85
399.058	11.88
399.422	11.92
399.786	11.88
400.15	12.13
400.514	11.98
400.878	11.9
401.242	11.79
401.605	12.13
401.969	12.17
402.333	12.12
402.697	11.85
403.06	12.28
403.424	12.32
403.787	12.4
404.151	12.31
404.514	12.2
404.878	12.27
405.241	12.36
405.604	12.4
405.968	12.15
406.331	12.26
406.694	12.49
407.057	12.15
407.42	12.31
407.783	12.41
408.146	12.45
408.509	12.65
408.872	12.47
409.235	12.44
409.598	12.65
409.961	12.73
410.323	12.58
410.686	12.53
411.049	12.77
411.411	12.73
411.774	12.29
412.136	12.69
412.499	12.69
412.861	12.78
413.223	12.73
413.586	12.75
413.948	12.48
414.31	12.68
414.672	12.83
415.035	12.79
415.397	13.04
415.759	12.96
416.121	12.85
416.483	12.99
416.845	12.84
417.206	12.97
417.568	12.98
417.93	12.94
418.292	13.03
418.653	13.09
419.015	13.01
419.377	12.93
419.738	13.18
420.1	12.97
420.461	13.13
420.822	13.12
421.184	13.15
421.545	13.23
421.906	13.14
422.267	13.07
422.629	13.13
422.99	13.15
423.351	13.21
423.712	13.12
424.073	13.27
424.434	13.31
424.795	13.32
425.155	13.47
425.516	13.45
425.877	13.41
426.238	13.39
426.598	13.51
426.959	13.44
427.32	13.56
427.68	13.69
428.041	13.66
428.401	13.85
428.761	13.88
429.122	13.81
429.482	14
429.842	13.99
430.202	14.12
430.563	13.98
430.923	14.3
431.283	14.32
431.643	14.14
432.003	14.13
432.363	14.22
432.722	14.38
433.082	14.2
433.442	14.4
433.802	14.61
434.161	14.42
434.521	14.41
434.881	14.4
435.24	14.45
435.6	14.41
435.959	14.39
436.319	14.48
436.678	14.45
437.037	14.78
437.396	14.7
437.756	14.79
438.115	14.65
438.474	14.73
438.833	15.04
439.192	14.93
439.551	14.99
439.91	14.97
440.269	15.06
440.628	14.91
440.987	15.07
441.345	14.96
441.704	14.98
442.063	15.08
442.421	15.04
442.78	14.96
443.138	15
443.497	15.19
443.855	15.31
444.214	15.19
444.572	15.26
444.93	15.23
445.288	15.6
445.647	15.7
446.005	15.65
446.363	15.47
446.721	15.43
447.079	15.51
447.437	15.49
447.795	15.51
448.153	15.31
448.51	15.46
448.868	15.39
449.226	15.6
449.584	15.54
449.941	15.67
450.299	15.73
450.656	16
451.014	15.83
451.371	15.82
451.729	15.96
452.086	16.12
452.443	15.93
452.801	16.07
453.158	16.32
453.515	16.15
453.872	16.17
454.229	16.31
454.586	16.3
454.943	16.26
455.3	16.28
455.657	16.46
456.014	16.51
456.371	16.34
456.727	16.53
457.084	16.41
457.441	16.8
457.797	16.49
458.154	16.56
458.51	16.77
458.867	16.79
459.223	16.69
459.58	16.83
459.936	16.95
460.292	16.76
460.648	16.85
461.005	16.84
461.361	16.7
461.717	16.73
462.073	16.72
462.429	16.67
462.785	16.68
463.141	16.91
463.496	16.93
463.852	17.13
464.208	17.13
464.564	17.34
464.919	17.29
465.275	17.38
465.631	17.29
465.986	17.3
466.342	17.28
466.697	17.48
467.052	17.53
467.408	17.47
467.763	17.36
468.118	17.59
468.473	17.48
468.829	17.6
469.184	17.67
469.539	17.75
469.894	17.59
470.249	17.64
470.603	17.94
470.958	17.95
471.313	18.04
471.668	18.06
472.023	17.69
472.377	17.98
472.732	18.01
473.086	18
473.441	18.08
473.795	18.37
474.15	18.27
474.504	18.34
474.859	18.3
475.213	18.39
475.567	18.16
475.921	18.46
476.275	18.27
476.63	18.3
476.984	18.54
477.338	18.5
477.692	18.53
478.045	18.47
478.399	18.69
478.753	18.74
479.107	18.45
479.461	18.75
479.814	18.57
480.168	18.62
480.521	18.72
480.875	18.77
481.228	18.88
481.582	18.71
481.935	18.88
482.289	18.91
482.642	18.74
482.995	18.92
483.348	18.65
483.701	18.82
484.055	18.73
484.408	18.79
484.761	18.65
485.114	18.41
485.466	18.29
485.819	18.3
486.172	18.27
486.525	18.22
486.878	18.38
487.23	18.38
487.583	18.64
487.936	18.76
488.288	18.85
488.641	18.84
488.993	18.8
489.345	18.76
489.698	18.64
490.05	18.82
490.402	18.68
490.754	18.86
491.107	18.99
491.459	19.09
491.811	19.29
492.163	19.45
492.515	19.47
492.866	19.47
493.218	19.25
493.57	19.11
493.922	19.13
494.274	19.28
494.625	19.26
494.977	19.51
495.328	19.63
495.68	19.95
496.031	19.93
496.383	20.01
496.734	20.09
497.086	20.23
497.437	20.29
497.788	20.34
498.139	20.32
498.49	20.18
498.842	20.2
499.193	20.24
499.544	20.15
499.894	20.23
500.245	20.35
500.596	20.35
500.947	20.42
501.298	20.64
501.648	20.67
501.999	20.7
502.35	20.62
502.7	20.82
503.051	20.73
503.401	20.9
503.752	20.79
504.102	20.99
504.452	20.9
504.803	20.9
505.153	20.97
505.503	20.87
505.853	21.16
506.203	21.12
506.553	21.05
506.903	21.18
507.253	21.21
507.603	21.25
507.953	21.18
508.303	21.37
508.652	21.24
509.002	21.31
509.352	21.53
509.701	21.17
510.051	21.34
510.4	21.4
510.75	21.28
511.099	21.45
511.449	21.32
511.798	21.35
512.147	21.37
512.496	21.48
512.846	21.45
513.195	21.5
513.544	21.92
513.893	21.71
514.242	21.74
514.591	21.62
514.939	21.78
515.288	21.76
515.637	21.94
515.986	21.86
516.334	21.9
516.683	21.89
517.032	21.96
517.38	22.06
517.729	22.12
518.077	22.05
518.426	22.17
518.774	22.29
519.122	22.05
519.47	22.03
519.819	22.14
520.167	21.97
520.515	21.94
520.863	22.11
521.211	22
521.559	22.06
521.907	22.18
522.255	22.12
522.602	22.31
522.95	22.47
523.298	22.42
523.645	22.67
523.993	22.48
524.341	22.78
524.688	22.59
525.036	22.73
525.383	22.68
525.73	22.71
526.078	22.81
526.425	22.86
526.772	22.62
527.119	22.88
527.466	22.65
527.814	22.64
528.161	22.63
528.508	22.63
528.854	22.78
529.201	22.75
529.548	22.7
529.895	22.5
530.242	22.4
530.588	22.44
530.935	22.53
531.282	22.41
531.628	22.37
531.975	22.5
532.321	22.59
532.667	22.78
533.014	22.83
533.36	23.05
533.706	23.05
534.052	23.24
534.399	23.16
534.745	23.1
535.091	22.99
535.437	23.06
535.783	22.97
536.129	22.95
536.474	23.13
536.82	23.13
537.166	23.54
537.512	23.43
537.857	23.65
538.203	23.66
538.549	23.59
538.894	23.65
539.239	23.75
539.585	23.62
539.93	23.82
540.276	23.93
540.621	24.03
540.966	23.98
541.311	24.28
541.656	24.17
542.001	24.39
542.346	24.18
542.691	24
543.036	23.74
543.381	23.81
543.726	23.67
544.071	23.64
544.415	23.77
544.76	23.88
545.105	23.97
545.449	24.17
545.794	24.23
546.138	24.37
546.483	24.52
546.827	24.51
547.171	24.58
547.516	24.68
547.86	24.61
548.204	24.58
548.548	24.61
548.892	24.61
549.236	24.8
549.58	24.85
549.924	24.91
550.268	25.01
550.612	24.94
550.956	25.13
551.3	25.29
551.643	25.36
551.987	25.54
552.33	25.37
552.674	25.41
553.017	25.32
553.361	25.57
553.704	25.58
554.048	25.55
554.391	25.68
554.734	25.46
555.077	25.38
555.42	25.47
555.764	25.43
556.107	25.51
556.45	25.7
556.793	25.87
557.135	25.93
557.478	25.73
557.821	26.09
558.164	25.92
558.507	25.76
558.849	26.21
559.192	25.98
559.534	26.04
559.877	26.24
560.219	26.16
560.562	26.3
560.904	26.2
561.246	26.25
561.589	26.26
561.931	26.24
562.273	26.37
562.615	26.32
562.957	26.32
563.299	26.39
563.641	26.43
563.983	26.39
564.325	26.59
564.667	26.48
565.008	26.4
565.35	26.7
565.692	26.51
566.033	26.6
566.375	26.78
566.716	26.72
567.058	26.71
567.399	26.49
567.741	26.71
568.082	26.67
568.423	26.97
568.764	26.82
569.105	26.8
569.447	26.64
569.788	26.93
570.129	27.11
570.47	27.15
570.811	27.19
571.151	27.23
571.492	27.31
571.833	27.31
572.174	27.3
572.514	27.61
572.855	27.29
573.195	27.2
573.536	27.47
573.876	27.21
574.217	27.4
574.557	27.38
574.898	27.21
575.238	27.4
575.578	27.42
575.918	27.39
576.258	27.55
576.598	27.38
576.938	27.48
577.278	27.49
577.618	27.7
577.958	27.69
578.298	27.64
578.638	27.62
578.977	27.83
579.317	27.96
579.657	28.11
579.996	27.71
580.336	28.18
580.675	28.1
581.014	27.96
581.354	28.33
581.693	28.25
582.032	28.25
582.372	28.6
582.711	28.46
583.05	28.49
583.389	28.57
583.728	28.54
584.067	28.7
584.406	28.43
584.745	28.55
585.083	28.59
585.422	28.58
585.761	28.76
586.1	28.78
586.438	28.58
586.777	28.86
587.115	28.74
587.454	29.2
587.792	28.89
588.13	29.06
588.469	28.84
588.807	28.96
589.145	29.06
589.483	29.23
589.821	28.8
590.159	29.18
590.497	29.13
590.835	28.95
591.173	29.4
591.511	29.21
591.849	29.03
592.187	29.33
592.524	29.27
592.862	29.29
593.2	29.43
593.537	29.3
593.875	29.51
594.212	29.57
594.55	29.2
594.887	29.41
595.224	29.61
595.561	29.53
595.899	29.75
596.236	29.55
596.573	29.83
596.91	29.71
597.247	29.9
597.584	29.82
597.921	29.7
598.258	29.75
598.594	29.66
598.931	29.97
599.268	29.83
599.604	29.79
599.941	29.82
600.277	29.99
600.614	29.91
600.95	29.99
601.287	30.32
601.623	30.15
601.959	30.01
602.296	30.1
602.632	30.26
602.968	30.05
603.304	30.25
603.64	30.59
603.976	30.22
604.312	30.75
604.648	30.65
604.984	30.6
605.319	30.36
605.655	30.67
605.991	30.46
606.326	30.4
606.662	30.57
606.998	30.58
607.333	30.3
607.668	30.61
608.004	30.6
608.339	30.56
608.674	30.57
609.01	30.87
609.345	31.15
609.68	30.91
610.015	31.05
610.35	31.27
610.685	30.7
611.02	30.98
611.355	30.84
611.689	31.03
612.024	30.74
612.359	31.08
612.694	31.27
613.028	31.2
613.363	31.49
613.697	31.38
614.032	31.07
614.366	31.34
614.7	31.4
615.035	31.95
615.369	31.66
615.703	31.44
616.037	31.3
616.371	31.64
616.705	31.76
617.039	31.76
617.373	32.18
617.707	31.84
618.041	31.79
618.375	32.04
618.709	31.59
619.042	31.9
619.376	31.64
619.71	31.84
620.043	31.76
620.377	31.81
620.71	31.93
621.043	32.17
621.377	31.99
621.71	32.21
622.043	32.39
622.376	31.64
622.709	32.34
623.043	32.03
623.376	32.32
623.709	32.11
624.041	32.53
624.374	32.69
624.707	32.34
625.04	32.74
625.373	32.66
625.705	32.46
626.038	32.56
626.37	32.43
626.703	32.47
627.035	32.89
627.368	32.82
627.7	32.88
628.032	32.77
628.365	32.76
628.697	32.97
629.029	32.87
629.361	32.98
629.693	32.79
630.025	32.66
630.357	33.2
630.689	32.79
631.021	33.16
631.353	32.98
631.684	33.06
632.016	33.62
632.348	32.98
632.679	32.89
633.011	33.59
633.342	33.33
633.674	33.25
634.005	33.24
634.336	33.45
634.668	33.29
634.999	33.34
635.33	33.31
635.661	33.6
635.992	33.79
636.323	33.65
636.654	33.45
636.985	33.78
637.316	33.77
637.647	33.84
637.977	33.85
638.308	33.82
638.639	33.65
638.969	33.79
639.3	33.6
639.63	33.68
639.961	33.72
640.291	33.73
640.622	34.02
640.952	33.9
641.282	33.68
641.612	34.23
641.943	34.1
642.273	34.25
642.603	34.58
642.933	34.46
643.263	34.11
643.592	34.49
643.922	34.05
644.252	34.59
644.582	34.28
644.911	34.25
645.241	34.17
645.571	35
645.9	34.8
646.23	34.63
646.559	34.15
646.888	34.42
647.218	34.73
647.547	34.6
647.876	34.4
648.205	34.43
648.534	34.49
648.863	34.63
649.192	34.9
649.521	34.83
649.85	34.32
650.179	34.69
650.508	34.95
650.837	34.92
651.165	35.14
651.494	35.29
651.822	35.42
652.151	34.97
652.479	35.25
652.808	35
653.136	34.56
653.465	34.72
653.793	35.29
654.121	34.72
654.449	35.22
654.777	35.27
655.105	35.01
655.433	35
655.761	35.42
656.089	35.82
656.417	35.3
656.745	35.21
657.073	34.89
657.4	35.37
657.728	35.72
658.056	35.86
658.383	35.75
658.711	35.88
659.038	35.65
659.365	35.06
659.693	35.9
660.02	35.77
660.347	36.21
660.674	35.85
661.001	36.2
661.329	35.97
661.656	36.32
661.982	35.83
662.309	35.35
662.636	36.14
662.963	36.08
663.29	36.25
663.616	36.2
663.943	35.84
664.27	35.8
664.596	35.76
664.923	36.53
665.249	36.64
665.576	36.49
665.902	35.98
666.228	36.51
666.554	35.88
666.881	36.15
667.207	36.84
667.533	36.55
667.859	36.84
668.185	36.49
668.511	36.17
668.837	36.89
669.162	36.28
669.488	36.08
669.814	36.67
670.139	36.21
670.465	36.59
670.791	37.15
671.116	37.01
671.442	36.61
671.767	36.47
672.092	36.78
672.418	36.93
672.743	37
