Data from 97276_crown_Reflection__0__116.txt Node

Date: Fri Sep 23 20:35:37 CDT 2022
User: ToomeyLab
Spectrometer: FLMS14357
Trigger mode: 0
Integration Time (sec): 1.000000E-2
Scans to average: 100
Electric dark correction enabled: true
Nonlinearity correction enabled: false
Boxcar width: 0
XAxis mode: Wavelengths
Number of Pixels in Spectrum: 2048
>>>>>Begin Spectral Data<<<<<
189.047	97.73
189.435	97.73
189.823	97.73
190.211	142.72
190.599	62.43
190.987	120.94
191.375	-44.13
191.763	111.97
192.151	65.65
192.538	95.19
192.926	39.74
193.314	114.97
193.702	59.7
194.089	-230.28
194.477	44.1
194.864	16.15
195.252	32.86
195.639	58.5
196.027	61.25
196.414	183.46
196.801	35.11
197.189	-344.88
197.576	-50.28
197.963	-45.16
198.351	29.77
198.738	-28.32
199.125	10.62
199.512	12.38
199.899	16.67
200.286	-17.95
200.673	-1.82
201.06	21.68
201.447	12.96
201.833	19.36
202.22	7.48
202.607	34.21
202.994	-26.14
203.38	15.58
203.767	-37.34
204.154	11.57
204.54	26.61
204.927	15.38
205.313	30.29
205.699	-18.1
206.086	2.87
206.472	7.16
206.858	47.18
207.245	6.82
207.631	7.39
208.017	3.66
208.403	-4.72
208.789	15.22
209.175	-3.48
209.561	4.53
209.947	21.97
210.333	4.73
210.719	21.06
211.105	4.19
211.491	9.8
211.876	2.05
212.262	8.27
212.648	-4.69
213.034	-44.13
213.419	-14.47
213.805	17.32
214.19	-31.19
214.576	4.77
214.961	18.16
215.346	-26.13
215.732	28.28
216.117	2.74
216.502	-8.99
216.888	0.51
217.273	4.14
217.658	-13.38
218.043	16.5
218.428	7.28
218.813	1.22
219.198	-5.26
219.583	2.59
219.968	8.99
220.353	11.73
220.738	-2.17
221.122	2.42
221.507	1.08
221.892	0.27
222.276	-6.12
222.661	-2.54
223.046	0.51
223.43	-2.91
223.815	5.28
224.199	5.97
224.583	6.5
224.968	8.14
225.352	1.37
225.736	-3.95
226.121	7.83
226.505	14.25
226.889	10.14
227.273	7.12
227.657	7.99
228.041	6.24
228.425	3.06
228.809	4.01
229.193	6.7
229.577	7.26
229.961	6.65
230.344	5.83
230.728	6.66
231.112	5.53
231.495	5.7
231.879	5.42
232.263	5.85
232.646	7.31
233.03	6.04
233.413	6.67
233.797	5.38
234.18	6.9
234.563	4.97
234.946	9.47
235.33	4.01
235.713	6.69
236.096	5.12
236.479	4.44
236.862	6.61
237.245	6.82
237.628	7.03
238.011	7.61
238.394	6.77
238.777	5.7
239.16	6.43
239.543	4.63
239.925	6.8
240.308	6.88
240.691	7.72
241.073	3.28
241.456	5.75
241.838	7.8
242.221	6.1
242.603	6.78
242.986	5.71
243.368	5.6
243.75	6.56
244.133	6.34
244.515	5.72
244.897	6.07
245.279	6.44
245.661	6.64
246.043	6.85
246.425	5.97
246.807	5.4
247.189	6.83
247.571	6.37
247.953	6.41
248.335	6.57
248.717	6.06
249.098	5.76
249.48	6.01
249.862	5.97
250.243	6.29
250.625	6.05
251.006	6.11
251.388	5.77
251.769	5.81
252.151	4.35
252.532	7.44
252.913	6.67
253.295	6.26
253.676	6.08
254.057	5.67
254.438	5.94
254.819	6.37
255.2	6.72
255.581	6.23
255.962	4.76
256.343	5.75
256.724	5.87
257.105	5.57
257.486	6.01
257.867	4.95
258.247	6.35
258.628	5.63
259.009	5.79
259.389	5.69
259.77	5.05
260.15	5.98
260.531	5.7
260.911	5.44
261.292	5.45
261.672	5.71
262.052	5.38
262.432	5.52
262.813	5.95
263.193	5.53
263.573	5.8
263.953	5.43
264.333	5.39
264.713	5.67
265.093	5.69
265.473	5.43
265.853	5.8
266.233	4.53
266.612	5.15
266.992	6.02
267.372	5.42
267.752	5.6
268.131	5.73
268.511	5.16
268.89	5.44
269.27	5.4
269.649	5.06
270.029	5.32
270.408	5.35
270.787	5.35
271.167	5.26
271.546	5.12
271.925	4.84
272.304	5.29
272.683	5.13
273.062	5.33
273.441	5.54
273.82	5.36
274.199	5.03
274.578	5.17
274.957	5.18
275.336	5.29
275.715	5.22
276.093	6.05
276.472	5.79
276.851	5.67
277.229	4.92
277.608	5.15
277.986	4.54
278.365	5.2
278.743	5.18
279.122	4.48
279.5	4.96
279.878	5.01
280.257	5.36
280.635	4.54
281.013	4.88
281.391	5.28
281.769	4.82
282.147	5.43
282.525	4.98
282.903	5.01
283.281	5.03
283.659	5.15
284.037	4.88
284.415	5.15
284.792	5.05
285.17	4.55
285.548	4.85
285.925	5.03
286.303	5.19
286.68	4.95
287.058	4.44
287.435	4.82
287.813	5.34
288.19	4.65
288.567	5.17
288.945	5
289.322	4.53
289.699	5.23
290.076	4.97
290.453	4.94
290.83	4.94
291.207	4.98
291.584	4.67
291.961	4.87
292.338	4.8
292.715	4.59
293.092	4.77
293.469	4.7
293.845	4.9
294.222	5.25
294.599	4.43
294.975	5.2
295.352	4.55
295.728	4.67
296.105	4.85
296.481	4.73
296.858	4.63
297.234	4.68
297.61	4.43
297.986	4.69
298.363	4.68
298.739	4.71
299.115	4.42
299.491	4.54
299.867	4.34
300.243	4.83
300.619	4.93
300.995	4.84
301.371	3.9
301.746	5.01
302.122	4.66
302.498	4.64
302.874	4.39
303.249	4.74
303.625	4.32
304	4.67
304.376	4.64
304.751	4.33
305.127	4.74
305.502	4.47
305.878	4.63
306.253	4.41
306.628	4.34
307.003	4.14
307.378	4.87
307.754	4.96
308.129	4.82
308.504	4.14
308.879	4.53
309.254	4.65
309.629	4.88
310.003	4.59
310.378	4.65
310.753	4.43
311.128	4.38
311.502	4.36
311.877	4.47
312.252	4.49
312.626	4.43
313.001	4.35
313.375	4.59
313.75	4.4
314.124	3.98
314.498	4.69
314.873	4.95
315.247	4.17
315.621	4.69
315.995	4.83
316.369	4.51
316.743	4.03
317.117	3.61
317.491	4.5
317.865	4.56
318.239	4.64
318.613	4.61
318.987	3.95
319.361	4.04
319.734	3.97
320.108	4.23
320.482	4.87
320.855	3.96
321.229	4.98
321.602	4.11
321.976	5.26
322.349	4.21
322.723	4.57
323.096	4.81
323.469	4.2
323.843	3.96
324.216	4.88
324.589	4.77
324.962	4.65
325.335	4.36
325.708	4.28
326.081	4.23
326.454	4.67
326.827	4.36
327.2	4.22
327.573	4.36
327.945	4.68
328.318	4.22
328.691	4.48
329.063	4.31
329.436	4.63
329.809	4.67
330.181	4.51
330.553	4.23
330.926	4.36
331.298	4.23
331.671	4.36
332.043	4.5
332.415	4.25
332.787	3.99
333.159	4.37
333.532	4.42
333.904	3.79
334.276	4.19
334.648	4.54
335.02	4.42
335.391	4.56
335.763	4.37
336.135	4.09
336.507	4.45
336.879	3.98
337.25	4.95
337.622	4.62
337.993	4.68
338.365	4.7
338.736	4.86
339.108	5.02
339.479	4.58
339.851	4.65
340.222	4.64
340.593	4.07
340.964	4.89
341.336	4.55
341.707	5.26
342.078	4.35
342.449	4.61
342.82	4.73
343.191	4.19
343.562	4.17
343.933	4.86
344.303	4.1
344.674	4.34
345.045	4.37
345.416	4.49
345.786	4.77
346.157	4.13
346.527	4.45
346.898	5.13
347.268	4.87
347.639	4.11
348.009	4.45
348.38	4.49
348.75	4.76
349.12	4.42
349.49	4.61
349.861	4.47
350.231	4.14
350.601	4.09
350.971	4.54
351.341	4.46
351.711	4.52
352.081	4.38
352.45	4.22
352.82	4.49
353.19	4.87
353.56	4.67
353.929	4.4
354.299	4.73
354.669	4.72
355.038	4.77
355.408	4.4
355.777	4.48
356.147	4.11
356.516	4.49
356.885	4.63
357.254	4.3
357.624	4.42
357.993	4.75
358.362	4.76
358.731	4.63
359.1	4.37
359.469	4.46
359.838	4.5
360.207	4.77
360.576	4.34
360.945	4.5
361.314	4.47
361.682	4.55
362.051	4.48
362.42	4.92
362.788	4.51
363.157	4.84
363.525	4.67
363.894	4.76
364.262	4.53
364.631	4.83
364.999	4.84
365.367	4.45
365.735	4.75
366.104	4.79
366.472	4.52
366.84	4.54
367.208	4.92
367.576	4.94
367.944	4.84
368.312	5.13
368.68	4.7
369.048	4.52
369.416	4.82
369.783	4.81
370.151	4.74
370.519	4.66
370.886	4.95
371.254	4.79
371.621	4.67
371.989	4.86
372.356	5.16
372.724	4.46
373.091	4.93
373.458	4.55
373.826	4.75
374.193	4.92
374.56	4.79
374.927	4.9
375.294	5.13
375.661	5.01
376.028	4.83
376.395	4.64
376.762	4.83
377.129	4.69
377.496	4.78
377.863	5.19
378.229	4.93
378.596	4.95
378.963	5.17
379.329	5.27
379.696	4.88
380.062	4.83
380.429	4.79
380.795	4.86
381.161	4.88
381.528	4.78
381.894	4.78
382.26	4.63
382.626	4.76
382.993	4.95
383.359	4.71
383.725	5.12
384.091	5.11
384.457	4.8
384.823	4.92
385.188	5.12
385.554	5.17
385.92	5.08
386.286	4.85
386.651	5.04
387.017	5.35
387.383	5.25
387.748	5.32
388.114	5.03
388.479	5.05
388.845	4.99
389.21	5.03
389.575	5.06
389.94	4.94
390.306	4.83
390.671	4.81
391.036	5.04
391.401	5.11
391.766	5.25
392.131	5.04
392.496	5.27
392.861	4.97
393.226	5.03
393.591	5
393.956	5.26
394.32	5.13
394.685	5.07
395.05	5.05
395.414	5.08
395.779	5
396.143	5.15
396.508	5.35
396.872	5.24
397.236	5.12
397.601	5.04
397.965	5.42
398.329	5.3
398.694	5.13
399.058	5.24
399.422	5.4
399.786	5.41
400.15	5.29
400.514	5.2
400.878	5.17
401.242	5.01
401.605	5.22
401.969	5.2
402.333	5.08
402.697	5.11
403.06	5.35
403.424	5.28
403.787	5.4
404.151	4.9
404.514	4.99
404.878	5.13
405.241	5.25
405.604	4.96
405.968	5.18
406.331	5.26
406.694	5.25
407.057	5.35
407.42	5.33
407.783	5.22
408.146	5.2
408.509	5.45
408.872	5.25
409.235	5.37
409.598	5.54
409.961	5.36
410.323	5.06
410.686	5.35
411.049	5.2
411.411	5.28
411.774	5.23
412.136	5.22
412.499	5.19
412.861	4.98
413.223	5.22
413.586	5.45
413.948	5.53
414.31	5.31
414.672	5.41
415.035	5.19
415.397	5.48
415.759	5.45
416.121	5.63
416.483	5.18
416.845	5.3
417.206	5.4
417.568	5.22
417.93	5.39
418.292	5.46
418.653	5.48
419.015	5.39
419.377	5.27
419.738	5.41
420.1	5.26
420.461	5.26
420.822	5.34
421.184	5.44
421.545	5.31
421.906	5.41
422.267	5.24
422.629	5.19
422.99	5.33
423.351	5.29
423.712	5.25
424.073	5.23
424.434	5.35
424.795	5.42
425.155	5.32
425.516	5.47
425.877	5.36
426.238	5.44
426.598	5.36
426.959	5.43
427.32	5.4
427.68	5.43
428.041	5.46
428.401	5.48
428.761	5.46
429.122	5.61
429.482	5.47
429.842	5.74
430.202	5.57
430.563	5.53
430.923	5.66
431.283	5.48
431.643	5.48
432.003	5.48
432.363	5.55
432.722	5.76
433.082	5.36
433.442	5.54
433.802	5.47
434.161	5.62
434.521	5.5
434.881	5.54
435.24	5.45
435.6	5.59
435.959	5.58
436.319	5.53
436.678	5.61
437.037	5.66
437.396	5.54
437.756	5.5
438.115	5.47
438.474	5.61
438.833	5.68
439.192	5.6
439.551	5.5
439.91	5.67
440.269	5.59
440.628	5.48
440.987	5.47
441.345	5.56
441.704	5.55
442.063	5.78
442.421	5.4
442.78	5.53
443.138	5.44
443.497	5.63
443.855	5.56
444.214	5.71
444.572	5.55
444.93	5.62
445.288	5.66
445.647	5.82
446.005	5.8
446.363	5.8
446.721	5.53
447.079	5.68
447.437	5.52
447.795	5.59
448.153	5.46
448.51	5.51
448.868	5.57
449.226	5.69
449.584	5.66
449.941	5.74
450.299	5.73
450.656	5.67
451.014	5.74
451.371	5.61
451.729	5.63
452.086	5.81
452.443	5.68
452.801	5.76
453.158	5.71
453.515	5.86
453.872	5.73
454.229	5.78
454.586	5.87
454.943	5.82
455.3	5.54
455.657	5.74
456.014	5.93
456.371	5.71
456.727	5.85
457.084	5.8
457.441	5.88
457.797	5.76
458.154	5.72
458.51	5.81
458.867	5.88
459.223	5.9
459.58	5.74
459.936	5.98
460.292	5.79
460.648	5.91
461.005	5.8
461.361	5.77
461.717	5.78
462.073	5.76
462.429	5.72
462.785	5.87
463.141	5.86
463.496	5.88
463.852	5.84
464.208	5.88
464.564	6.05
464.919	5.87
465.275	5.94
465.631	5.84
465.986	5.65
466.342	5.89
466.697	5.93
467.052	5.95
467.408	6.06
467.763	5.89
468.118	5.9
468.473	5.96
468.829	5.85
469.184	6.06
469.539	5.85
469.894	5.89
470.249	6
470.603	5.95
470.958	5.96
471.313	5.96
471.668	5.93
472.023	5.83
472.377	5.83
472.732	6.03
473.086	5.97
473.441	6.06
473.795	6.03
474.15	5.87
474.504	6.06
474.859	5.87
475.213	6.08
475.567	5.71
475.921	5.99
476.275	5.81
476.63	6.05
476.984	6.2
477.338	5.78
477.692	6.09
478.045	5.93
478.399	5.95
478.753	6.03
479.107	5.75
479.461	5.94
479.814	5.96
480.168	6.02
480.521	5.93
480.875	6.01
481.228	6.02
481.582	6.06
481.935	5.99
482.289	6.09
482.642	5.97
482.995	6.17
483.348	5.85
483.701	5.91
484.055	5.87
484.408	5.87
484.761	5.81
485.114	5.72
485.466	5.65
485.819	5.62
486.172	5.65
486.525	5.67
486.878	5.74
487.23	5.79
487.583	5.81
487.936	5.9
488.288	5.84
488.641	5.79
488.993	5.79
489.345	5.77
489.698	5.73
490.05	5.78
490.402	5.72
490.754	5.83
491.107	5.82
491.459	5.86
491.811	5.88
492.163	6.07
492.515	5.94
492.866	5.84
493.218	5.79
493.57	5.79
493.922	5.81
494.274	5.88
494.625	5.95
494.977	5.91
495.328	6.04
495.68	6.06
496.031	5.96
496.383	5.98
496.734	5.99
497.086	6.18
497.437	6.07
497.788	6.03
498.139	6.05
498.49	5.97
498.842	6
499.193	6
499.544	6.03
499.894	6.11
500.245	6.12
500.596	6.05
500.947	6.07
501.298	6.1
501.648	6.23
501.999	6.13
502.35	6.13
502.7	6.05
503.051	6.08
503.401	6.22
503.752	6.07
504.102	6.06
504.452	6.07
504.803	6
505.153	6.2
505.503	6.05
505.853	6.17
506.203	6.01
506.553	6.08
506.903	6.21
507.253	6.07
507.603	6.11
507.953	6.08
508.303	6.15
508.652	6.14
509.002	6.14
509.352	6.23
509.701	6.09
510.051	6.17
510.4	6.1
510.75	6.09
511.099	6.07
511.449	6.01
511.798	6.11
512.147	6.13
512.496	6.12
512.846	6.06
513.195	6.12
513.544	6.16
513.893	6.03
514.242	6.09
514.591	6.08
514.939	6.06
515.288	6.16
515.637	6.14
515.986	6.12
516.334	6.11
516.683	6.11
517.032	6.22
517.38	6.15
517.729	6.03
518.077	6.11
518.426	6.16
518.774	6.18
519.122	6.1
519.47	6.08
519.819	6
520.167	6.04
520.515	5.97
520.863	6.03
521.211	5.98
521.559	6.07
521.907	6.04
522.255	6.11
522.602	6.05
522.95	6.17
523.298	6.04
523.645	6.07
523.993	6.08
524.341	6.24
524.688	6.08
525.036	6.19
525.383	6.05
525.73	6.26
526.078	6.24
526.425	6.08
526.772	6.15
527.119	6.11
527.466	6.01
527.814	6.05
528.161	6.07
528.508	6.06
528.854	6.1
529.201	6.13
529.548	6.1
529.895	5.87
530.242	5.84
530.588	5.82
530.935	5.85
531.282	5.93
531.628	5.91
531.975	5.91
532.321	5.96
532.667	6.02
533.014	5.91
533.36	6.13
533.706	6.01
534.052	6.04
534.399	5.97
534.745	5.98
535.091	5.86
535.437	5.96
535.783	5.97
536.129	5.93
536.474	5.92
536.82	6.02
537.166	6.11
537.512	6.03
537.857	6.08
538.203	6.09
538.549	5.98
538.894	6.02
539.239	6.02
539.585	6.13
539.93	6.07
540.276	6.19
540.621	6.19
540.966	6.14
541.311	6.25
541.656	6.04
542.001	6.27
542.346	6.06
542.691	6.03
543.036	5.97
543.381	5.95
543.726	5.91
544.071	5.92
544.415	5.97
544.76	6
545.105	6.03
545.449	6.05
545.794	6.12
546.138	6.07
546.483	6.2
546.827	6.23
547.171	6.06
547.516	6.12
547.86	6.08
548.204	6.13
548.548	6.04
548.892	6.1
549.236	6.14
549.58	6.04
549.924	6.33
550.268	6.28
550.612	6.09
550.956	6.32
551.3	6.2
551.643	6.02
551.987	6.26
552.33	6.17
552.674	6.16
553.017	6.13
553.361	6.23
553.704	6.18
554.048	6.33
554.391	6.18
554.734	6.22
555.077	6.2
555.42	6.06
555.764	6.04
556.107	6.11
556.45	6.26
556.793	6.05
557.135	6.27
557.478	6.19
557.821	6.14
558.164	6.24
558.507	6.03
558.849	6.3
559.192	6.13
559.534	6.31
559.877	6.28
560.219	6.19
560.562	6.39
560.904	6.33
561.246	6.01
561.589	6.3
561.931	6.27
562.273	6.4
562.615	6.29
562.957	6.03
563.299	6.16
563.641	6.22
563.983	6.08
564.325	6.2
564.667	6.31
565.008	6.3
565.35	6.28
565.692	6.22
566.033	6.17
566.375	6.42
566.716	6.21
567.058	6.31
567.399	6.04
567.741	6.13
568.082	6.15
568.423	6.04
568.764	6.1
569.105	6.03
569.447	6.11
569.788	6.18
570.129	6.09
570.47	6.16
570.811	6.18
571.151	6.39
571.492	6.13
571.833	6.2
572.174	6.04
572.514	6.39
572.855	6.03
573.195	6.21
573.536	6.28
573.876	5.98
574.217	6.09
574.557	6.27
574.898	6.16
575.238	6.29
575.578	6.19
575.918	6.22
576.258	6.07
576.598	6.18
576.938	6.23
577.278	6.31
577.618	6.05
577.958	6.31
578.298	6.12
578.638	6.09
578.977	6.19
579.317	6.35
579.657	6.31
579.996	5.96
580.336	6.22
580.675	6.15
581.014	6.27
581.354	6.34
581.693	6.04
582.032	6.23
582.372	6.35
582.711	6.29
583.05	6.29
583.389	6.27
583.728	6.18
584.067	6.3
584.406	6.03
584.745	6.32
585.083	6
585.422	6.21
585.761	6.16
586.1	6.23
586.438	6.03
586.777	6.13
587.115	6.37
587.454	6.36
587.792	6.38
588.13	6.35
588.469	6.06
588.807	6.2
589.145	6.22
589.483	6.25
589.821	6.23
590.159	6.03
590.497	6.18
590.835	5.98
591.173	6.31
591.511	6.22
591.849	5.89
592.187	6.25
592.524	6.41
592.862	6.4
593.2	6.45
593.537	6.23
593.875	6.27
594.212	6.16
594.55	6.17
594.887	6.44
595.224	6.14
595.561	6.39
595.899	6.1
596.236	6.14
596.573	6.3
596.91	6.26
597.247	6.38
597.584	6.34
597.921	6.29
598.258	6.26
598.594	6.11
598.931	6.13
599.268	6.1
599.604	6.22
599.941	6.35
600.277	6.44
600.614	6.16
600.95	6.2
601.287	6.27
601.623	6.14
601.959	6.03
602.296	6.1
602.632	6.22
602.968	6
603.304	6.32
603.64	6.14
603.976	5.97
604.312	6.41
604.648	6.33
604.984	6.38
605.319	6.08
605.655	6.07
605.991	6.17
606.326	6.13
606.662	6.1
606.998	6.38
607.333	6.19
607.668	6.18
608.004	6.15
608.339	6.21
608.674	6.19
609.01	6.29
609.345	6.48
609.68	6.27
610.015	6.36
610.35	6.3
610.685	6
611.02	6.16
611.355	6.1
611.689	6.18
612.024	6.06
612.359	6.19
612.694	6.22
613.028	6.23
613.363	6.42
613.697	6.27
614.032	6.19
614.366	6.54
614.7	6.33
615.035	6.41
615.369	6.84
615.703	6.22
616.037	6.23
616.371	6.46
616.705	6.28
617.039	6.31
617.373	6.46
617.707	6.38
618.041	6.25
618.375	6.3
618.709	6.18
619.042	6.13
619.376	6.62
619.71	6.6
620.043	6.02
620.377	6.15
620.71	6.16
621.043	6.6
621.377	5.9
621.71	6.65
622.043	6.53
622.376	6.2
622.709	6.37
623.043	6.08
623.376	6.4
623.709	6.13
624.041	6.23
624.374	6.05
624.707	6.43
625.04	6.8
625.373	6.38
625.705	6.3
626.038	6.08
626.37	6.44
626.703	6.39
627.035	6.71
627.368	6.33
627.7	6.16
628.032	6.44
628.365	6.21
628.697	6.3
629.029	6.42
629.361	6.39
629.693	6.41
630.025	6.37
630.357	6.41
630.689	6.62
631.021	6.44
631.353	6.46
631.684	6.4
632.016	6.52
632.348	6.44
632.679	6.48
633.011	6.6
633.342	6.76
633.674	6.41
634.005	6.07
634.336	6.7
634.668	6.51
634.999	6.38
635.33	6.51
635.661	6.35
635.992	6.55
636.323	6.49
636.654	6.84
636.985	6.66
637.316	6.31
637.647	6.48
637.977	6.51
638.308	6.36
638.639	5.94
638.969	6.26
639.3	6.43
639.63	6.24
639.961	6.73
640.291	6.45
640.622	6.66
640.952	6.26
641.282	6.33
641.612	6.43
641.943	6.21
642.273	6.53
642.603	6.25
642.933	6.78
643.263	5.84
643.592	6.69
643.922	6.65
644.252	6.77
644.582	6.92
644.911	6.19
645.241	6.73
645.571	6.78
645.9	6.55
646.23	6.77
646.559	6.23
646.888	6.56
647.218	6.66
647.547	6.22
647.876	6.17
648.205	6.53
648.534	6.74
648.863	6.75
649.192	6.97
649.521	6.21
649.85	6.13
650.179	6.49
650.508	6.43
650.837	6.85
651.165	7.08
651.494	6.21
651.822	6.4
652.151	6.57
652.479	6.86
652.808	6.34
653.136	6.2
653.465	6.3
653.793	6.38
654.121	6.02
654.449	6.16
654.777	6.39
655.105	6.71
655.433	6.19
655.761	6.41
656.089	6.38
656.417	6.56
656.745	6.23
657.073	5.91
657.4	6.95
657.728	6.34
658.056	6.85
658.383	6.68
658.711	6.18
659.038	6.47
659.365	6.56
659.693	6.84
660.02	6.72
660.347	6.34
660.674	6.18
661.001	6.82
661.329	6.2
661.656	6.57
661.982	7.1
662.309	7.02
662.636	6.39
662.963	6.63
663.29	6.86
663.616	6.83
663.943	6.31
664.27	6.81
664.596	6.06
664.923	6.75
665.249	7.16
665.576	6.91
665.902	7.14
666.228	6.87
666.554	6.41
666.881	6.68
667.207	6.5
667.533	6.96
667.859	6.58
668.185	6.73
668.511	6.4
668.837	7.07
669.162	6.61
669.488	6.19
669.814	6.93
670.139	6.41
670.465	6.81
670.791	6.78
671.116	6.62
671.442	6.9
671.767	6.23
672.092	6.17
672.418	6.94
672.743	7.28
673.068	6.94
673.393	6.75
673.718	6.65
674.043	7.25
674.368	7.04
674.693	6.78
675.018	7.07
675.343	7.56
675.667	6.72
675.992	7.18
676.317	6.93
676.641	6.61
676.966	7.16
677.29	6.93
677.615	7.36
677.939	7.3
678.264	6.28
678.588	6.48
678.912	6.64
679.236	6.25
679.56	6.48
679.885	6.95
680.209	6.83
680.532	6.01
680.856	6.8
681.18	7.26
681.504	6.73
681.828	7.04
682.152	6.93
682.475	7.15
682.799	7.4
683.122	6.79
683.446	7.18
683.769	6.78
684.093	6.9
684.416	7.44
684.739	6.86
685.062	6.52
685.386	7.01
685.709	6.85
686.032	7.26
686.355	6.88
686.678	7.02
687.001	6.95
687.324	7.63
687.646	7.24
687.969	6.61
688.292	6.75
688.614	6.79
688.937	6.68
689.26	6.69
689.582	6.76
689.904	7.06
690.227	6.63
690.549	6.71
690.871	7.6
691.194	6.68
691.516	6.35
691.838	6.94
692.16	6.88
692.482	7.79
692.804	6.49
693.126	8.32
