Data from 97276_forehead_Reflection__4__115.txt Node

Date: Fri Sep 23 20:34:37 CDT 2022
User: ToomeyLab
Spectrometer: FLMS14357
Trigger mode: 0
Integration Time (sec): 1.000000E-2
Scans to average: 100
Electric dark correction enabled: true
Nonlinearity correction enabled: false
Boxcar width: 0
XAxis mode: Wavelengths
Number of Pixels in Spectrum: 2048
>>>>>Begin Spectral Data<<<<<
189.047	11.38
189.435	11.38
189.823	11.38
190.211	-19.25
190.599	-80.42
190.987	286.02
191.375	-75.48
191.763	55.36
192.151	-45.39
192.538	75.66
192.926	26.86
193.314	82.37
193.702	63.38
194.089	283.49
194.477	126
194.864	-565.05
195.252	102.58
195.639	37.52
196.027	51.65
196.414	185.33
196.801	55.21
197.189	-268.08
197.576	-8.18
197.963	55.24
198.351	47.96
198.738	-6.72
199.125	12
199.512	-1.33
199.899	6.68
200.286	-26.45
200.673	68.35
201.06	53.28
201.447	42.36
201.833	4.5
202.22	-5
202.607	34.88
202.994	6.47
203.38	19.52
203.767	-128.93
204.154	53.66
204.54	36.38
204.927	30.32
205.313	30.33
205.699	-1.46
206.086	11.91
206.472	37.95
206.858	21.66
207.245	-9.18
207.631	18.89
208.017	16.35
208.403	11.53
208.789	24.68
209.175	35.14
209.561	51.73
209.947	-12.32
210.333	15.11
210.719	26.13
211.105	29.47
211.491	13.02
211.876	25.9
212.262	2.35
212.648	-16.47
213.034	-17.9
213.419	29.51
213.805	37.09
214.19	-3.43
214.576	14.95
214.961	15.78
215.346	-20.63
215.732	26.15
216.117	14.67
216.502	9.43
216.888	13.35
217.273	1.79
217.658	19.46
218.043	16.84
218.428	13.78
218.813	36.42
219.198	4.78
219.583	22.53
219.968	30.43
220.353	16.69
220.738	3.7
221.122	15.53
221.507	1.61
221.892	13.4
222.276	8.89
222.661	0.4
223.046	2.98
223.43	1.59
223.815	15.28
224.199	9.39
224.583	0.61
224.968	1.64
225.352	10.26
225.736	7.72
226.121	5.84
226.505	-0.28
226.889	3.11
227.273	7.51
227.657	2.02
228.041	6.32
228.425	5.06
228.809	2.08
229.193	4.92
229.577	2.88
229.961	2.15
230.344	2.94
230.728	1.8
231.112	2.03
231.495	2.12
231.879	1.66
232.263	3.42
232.646	2.97
233.03	2.85
233.413	3.54
233.797	3
234.18	4.58
234.563	3.06
234.946	4.15
235.33	1.49
235.713	4.23
236.096	1.54
236.479	2.38
236.862	3.3
237.245	2.75
237.628	3.84
238.011	2.7
238.394	3.04
238.777	2.71
239.16	2.04
239.543	2.22
239.925	2.72
240.308	3.85
240.691	4.1
241.073	2.69
241.456	2.75
241.838	4.15
242.221	2.31
242.603	2.89
242.986	2.07
243.368	2.23
243.75	2.57
244.133	2.46
244.515	2.77
244.897	2.87
245.279	3.23
245.661	3.24
246.043	3.57
246.425	2.79
246.807	1.61
247.189	2.57
247.571	2.81
247.953	2.86
248.335	3.1
248.717	2.9
249.098	2.77
249.48	2.74
249.862	3.14
250.243	3.2
250.625	2.89
251.006	2.94
251.388	3.15
251.769	3.26
252.151	1.71
252.532	3.46
252.913	3.09
253.295	2.76
253.676	3.06
254.057	2.71
254.438	3.16
254.819	3.32
255.2	3.55
255.581	3.44
255.962	3.34
256.343	3.18
256.724	2.32
257.105	3.54
257.486	2.25
257.867	2.56
258.247	4.03
258.628	3.3
259.009	2.23
259.389	3.29
259.77	2.3
260.15	2.41
260.531	2.75
260.911	2.96
261.292	2.86
261.672	2.67
262.052	2.65
262.432	2.59
262.813	2.91
263.193	2.79
263.573	2.85
263.953	2.69
264.333	2.61
264.713	3.29
265.093	3.97
265.473	2.89
265.853	2.37
266.233	2.94
266.612	3.03
266.992	3.96
267.372	3.19
267.752	3.24
268.131	3.36
268.511	3.15
268.89	2.94
269.27	2.84
269.649	2.63
270.029	2.77
270.408	2.98
270.787	2.63
271.167	2.73
271.546	3.15
271.925	2.71
272.304	2.85
272.683	2.66
273.062	2.86
273.441	2.94
273.82	2.87
274.199	2.7
274.578	2.23
274.957	2.82
275.336	2.67
275.715	2.82
276.093	3.75
276.472	3.29
276.851	3.46
277.229	2.85
277.608	2.64
277.986	2.52
278.365	2.73
278.743	3.27
279.122	2.55
279.5	2.53
279.878	2.63
280.257	3.05
280.635	2.94
281.013	2.25
281.391	2.24
281.769	2.93
282.147	2.78
282.525	2.56
282.903	3.05
283.281	2.97
283.659	2.94
284.037	3.2
284.415	3.11
284.792	3.25
285.17	2.77
285.548	2.61
285.925	2.95
286.303	2.97
286.68	3.12
287.058	2.73
287.435	2.65
287.813	3.17
288.19	2.68
288.567	3.11
288.945	2.63
289.322	2.95
289.699	3.16
290.076	3.03
290.453	3.21
290.83	2.82
291.207	2.74
291.584	3.21
291.961	2.87
292.338	2.84
292.715	2.94
293.092	2.94
293.469	3.45
293.845	3.51
294.222	3.57
294.599	2.63
294.975	3.45
295.352	3.96
295.728	3.46
296.105	3.55
296.481	3.54
296.858	3.52
297.234	3.38
297.61	3.1
297.986	3.63
298.363	3.16
298.739	3.45
299.115	3.33
299.491	3.28
299.867	3.37
300.243	3.68
300.619	3.79
300.995	3.67
301.371	3.52
301.746	4.17
302.122	3.64
302.498	3.85
302.874	3.53
303.249	3.9
303.625	3.45
304	3.63
304.376	3.06
304.751	3.73
305.127	4.2
305.502	4.15
305.878	3.76
306.253	4.15
306.628	3.91
307.003	3.34
307.378	3.97
307.754	4.47
308.129	3.68
308.504	4.5
308.879	4.61
309.254	4.71
309.629	4.09
310.003	4.34
310.378	4.74
310.753	4.13
311.128	4.05
311.502	4.3
311.877	4.5
312.252	4.26
312.626	4.26
313.001	4.34
313.375	4.56
313.75	4.12
314.124	4.29
314.498	4.97
314.873	4.95
315.247	5.11
315.621	4.81
315.995	5.28
316.369	5.36
316.743	4.42
317.117	4.36
317.491	4.85
317.865	5.23
318.239	5.28
318.613	4.99
318.987	4.9
319.361	4.37
319.734	5.12
320.108	5.46
320.482	4.76
320.855	5.18
321.229	5.76
321.602	5.54
321.976	6.33
322.349	5.18
322.723	5.56
323.096	5.42
323.469	5.21
323.843	5.29
324.216	6.3
324.589	6.11
324.962	6.17
325.335	5.36
325.708	5.73
326.081	5.66
326.454	5.63
326.827	5.69
327.2	5.84
327.573	5.94
327.945	6.31
328.318	6.01
328.691	6.12
329.063	6.19
329.436	6.32
329.809	6.28
330.181	5.93
330.553	5.79
330.926	6
331.298	6.71
331.671	5.93
332.043	6.03
332.415	6.24
332.787	6.52
333.159	6.72
333.532	6.03
333.904	6.39
334.276	6.28
334.648	6.57
335.02	6.09
335.391	6.37
335.763	6.33
336.135	6.59
336.507	6.86
336.879	6.38
337.25	6.75
337.622	6.7
337.993	6.78
338.365	7.04
338.736	7.18
339.108	6.96
339.479	6.83
339.851	6.85
340.222	7.65
340.593	6.79
340.964	6.86
341.336	7.12
341.707	7.04
342.078	6.92
342.449	7.01
342.82	7.01
343.191	7.01
343.562	7.16
343.933	7.53
344.303	7.69
344.674	7.61
345.045	7.75
345.416	7.48
345.786	7.67
346.157	7.57
346.527	7.38
346.898	7.72
347.268	7.56
347.639	7.3
348.009	7.34
348.38	7.57
348.75	7.91
349.12	7.71
349.49	7.77
349.861	7.87
350.231	7.74
350.601	7.79
350.971	8.16
351.341	7.59
351.711	8.09
352.081	7.87
352.45	7.66
352.82	7.97
353.19	8.25
353.56	8.52
353.929	7.89
354.299	8.25
354.669	8.22
355.038	8.58
355.408	7.9
355.777	8.47
356.147	8.12
356.516	8.67
356.885	8.29
357.254	8.2
357.624	8.26
357.993	8.61
358.362	8.58
358.731	8.29
359.1	8.42
359.469	8.49
359.838	8.44
360.207	8.9
360.576	8.48
360.945	8.94
361.314	8.46
361.682	8.58
362.051	8.91
362.42	9.01
362.788	8.66
363.157	8.69
363.525	9.05
363.894	8.85
364.262	8.78
364.631	8.98
364.999	8.77
365.367	8.99
365.735	9.09
366.104	9
366.472	9.3
366.84	8.98
367.208	9.11
367.576	9.24
367.944	9.26
368.312	9.43
368.68	9.32
369.048	9.37
369.416	9.47
369.783	9.2
370.151	9.4
370.519	9.37
370.886	9.64
371.254	9.84
371.621	9.72
371.989	9.42
372.356	10.11
372.724	9.75
373.091	9.72
373.458	9.99
373.826	9.75
374.193	9.91
374.56	9.69
374.927	10.03
375.294	10.29
375.661	9.86
376.028	10.01
376.395	10.19
376.762	10.13
377.129	9.96
377.496	9.94
377.863	10.09
378.229	10.21
378.596	10.15
378.963	10.49
379.329	10.5
379.696	10.34
380.062	10.28
380.429	10.46
380.795	10.41
381.161	10.97
381.528	10.42
381.894	10.47
382.26	10.51
382.626	10.75
382.993	10.72
383.359	10.68
383.725	11.04
384.091	11.07
384.457	10.66
384.823	10.84
385.188	11.24
385.554	10.91
385.92	11.26
386.286	10.95
386.651	11.2
387.017	11.12
387.383	11.34
387.748	11.23
388.114	11.3
388.479	11.13
388.845	11.07
389.21	11.1
389.575	11.26
389.94	11.09
390.306	11.2
390.671	11.41
391.036	11.36
391.401	11.57
391.766	11.67
392.131	11.63
392.496	11.44
392.861	11.73
393.226	11.61
393.591	11.68
393.956	11.73
394.32	11.51
394.685	11.57
395.05	11.98
395.414	11.64
395.779	11.83
396.143	11.92
396.508	12.11
396.872	11.8
397.236	12.27
397.601	11.77
397.965	12.33
398.329	12.06
398.694	12.09
399.058	12.16
399.422	12.33
399.786	12.55
400.15	12.45
400.514	12.27
400.878	12.24
401.242	12.32
401.605	12.39
401.969	12.52
402.333	12.19
402.697	12.23
403.06	12.59
403.424	12.49
403.787	12.82
404.151	12.68
404.514	12.68
404.878	12.72
405.241	12.7
405.604	12.54
405.968	12.73
406.331	12.68
406.694	12.77
407.057	12.73
407.42	12.77
407.783	12.9
408.146	12.9
408.509	12.73
408.872	12.87
409.235	12.86
409.598	13.12
409.961	13.21
410.323	13.05
410.686	13.27
411.049	13.26
411.411	13.34
411.774	13.2
412.136	13.21
412.499	13.1
412.861	13.25
413.223	13.22
413.586	13.27
413.948	13.35
414.31	13.5
414.672	13.39
415.035	13.56
415.397	13.66
415.759	13.5
416.121	13.8
416.483	13.62
416.845	13.44
417.206	13.73
417.568	13.79
417.93	13.78
418.292	13.53
418.653	13.66
419.015	13.79
419.377	13.65
419.738	13.8
420.1	13.64
420.461	13.77
420.822	13.77
421.184	13.65
421.545	13.8
421.906	13.72
422.267	13.77
422.629	13.83
422.99	13.89
423.351	13.76
423.712	13.92
424.073	13.88
424.434	13.88
424.795	14.1
425.155	14.11
425.516	14.15
425.877	14.13
426.238	14.11
426.598	14.06
426.959	14.22
427.32	14.29
427.68	14.37
428.041	14.36
428.401	14.39
428.761	14.57
429.122	14.58
429.482	14.63
429.842	14.87
430.202	14.8
430.563	14.75
430.923	15.06
431.283	15.14
431.643	15.01
432.003	14.82
432.363	15.09
432.722	15.16
433.082	14.74
433.442	14.95
433.802	15.06
434.161	15.31
434.521	15.21
434.881	15.19
435.24	15.12
435.6	15.15
435.959	15.18
436.319	15.25
436.678	15.2
437.037	15.43
437.396	15.37
437.756	15.36
438.115	15.43
438.474	15.52
438.833	15.58
439.192	15.73
439.551	15.67
439.91	15.68
440.269	15.77
440.628	15.67
440.987	15.74
441.345	15.89
441.704	15.69
442.063	15.85
442.421	15.63
442.78	15.7
443.138	15.71
443.497	15.81
443.855	15.83
444.214	15.97
444.572	16.09
444.93	16.03
445.288	16.25
445.647	16.28
446.005	16.44
446.363	16.32
446.721	16.26
447.079	16.21
447.437	16.35
447.795	16.27
448.153	16.19
448.51	16.11
448.868	16.22
449.226	16.26
449.584	16.26
449.941	16.32
450.299	16.41
450.656	16.49
451.014	16.67
451.371	16.57
451.729	16.51
452.086	16.85
452.443	16.83
452.801	16.83
453.158	16.99
453.515	16.86
453.872	16.93
454.229	16.98
454.586	17.1
454.943	16.91
455.3	17.04
455.657	17.13
456.014	17.27
456.371	17.12
456.727	17.34
457.084	17.35
457.441	17.47
457.797	17.22
458.154	17.3
458.51	17.38
458.867	17.73
459.223	17.58
459.58	17.56
459.936	17.58
460.292	17.54
460.648	17.8
461.005	17.53
461.361	17.51
461.717	17.6
462.073	17.45
462.429	17.43
462.785	17.58
463.141	17.58
463.496	17.64
463.852	17.85
464.208	18.09
464.564	18.18
464.919	18.13
465.275	18.31
465.631	18.15
465.986	18.13
466.342	18.21
466.697	18.39
467.052	18.41
467.408	18.34
467.763	18.39
468.118	18.45
468.473	18.37
468.829	18.52
469.184	18.42
469.539	18.57
469.894	18.56
470.249	18.57
470.603	18.58
470.958	18.64
471.313	18.72
471.668	18.99
472.023	18.77
472.377	18.76
472.732	18.92
473.086	18.81
473.441	18.97
473.795	19.03
474.15	19.03
474.504	19.08
474.859	19.2
475.213	19.11
475.567	18.84
475.921	19.14
476.275	19.18
476.63	19.23
476.984	19.43
477.338	19.31
477.692	19.3
478.045	19.49
478.399	19.48
478.753	19.55
479.107	19.41
479.461	19.38
479.814	19.39
480.168	19.59
480.521	19.61
480.875	19.67
481.228	19.73
481.582	19.53
481.935	19.75
482.289	19.67
482.642	19.59
482.995	19.74
483.348	19.66
483.701	19.65
484.055	19.53
484.408	19.57
484.761	19.44
485.114	19.41
485.466	19.39
485.819	19.29
486.172	19.03
486.525	18.86
486.878	18.82
487.23	18.96
487.583	19.35
487.936	19.48
488.288	19.73
488.641	19.77
488.993	19.74
489.345	19.62
489.698	19.45
490.05	19.52
490.402	19.36
490.754	19.43
491.107	19.6
491.459	19.77
491.811	20.01
492.163	20.16
492.515	20.38
492.866	20.34
493.218	20.15
493.57	20.13
493.922	19.89
494.274	19.88
494.625	19.86
494.977	20.13
495.328	20.37
495.68	20.47
496.031	20.72
496.383	20.82
496.734	20.92
497.086	21.07
497.437	21.22
497.788	20.98
498.139	21.16
498.49	21.09
498.842	21.01
499.193	21.07
499.544	21.02
499.894	20.93
500.245	21.11
500.596	21.22
500.947	21.2
501.298	21.4
501.648	21.5
501.999	21.5
502.35	21.53
502.7	21.68
503.051	21.53
503.401	21.75
503.752	21.76
504.102	21.83
504.452	21.78
504.803	21.71
505.153	22.01
505.503	21.93
505.853	21.89
506.203	21.88
506.553	22.03
506.903	21.92
507.253	21.97
507.603	22
507.953	22.01
508.303	22.19
508.652	22.12
509.002	22.25
509.352	22.36
509.701	22.25
510.051	22.25
510.4	22.29
510.75	22.33
511.099	22.27
511.449	22.17
511.798	22.41
512.147	22.24
512.496	22.22
512.846	22.35
513.195	22.37
513.544	22.63
513.893	22.45
514.242	22.5
514.591	22.58
514.939	22.77
515.288	22.64
515.637	22.73
515.986	22.6
516.334	22.6
516.683	22.85
517.032	22.78
517.38	23.02
517.729	23.01
518.077	23.02
518.426	23.12
518.774	23.03
519.122	23.08
519.47	22.97
519.819	22.97
520.167	22.98
520.515	22.85
520.863	22.99
521.211	22.74
521.559	22.85
521.907	22.84
522.255	23
522.602	23.11
522.95	23.33
523.298	23.27
523.645	23.45
523.993	23.44
524.341	23.59
524.688	23.39
525.036	23.56
525.383	23.52
525.73	23.76
526.078	23.8
526.425	23.67
526.772	23.74
527.119	23.69
527.466	23.63
527.814	23.57
528.161	23.4
528.508	23.55
528.854	23.61
529.201	23.56
529.548	23.66
529.895	23.62
530.242	23.6
530.588	23.5
530.935	23.35
531.282	23.05
531.628	22.92
531.975	23.1
532.321	23.4
532.667	23.57
533.014	23.66
533.36	23.94
533.706	23.9
534.052	23.98
534.399	24.14
534.745	24.07
535.091	23.99
535.437	23.94
535.783	23.86
536.129	23.79
536.474	23.88
536.82	23.84
537.166	24.08
537.512	24.34
537.857	24.45
538.203	24.6
538.549	24.57
538.894	24.54
539.239	24.52
539.585	24.36
539.93	24.55
540.276	24.64
540.621	24.92
540.966	24.82
541.311	25.1
541.656	25.2
542.001	25.17
542.346	25.17
542.691	25.13
543.036	24.94
543.381	24.88
543.726	24.53
544.071	24.33
544.415	24.38
544.76	24.52
545.105	24.79
545.449	24.91
545.794	24.93
546.138	24.9
546.483	25.24
546.827	25.3
547.171	25.49
547.516	25.63
547.86	25.48
548.204	25.48
548.548	25.57
548.892	25.64
549.236	25.63
549.58	25.54
549.924	25.69
550.268	25.8
550.612	25.83
550.956	25.99
551.3	26.23
551.643	26.12
551.987	26.26
552.33	26.2
552.674	26.19
553.017	26.25
553.361	26.51
553.704	26.47
554.048	26.55
554.391	26.62
554.734	26.49
555.077	26.42
555.42	26.43
555.764	26.35
556.107	26.58
556.45	26.69
556.793	26.53
557.135	26.66
557.478	26.72
557.821	27.1
558.164	26.68
558.507	26.92
558.849	26.85
559.192	27
559.534	27.05
559.877	27.26
560.219	27.24
560.562	27.36
560.904	27.28
561.246	27.14
561.589	27.39
561.931	27.49
562.273	27.44
562.615	27.41
562.957	27.29
563.299	27.56
563.641	27.49
563.983	27.38
564.325	27.23
564.667	27.57
565.008	27.49
565.35	27.77
565.692	27.77
566.033	27.54
566.375	27.79
566.716	27.82
567.058	27.83
567.399	27.64
567.741	27.65
568.082	27.64
568.423	27.64
568.764	27.61
569.105	27.6
569.447	27.57
569.788	27.58
570.129	27.79
570.47	27.97
570.811	27.97
571.151	28.25
571.492	28.24
571.833	28.05
572.174	28.1
572.514	28.35
572.855	28.34
573.195	28.18
573.536	28.25
573.876	27.92
574.217	28.18
574.557	28.28
574.898	28.22
575.238	28.19
575.578	28.25
575.918	28.3
576.258	28.16
576.598	28.26
576.938	28.57
577.278	28.48
577.618	28.37
577.958	28.59
578.298	28.59
578.638	28.76
578.977	28.76
579.317	28.8
579.657	28.82
579.996	28.69
580.336	28.87
580.675	28.8
581.014	29.22
581.354	28.93
581.693	29.13
582.032	29.15
582.372	29.47
582.711	29.56
583.05	29.62
583.389	29.24
583.728	29.51
584.067	29.57
584.406	29.17
584.745	29.41
585.083	29.35
585.422	29.45
585.761	29.61
586.1	29.74
586.438	29.65
586.777	29.71
587.115	29.91
587.454	29.79
587.792	29.97
588.13	29.94
588.469	29.96
588.807	29.89
589.145	29.79
589.483	29.86
589.821	29.65
590.159	29.92
590.497	29.91
590.835	29.75
591.173	30.17
591.511	30.02
591.849	29.92
592.187	30.25
592.524	30.53
592.862	30.15
593.2	30.24
593.537	30.3
593.875	30.2
594.212	30.17
594.55	30.05
594.887	30.31
595.224	30.22
595.561	30.75
595.899	30.39
596.236	30.45
596.573	30.61
596.91	30.3
597.247	30.41
597.584	30.72
597.921	30.44
598.258	30.82
598.594	30.43
598.931	30.53
599.268	30.58
599.604	30.57
599.941	30.27
600.277	30.5
600.614	30.37
600.95	30.69
601.287	30.66
601.623	30.62
601.959	30.74
602.296	31.15
602.632	31.05
602.968	30.87
603.304	31.06
603.64	31
603.976	31.1
604.312	31.32
604.648	31.32
604.984	31.34
605.319	31.39
605.655	31.37
605.991	31.14
606.326	31.17
606.662	31.32
606.998	31.05
607.333	30.99
607.668	30.92
608.004	31.03
608.339	30.5
608.674	31.19
609.01	31.49
609.345	31.48
609.68	31.68
610.015	31.47
610.35	31.69
610.685	31.75
611.02	31.82
611.355	31.95
611.689	31.87
612.024	31.7
612.359	31.46
612.694	31.54
613.028	31.61
613.363	31.74
613.697	31.91
614.032	31.79
614.366	31.82
614.7	31.81
615.035	32.09
615.369	32.34
615.703	32.29
616.037	32.12
616.371	32.09
616.705	32.33
617.039	32.26
617.373	32.07
617.707	32.65
618.041	32.72
618.375	32.72
618.709	32.38
619.042	32.3
619.376	32.31
619.71	32.43
620.043	32.14
620.377	32.42
620.71	32.33
621.043	32.78
621.377	32.27
621.71	32.83
622.043	32.64
622.376	32.29
622.709	32.69
623.043	32.53
623.376	32.82
623.709	32.83
624.041	32.8
624.374	33.15
624.707	32.9
625.04	33.06
625.373	33.26
625.705	32.81
626.038	32.91
626.37	32.81
626.703	32.69
627.035	33.32
627.368	33.2
627.7	32.9
628.032	33.12
628.365	33.3
628.697	33.34
629.029	33.37
629.361	33.11
629.693	33.39
630.025	33.3
630.357	33.23
630.689	33.26
631.021	33.35
631.353	33.39
631.684	33.39
632.016	33.96
632.348	33.43
632.679	33.4
633.011	33.76
633.342	33.76
633.674	33.87
634.005	33.57
634.336	34.16
634.668	33.93
634.999	33.57
635.33	34.22
635.661	34.06
635.992	34.32
636.323	34.24
636.654	34.03
636.985	33.89
637.316	34.27
637.647	33.97
637.977	34.09
638.308	34.02
638.639	34.11
638.969	34.11
639.3	33.93
639.63	34.09
639.961	34.29
640.291	34.63
640.622	34.54
640.952	34.49
641.282	34.28
641.612	34.52
641.943	34.53
642.273	34.34
642.603	34.43
642.933	34.43
643.263	34.3
643.592	34.62
643.922	34.39
644.252	34.72
644.582	34.96
644.911	34.46
645.241	34.48
645.571	34.64
645.9	34.41
646.23	35.13
646.559	34.62
646.888	34.63
647.218	35
647.547	34.73
647.876	34.15
648.205	35.14
648.534	35.17
648.863	34.88
649.192	35.13
649.521	35.02
649.85	34.73
650.179	34.77
650.508	34.93
650.837	35.05
651.165	35.21
651.494	35.37
651.822	35.1
652.151	35.38
652.479	35.52
652.808	35.01
653.136	35.32
653.465	34.64
653.793	35.56
654.121	34.97
654.449	35.32
654.777	35.57
655.105	35.23
655.433	35.31
655.761	35.3
656.089	35.51
656.417	35.23
656.745	35.54
657.073	35.35
657.4	35.37
657.728	35.97
658.056	35.91
658.383	35.74
658.711	35.72
659.038	36.13
659.365	35.94
659.693	35.56
660.02	36.18
660.347	35.63
660.674	36.09
661.001	36.56
661.329	35.79
661.656	36.12
661.982	36.1
662.309	35.68
662.636	35.97
662.963	35.82
663.29	36.3
663.616	35.68
663.943	35.94
664.27	35.56
664.596	36.23
664.923	36.95
665.249	36.07
665.576	36.35
665.902	36.31
666.228	36.29
666.554	36.48
666.881	36.27
667.207	36.1
667.533	36.26
667.859	36.25
668.185	36.41
668.511	35.69
668.837	36.56
669.162	36.45
669.488	36.37
669.814	37.06
670.139	35.94
670.465	36.35
670.791	36.95
671.116	36.88
671.442	36.87
671.767	36.54
672.092	36.42
672.418	37.5
