Data from 97276_chest_Reflection__0__106.txt Node

Date: Fri Sep 23 20:31:59 CDT 2022
User: ToomeyLab
Spectrometer: FLMS14357
Trigger mode: 0
Integration Time (sec): 1.000000E-2
Scans to average: 100
Electric dark correction enabled: true
Nonlinearity correction enabled: false
Boxcar width: 0
XAxis mode: Wavelengths
Number of Pixels in Spectrum: 2048
>>>>>Begin Spectral Data<<<<<
189.047	-15.42
189.435	-15.42
189.823	-15.42
190.211	62.52
190.599	-56.26
190.987	160.13
191.375	6.98
191.763	112.36
192.151	-186.04
192.538	-4.5
192.926	29.69
193.314	1.83
193.702	55.46
194.089	-274.13
194.477	72.45
194.864	-129.37
195.252	96.93
195.639	71.1
196.027	62.13
196.414	182.08
196.801	45.08
197.189	6.28
197.576	-11.3
197.963	-46.47
198.351	30.8
198.738	-25.09
199.125	14.48
199.512	-10.16
199.899	-0.54
200.286	-24.94
200.673	23.76
201.06	63.04
201.447	69
201.833	4.57
202.22	-4.21
202.607	13.83
202.994	-24.68
203.38	10.74
203.767	-98.39
204.154	16.24
204.54	3.17
204.927	6.23
205.313	53.04
205.699	-5.85
206.086	-26.51
206.472	17.38
206.858	19.64
207.245	39.49
207.631	-14.4
208.017	16.57
208.403	25.52
208.789	7.21
209.175	16.03
209.561	10.92
209.947	16.69
210.333	8.51
210.719	-16.6
211.105	8.36
211.491	13.92
211.876	3.06
212.262	-5.68
212.648	-16.41
213.034	-47.91
213.419	-28.52
213.805	48.41
214.19	6.46
214.576	-24.03
214.961	34.13
215.346	1.52
215.732	1.5
216.117	-0.26
216.502	9.47
216.888	-5.23
217.273	-1.96
217.658	-14.21
218.043	29.1
218.428	-4.39
218.813	4.6
219.198	-7.41
219.583	-5.66
219.968	4.71
220.353	-8.44
220.738	2.74
221.122	6.36
221.507	24.44
221.892	12.59
222.276	-24.93
222.661	-9.83
223.046	2.67
223.43	-0.18
223.815	0.47
224.199	-3.17
224.583	5.93
224.968	-6.58
225.352	2.26
225.736	-0.33
226.121	8.7
226.505	4.31
226.889	8.33
227.273	3.84
227.657	-3.14
228.041	1.13
228.425	2.25
228.809	4.1
229.193	4.31
229.577	3.88
229.961	2.63
230.344	2.5
230.728	1.12
231.112	1.51
231.495	1.37
231.879	0.65
232.263	2.42
232.646	3.16
233.03	3.53
233.413	1.67
233.797	0.75
234.18	2.06
234.563	2.1
234.946	-0.11
235.33	0.54
235.713	2.72
236.096	0.13
236.479	2.48
236.862	2.49
237.245	2.86
237.628	2.66
238.011	3.26
238.394	2.1
238.777	1.48
239.16	-0.02
239.543	3.99
239.925	1.45
240.308	3.37
240.691	1.95
241.073	0.19
241.456	1.4
241.838	3.95
242.221	2.47
242.603	3.17
242.986	1.55
243.368	1.9
243.75	2.45
244.133	1.89
244.515	1.51
244.897	2.26
245.279	2.07
245.661	2.69
246.043	2.6
246.425	2.31
246.807	1.24
247.189	2.74
247.571	2.34
247.953	2.14
248.335	2.08
248.717	2.05
249.098	1.87
249.48	1.91
249.862	2.19
250.243	2.14
250.625	1.9
251.006	2.44
251.388	1.6
251.769	1.73
252.151	1.05
252.532	2.88
252.913	3.08
253.295	2.83
253.676	2.52
254.057	2.46
254.438	2.03
254.819	2.27
255.2	2.04
255.581	3.96
255.962	1.97
256.343	2.11
256.724	1.49
257.105	2.95
257.486	1.75
257.867	1.66
258.247	2.45
258.628	1.44
259.009	2.2
259.389	2.24
259.77	1.39
260.15	2.17
260.531	2.15
260.911	2.18
261.292	2.13
261.672	1.96
262.052	1.81
262.432	1.73
262.813	2.06
263.193	2.16
263.573	2.31
263.953	1.8
264.333	1.65
264.713	2.21
265.093	2.12
265.473	2.34
265.853	1.41
266.233	1.78
266.612	1.81
266.992	2.09
267.372	1.75
267.752	2.28
268.131	2.35
268.511	1.84
268.89	2.2
269.27	1.95
269.649	1.81
270.029	1.72
270.408	2.24
270.787	1.51
271.167	1.73
271.546	1.84
271.925	1.91
272.304	2.16
272.683	2.14
273.062	2.09
273.441	1.96
273.82	1.63
274.199	1.93
274.578	2.04
274.957	1.62
275.336	1.78
275.715	1.72
276.093	2.29
276.472	2.47
276.851	2.01
277.229	1.74
277.608	2.21
277.986	1.74
278.365	1.83
278.743	2.17
279.122	1.41
279.5	1.91
279.878	1.67
280.257	2.54
280.635	1.86
281.013	2.03
281.391	2.16
281.769	2.05
282.147	1.83
282.525	2.17
282.903	1.86
283.281	2.22
283.659	1.94
284.037	1.68
284.415	1.62
284.792	1.91
285.17	1.49
285.548	1.4
285.925	2.09
286.303	1.97
286.68	1.81
287.058	1.85
287.435	1.71
287.813	2.26
288.19	2.03
288.567	2.07
288.945	2.15
289.322	1.98
289.699	2.12
290.076	2.16
290.453	1.69
290.83	1.88
291.207	2.01
291.584	2.18
291.961	2
292.338	1.95
292.715	1.71
293.092	1.75
293.469	1.91
293.845	2.31
294.222	2.38
294.599	1.77
294.975	2.32
295.352	2.27
295.728	1.95
296.105	2.09
296.481	1.92
296.858	1.84
297.234	1.97
297.61	1.48
297.986	1.92
298.363	2.02
298.739	2.17
299.115	1.89
299.491	2.17
299.867	1.87
300.243	2.05
300.619	2.44
300.995	2.22
301.371	1.72
301.746	2.41
302.122	2.41
302.498	2.02
302.874	1.83
303.249	1.76
303.625	1.81
304	1.88
304.376	1.87
304.751	1.95
305.127	2.05
305.502	2.52
305.878	2.22
306.253	2.31
306.628	1.97
307.003	1.71
307.378	2.23
307.754	2.29
308.129	2.11
308.504	1.81
308.879	2.03
309.254	2.24
309.629	2.36
310.003	2.51
310.378	2
310.753	2.04
311.128	2.02
311.502	2.27
311.877	2.6
312.252	2.04
312.626	2.38
313.001	2.17
313.375	2.32
313.75	2.26
314.124	2.21
314.498	2.47
314.873	2.25
315.247	2.2
315.621	2.3
315.995	2.64
316.369	2.46
316.743	1.76
317.117	1.88
317.491	1.93
317.865	2.88
318.239	2.59
318.613	2.25
318.987	2.15
319.361	2.36
319.734	2.04
320.108	1.84
320.482	2.49
320.855	2.14
321.229	2.62
321.602	2.06
321.976	2.81
322.349	2.65
322.723	2.3
323.096	2.29
323.469	1.83
323.843	1.81
324.216	2.73
324.589	2.6
324.962	2.64
325.335	1.84
325.708	2.4
326.081	2.59
326.454	2.54
326.827	2.32
327.2	2
327.573	2.21
327.945	3.27
328.318	2.16
328.691	2.44
329.063	2.45
329.436	2.67
329.809	3.43
330.181	2.42
330.553	1.91
330.926	2.35
331.298	2.22
331.671	2.76
332.043	2.96
332.415	2.29
332.787	1.74
333.159	2.75
333.532	2.13
333.904	2.3
334.276	2.3
334.648	2.85
335.02	2.34
335.391	2.45
335.763	2.42
336.135	1.9
336.507	2.72
336.879	2.66
337.25	2.63
337.622	2.58
337.993	2.64
338.365	2.59
338.736	3.02
339.108	3.02
339.479	2.39
339.851	2.85
340.222	3.04
340.593	2.05
340.964	2.65
341.336	2.38
341.707	3.06
342.078	2.09
342.449	2.45
342.82	2.19
343.191	2.37
343.562	2.6
343.933	2.88
344.303	2.34
344.674	2.32
345.045	2.5
345.416	3.05
345.786	2.91
346.157	2.57
346.527	2.09
346.898	2.64
347.268	2.41
347.639	2.48
348.009	2.65
348.38	2.67
348.75	2.09
349.12	2.56
349.49	2.49
349.861	2.56
350.231	2.19
350.601	2.35
350.971	2.48
351.341	2.11
351.711	2.63
352.081	2.58
352.45	2.43
352.82	2.13
353.19	3.27
353.56	2.8
353.929	2.52
354.299	3.04
354.669	2.93
355.038	2.93
355.408	2.23
355.777	2.52
356.147	2.3
356.516	2.79
356.885	2.69
357.254	2.5
357.624	2.05
357.993	2.88
358.362	2.47
358.731	2.58
359.1	2.59
359.469	2.61
359.838	2.42
360.207	2.76
360.576	2.58
360.945	2.42
361.314	2.31
361.682	2.38
362.051	2.81
362.42	2.65
362.788	2.49
363.157	2.58
363.525	2.91
363.894	2.54
364.262	2.52
364.631	2.62
364.999	2.57
365.367	2.68
365.735	2.81
366.104	2.56
366.472	2.68
366.84	2.41
367.208	2.62
367.576	2.84
367.944	2.57
368.312	2.84
368.68	3
369.048	2.61
369.416	2.45
369.783	2.79
370.151	2.93
370.519	2.72
370.886	2.76
371.254	2.97
371.621	2.74
371.989	2.77
372.356	2.78
372.724	2.32
373.091	2.66
373.458	2.7
373.826	2.79
374.193	2.92
374.56	2.55
374.927	2.66
375.294	2.84
375.661	2.61
376.028	2.52
376.395	2.63
376.762	2.51
377.129	2.73
377.496	2.86
377.863	2.65
378.229	2.78
378.596	2.58
378.963	2.91
379.329	3.17
379.696	2.8
380.062	2.86
380.429	2.86
380.795	2.6
381.161	2.89
381.528	2.79
381.894	2.72
382.26	2.65
382.626	2.55
382.993	2.84
383.359	2.76
383.725	2.94
384.091	2.91
384.457	2.64
384.823	2.73
385.188	3.04
385.554	2.59
385.92	2.87
386.286	2.66
386.651	3
387.017	2.97
387.383	2.94
387.748	2.97
388.114	2.85
388.479	2.53
388.845	2.61
389.21	2.91
389.575	2.67
389.94	2.47
390.306	2.7
390.671	2.82
391.036	2.8
391.401	3.13
391.766	2.83
392.131	2.71
392.496	3.12
392.861	2.74
393.226	2.59
393.591	2.86
393.956	2.99
394.32	3.02
394.685	2.88
395.05	2.92
395.414	2.85
395.779	2.8
396.143	2.94
396.508	2.85
396.872	2.82
397.236	3.04
397.601	2.79
397.965	3
398.329	3.07
398.694	2.72
399.058	2.92
399.422	2.96
399.786	3.1
400.15	2.79
400.514	2.89
400.878	2.86
401.242	2.89
401.605	3.33
401.969	3.12
402.333	2.75
402.697	2.61
403.06	2.74
403.424	2.83
403.787	2.87
404.151	2.8
404.514	2.88
404.878	2.98
405.241	2.88
405.604	2.75
405.968	2.9
406.331	2.72
406.694	2.91
407.057	2.93
407.42	2.81
407.783	2.91
408.146	2.88
408.509	3.08
408.872	2.84
409.235	3
409.598	3.04
409.961	3.04
410.323	2.76
410.686	3.08
411.049	2.98
411.411	3.03
411.774	2.83
412.136	3.08
412.499	3.01
412.861	2.82
413.223	2.83
413.586	2.84
413.948	2.9
414.31	2.78
414.672	2.83
415.035	2.78
415.397	3.07
415.759	3.08
416.121	3.2
416.483	2.86
416.845	2.69
417.206	2.97
417.568	3.04
417.93	2.98
418.292	3.15
418.653	2.85
419.015	3.01
419.377	2.9
419.738	3.02
420.1	2.87
420.461	2.93
420.822	2.98
421.184	2.96
421.545	3.02
421.906	2.93
422.267	2.92
422.629	2.86
422.99	2.9
423.351	2.91
423.712	2.92
424.073	2.81
424.434	2.9
424.795	3.01
425.155	2.92
425.516	3.03
425.877	2.94
426.238	3
426.598	2.9
426.959	3.03
427.32	3.02
427.68	2.97
428.041	2.94
428.401	2.91
428.761	3.07
429.122	3.05
429.482	3.06
429.842	3.22
430.202	2.99
430.563	2.98
430.923	3.26
431.283	3.31
431.643	2.96
432.003	3
432.363	3.11
432.722	3.3
433.082	2.97
433.442	2.88
433.802	3.07
434.161	3.07
434.521	3.17
434.881	3.11
435.24	3
435.6	3.1
435.959	3.06
436.319	3
436.678	3
437.037	3.25
437.396	3.15
437.756	3.16
438.115	3.13
438.474	3.02
438.833	3.17
439.192	3.15
439.551	3.05
439.91	3.17
440.269	3.18
440.628	3.07
440.987	2.95
441.345	3.01
441.704	3.01
442.063	3.21
442.421	2.99
442.78	3.13
443.138	3.05
443.497	3.2
443.855	3.03
444.214	3.13
444.572	3.06
444.93	3.08
445.288	3.21
445.647	3.33
446.005	3.34
446.363	3.17
446.721	3.19
447.079	3.21
447.437	3.23
447.795	3.24
448.153	3
448.51	3.1
448.868	3.17
449.226	3.15
449.584	3.06
449.941	3.2
450.299	3.35
450.656	3.25
451.014	3.24
451.371	3.04
451.729	3.21
452.086	3.26
452.443	3.27
452.801	3.25
453.158	3.37
453.515	3.29
453.872	3.25
454.229	3.24
454.586	3.19
454.943	3.38
455.3	3.27
455.657	3.3
456.014	3.35
456.371	3.23
456.727	3.46
457.084	3.43
457.441	3.45
457.797	3.26
458.154	3.37
458.51	3.29
458.867	3.31
459.223	3.39
459.58	3.25
459.936	3.42
460.292	3.21
460.648	3.4
461.005	3.36
461.361	3.37
461.717	3.31
462.073	3.29
462.429	3.3
462.785	3.36
463.141	3.25
463.496	3.5
463.852	3.51
464.208	3.42
464.564	3.54
464.919	3.72
465.275	3.42
465.631	3.3
465.986	3.43
466.342	3.22
466.697	3.41
467.052	3.49
467.408	3.35
467.763	3.47
468.118	3.37
468.473	3.42
468.829	3.48
469.184	3.55
469.539	3.41
469.894	3.41
470.249	3.47
470.603	3.51
470.958	3.51
471.313	3.55
471.668	3.61
472.023	3.46
472.377	3.43
472.732	3.61
473.086	3.51
473.441	3.6
473.795	3.6
474.15	3.56
474.504	3.55
474.859	3.45
475.213	3.75
475.567	3.42
475.921	3.48
476.275	3.46
476.63	3.46
476.984	3.55
477.338	3.47
477.692	3.67
478.045	3.37
478.399	3.55
478.753	3.65
479.107	3.45
479.461	3.66
479.814	3.45
480.168	3.44
480.521	3.52
480.875	3.52
481.228	3.73
481.582	3.48
481.935	3.68
482.289	3.52
482.642	3.47
482.995	3.59
483.348	3.4
483.701	3.49
484.055	3.52
484.408	3.46
484.761	3.48
485.114	3.37
485.466	3.32
485.819	3.29
486.172	3.31
486.525	3.37
486.878	3.38
487.23	3.41
487.583	3.41
487.936	3.51
488.288	3.47
488.641	3.52
488.993	3.45
489.345	3.46
489.698	3.39
490.05	3.48
490.402	3.36
490.754	3.48
491.107	3.49
491.459	3.47
491.811	3.47
492.163	3.66
492.515	3.59
492.866	3.47
493.218	3.48
493.57	3.41
493.922	3.51
494.274	3.5
494.625	3.55
494.977	3.59
495.328	3.59
495.68	3.65
496.031	3.65
496.383	3.62
496.734	3.76
497.086	3.78
497.437	3.77
497.788	3.68
498.139	3.75
498.49	3.71
498.842	3.71
499.193	3.76
499.544	3.65
499.894	3.69
500.245	3.78
500.596	3.77
500.947	3.63
501.298	3.78
501.648	3.92
501.999	3.85
502.35	3.81
502.7	3.76
503.051	3.74
503.401	3.86
503.752	3.7
504.102	3.88
504.452	3.79
504.803	3.84
505.153	3.86
505.503	3.69
505.853	3.93
506.203	3.82
506.553	3.93
506.903	3.88
507.253	3.85
507.603	3.91
507.953	3.77
508.303	3.91
508.652	3.73
509.002	3.99
509.352	4.04
509.701	3.84
510.051	3.96
510.4	3.95
510.75	3.97
511.099	3.9
511.449	3.8
511.798	3.97
512.147	3.86
512.496	3.81
512.846	3.89
513.195	3.77
513.544	3.95
513.893	3.9
514.242	3.84
514.591	3.81
514.939	4.06
515.288	3.97
515.637	4.08
515.986	4.04
516.334	3.86
516.683	4.08
517.032	3.97
517.38	4.03
517.729	3.97
518.077	3.93
518.426	4.12
518.774	3.93
519.122	3.89
519.47	3.89
519.819	4.01
520.167	3.88
520.515	3.88
520.863	3.95
521.211	3.93
521.559	4.02
521.907	3.94
522.255	3.89
522.602	3.96
522.95	4.06
523.298	3.96
523.645	4.09
523.993	4.11
524.341	4.16
524.688	4.07
525.036	4.17
525.383	3.98
525.73	4.13
526.078	4.12
526.425	4.17
526.772	4.06
527.119	4.11
527.466	3.98
527.814	3.96
528.161	4.08
528.508	4.11
528.854	4.2
529.201	4.05
529.548	4.1
529.895	4
530.242	3.93
530.588	3.92
530.935	3.93
531.282	3.94
531.628	3.96
531.975	3.96
532.321	4.03
532.667	4.1
533.014	4.06
533.36	4.09
533.706	4.1
534.052	4.16
534.399	4.06
534.745	4.09
535.091	4.15
535.437	4.12
535.783	4.19
536.129	4.13
536.474	4.13
536.82	4.2
537.166	4.22
537.512	4.31
537.857	4.33
538.203	4.27
538.549	4.14
538.894	4.3
539.239	4.29
539.585	4.35
539.93	4.24
540.276	4.41
540.621	4.23
540.966	4.33
541.311	4.36
541.656	4.38
542.001	4.51
542.346	4.4
542.691	4.36
543.036	4.28
543.381	4.28
543.726	4.27
544.071	4.25
544.415	4.34
544.76	4.28
545.105	4.38
545.449	4.42
545.794	4.42
546.138	4.45
546.483	4.5
546.827	4.58
547.171	4.44
547.516	4.55
547.86	4.38
548.204	4.51
548.548	4.44
548.892	4.51
549.236	4.64
549.58	4.56
549.924	4.62
550.268	4.63
550.612	4.64
550.956	4.74
551.3	4.64
551.643	4.65
551.987	4.76
552.33	4.74
552.674	4.84
553.017	4.66
553.361	4.78
553.704	4.72
554.048	4.73
554.391	4.74
554.734	4.81
555.077	4.69
555.42	4.8
555.764	4.79
556.107	4.76
556.45	4.76
556.793	4.72
557.135	4.98
557.478	5.03
557.821	5.04
558.164	4.85
558.507	4.9
558.849	4.98
559.192	5.09
559.534	5.06
559.877	5.01
560.219	4.86
560.562	5.13
560.904	4.88
561.246	4.83
561.589	5.04
561.931	5.05
562.273	5.27
562.615	5.03
562.957	5.09
563.299	5.04
563.641	5.11
563.983	5.12
564.325	5
564.667	5.24
565.008	5.13
565.35	5.13
565.692	5.14
566.033	5.17
566.375	5.31
566.716	5.08
567.058	4.94
567.399	4.88
567.741	5.11
568.082	5.17
568.423	5.07
568.764	5.18
569.105	5.19
569.447	5.11
569.788	5.36
570.129	5.17
570.47	5.3
570.811	5.38
571.151	5.55
571.492	5.37
571.833	5.29
572.174	5.24
572.514	5.36
572.855	5.35
573.195	5.43
573.536	5.44
573.876	5.11
574.217	5.36
574.557	5.41
574.898	5.36
575.238	5.4
575.578	5.31
575.918	5.42
576.258	5.38
576.598	5.46
576.938	5.51
577.278	5.49
577.618	5.5
577.958	5.57
578.298	5.34
578.638	5.52
578.977	5.7
579.317	5.65
579.657	5.71
579.996	5.37
580.336	5.7
580.675	5.64
581.014	5.7
581.354	5.84
581.693	5.78
582.032	5.97
582.372	5.83
582.711	6
583.05	5.78
583.389	5.87
583.728	5.78
584.067	5.98
584.406	5.72
584.745	6.03
585.083	5.95
585.422	5.87
585.761	6.14
586.1	5.84
586.438	5.79
586.777	5.69
587.115	6.04
587.454	6.18
587.792	6.07
588.13	5.94
588.469	5.96
588.807	5.93
589.145	6.06
589.483	6.17
589.821	5.91
590.159	6.36
590.497	6.01
590.835	6.08
591.173	6.08
591.511	6.37
591.849	5.93
592.187	6.06
592.524	6.37
592.862	6.25
593.2	6.32
593.537	6.14
593.875	6.37
594.212	6.27
594.55	6
594.887	6.01
595.224	6.4
595.561	6.2
595.899	6.24
596.236	6.08
596.573	6.4
596.91	6.38
597.247	6.54
597.584	6.25
597.921	6.41
598.258	6.29
598.594	6.43
598.931	6.46
599.268	6.27
599.604	6.49
599.941	6.48
600.277	6.47
600.614	6.36
600.95	6.61
601.287	6.45
601.623	6.49
601.959	6.2
602.296	6.4
602.632	6.5
602.968	6.5
603.304	6.55
603.64	6.63
603.976	6.57
604.312	6.8
604.648	6.81
604.984	6.69
605.319	6.81
605.655	6.72
605.991	6.66
606.326	6.48
606.662	6.66
606.998	6.77
607.333	6.62
607.668	6.58
608.004	6.85
608.339	6.59
608.674	6.82
609.01	7.07
609.345	7.01
609.68	6.85
610.015	7
610.35	6.96
610.685	6.79
611.02	6.81
611.355	6.84
611.689	6.87
612.024	7.06
612.359	6.88
612.694	6.86
613.028	7.11
613.363	7.24
613.697	7.15
614.032	6.94
614.366	7.11
614.7	6.92
615.035	7.31
615.369	7.27
615.703	7.06
616.037	7.02
616.371	7.25
616.705	7
617.039	7.09
617.373	7.25
617.707	7.51
618.041	7.64
618.375	7.64
618.709	7.2
619.042	7.34
619.376	7.79
619.71	7.61
620.043	7.37
620.377	7.21
620.71	7.35
621.043	7.47
621.377	7.16
621.71	7.67
622.043	7.42
622.376	7.42
622.709	7.72
623.043	7.38
623.376	7.76
623.709	7.74
624.041	7.68
624.374	7.37
624.707	7.77
625.04	7.93
625.373	7.71
625.705	7.58
626.038	7.27
626.37	7.53
626.703	7.32
627.035	8
627.368	7.77
627.7	7.49
628.032	7.28
628.365	7.51
628.697	7.39
629.029	7.69
629.361	7.79
629.693	7.9
630.025	7.87
630.357	7.9
630.689	7.98
631.021	7.7
631.353	7.93
631.684	7.92
632.016	7.78
632.348	7.72
632.679	8.12
633.011	7.84
633.342	7.99
633.674	8.15
634.005	8.06
634.336	8.21
634.668	7.92
634.999	7.85
635.33	7.93
635.661	8.21
635.992	8.17
636.323	8.35
636.654	8.26
636.985	8.46
637.316	8.27
637.647	8.4
637.977	8.25
638.308	8
638.639	7.92
638.969	8.12
639.3	8.45
639.63	8.26
639.961	8.31
640.291	8.3
640.622	8.95
640.952	8.4
641.282	8.52
641.612	8.41
641.943	8.56
642.273	8.32
642.603	8.19
642.933	8.48
643.263	8.57
643.592	8.68
643.922	8.44
644.252	9.2
644.582	8.72
644.911	8.58
645.241	8.56
645.571	8.89
645.9	9.03
646.23	8.91
646.559	8.45
646.888	8.93
647.218	8.51
647.547	8.73
647.876	8.45
648.205	9.04
648.534	8.38
648.863	8.82
649.192	9.03
649.521	8.62
649.85	8.52
650.179	8.71
650.508	9.24
650.837	9.18
651.165	9.12
651.494	8.81
651.822	8.97
652.151	9.15
652.479	9.01
652.808	8.9
653.136	9
653.465	8.74
653.793	8.85
654.121	8.43
654.449	9.27
654.777	9.15
655.105	8.91
655.433	9.24
655.761	8.94
656.089	9.42
656.417	9.24
656.745	9.34
657.073	8.53
657.4	9.58
657.728	9.13
658.056	9.39
658.383	9.32
658.711	9.16
659.038	9.63
659.365	8.94
659.693	9.41
660.02	9.4
660.347	9.22
660.674	9.37
661.001	9.42
661.329	9.2
661.656	9.77
661.982	9.55
662.309	9.46
662.636	9.62
662.963	9.57
663.29	9.65
663.616	9.71
663.943	9.26
664.27	9.52
664.596	9.45
664.923	10.08
665.249	9.76
665.576	9.97
665.902	9.08
666.228	10.07
666.554	9.7
666.881	10.06
667.207	9.9
667.533	9.5
667.859	9.47
668.185	9.61
668.511	9.54
668.837	10.2
669.162	10.17
669.488	9.97
669.814	10.24
670.139	9.46
670.465	10.05
670.791	9.68
671.116	9.79
671.442	10.14
671.767	9.79
672.092	9.65
672.418	10.26
672.743	10.3
673.068	9.55
673.393	9.97
673.718	9.98
674.043	10.97
674.368	10.24
674.693	10.33
675.018	10.29
675.343	10.22
675.667	10.53
675.992	10.39
676.317	10.36
676.641	10.31
676.966	10.91
677.29	10.53
677.615	9.88
677.939	10.49
678.264	10.47
678.588	9.84
678.912	10.38
679.236	10.05
679.56	10.26
679.885	10.47
680.209	10.25
680.532	9.75
680.856	10.34
681.18	10.46
681.504	10.53
681.828	10.79
682.152	10.34
682.475	10.81
682.799	10.53
683.122	10.4
683.446	10.94
683.769	10.59
684.093	10.71
684.416	10.52
684.739	10.82
685.062	10.54
685.386	10.55
685.709	10.39
686.032	10.58
686.355	10.64
686.678	10.78
687.001	10.79
687.324	10.99
687.646	10.96
687.969	11.6
688.292	10.69
688.614	11.04
688.937	10.59
689.26	10.55
689.582	10.69
689.904	11.34
690.227	10.74
690.549	11.28
690.871	11.34
691.194	10.77
691.516	11.35
691.838	11.38
