Data from 97276_forehead_Reflection__2__113.txt Node

Date: Fri Sep 23 20:34:09 CDT 2022
User: ToomeyLab
Spectrometer: FLMS14357
Trigger mode: 0
Integration Time (sec): 1.000000E-2
Scans to average: 100
Electric dark correction enabled: true
Nonlinearity correction enabled: false
Boxcar width: 0
XAxis mode: Wavelengths
Number of Pixels in Spectrum: 2048
>>>>>Begin Spectral Data<<<<<
189.047	124.49
189.435	124.49
189.823	124.49
190.211	-64.62
190.599	241.62
190.987	32.66
191.375	-87.29
191.763	82.71
192.151	33.62
192.538	151.01
192.926	62
193.314	56.2
193.702	130.54
194.089	-466.67
194.477	-13.38
194.864	-393.83
195.252	82.92
195.639	82.57
196.027	32.04
196.414	91.33
196.801	-0.54
197.189	252.08
197.576	50.59
197.963	-27.03
198.351	29.82
198.738	-7.73
199.125	40.71
199.512	9.09
199.899	-16.16
200.286	3.37
200.673	-10.51
201.06	0.13
201.447	12.61
201.833	31.2
202.22	4.31
202.607	-6.79
202.994	-31.54
203.38	-7.97
203.767	-32.23
204.154	21.22
204.54	19.99
204.927	42.68
205.313	13.06
205.699	-11.9
206.086	-66.13
206.472	26.44
206.858	0.95
207.245	15.13
207.631	27.98
208.017	21.29
208.403	6.31
208.789	42.48
209.175	6.39
209.561	18.9
209.947	-28.37
210.333	-2.27
210.719	13.98
211.105	26.6
211.491	-6.76
211.876	17.43
212.262	14.36
212.648	4.67
213.034	-27.26
213.419	-21.04
213.805	27.62
214.19	-0.63
214.576	6.06
214.961	17.88
215.346	-11.55
215.732	16.88
216.117	-7.47
216.502	17.12
216.888	28.74
217.273	-5
217.658	14.49
218.043	27.43
218.428	9.48
218.813	7.59
219.198	6.35
219.583	15.96
219.968	-3.26
220.353	-8.47
220.738	-4.06
221.122	-13.33
221.507	12.16
221.892	-8.44
222.276	-6.57
222.661	-12.72
223.046	9.69
223.43	-9.37
223.815	12.58
224.199	-2.26
224.583	5.86
224.968	-11.59
225.352	9.15
225.736	-0.94
226.121	12.57
226.505	14.09
226.889	2.23
227.273	4.19
227.657	0.76
228.041	0.58
228.425	0.67
228.809	3.7
229.193	3.47
229.577	3.2
229.961	1.95
230.344	2.01
230.728	1.57
231.112	1.09
231.495	2.11
231.879	0.38
232.263	2.44
232.646	2.86
233.03	1.96
233.413	3
233.797	2.35
234.18	2.52
234.563	1.2
234.946	4.38
235.33	1.87
235.713	3.11
236.096	1.34
236.479	2.34
236.862	2.52
237.245	4.04
237.628	2.14
238.011	2.69
238.394	2.28
238.777	3.25
239.16	2.94
239.543	3.3
239.925	1.87
240.308	3.19
240.691	3.67
241.073	2.08
241.456	2.58
241.838	2.98
242.221	3.13
242.603	2.92
242.986	1.68
243.368	2.22
243.75	2.13
244.133	2.2
244.515	1.72
244.897	2.01
245.279	2.65
245.661	2.57
246.043	3.14
246.425	2
246.807	1.84
247.189	2.91
247.571	2.68
247.953	2.48
248.335	2.6
248.717	2.35
249.098	1.96
249.48	2.22
249.862	2.32
250.243	2.82
250.625	2.31
251.006	2.53
251.388	2.27
251.769	1.88
252.151	0.05
252.532	2.31
252.913	2.3
253.295	3.14
253.676	2.11
254.057	2.34
254.438	2.18
254.819	2.94
255.2	2.19
255.581	4.15
255.962	1.63
256.343	3.8
256.724	2.32
257.105	2.9
257.486	2.91
257.867	2.52
258.247	3.2
258.628	2.03
259.009	1.29
259.389	2.08
259.77	1.66
260.15	1.95
260.531	2.25
260.911	2.34
261.292	2.2
261.672	2.21
262.052	2.16
262.432	2.1
262.813	2.31
263.193	2.24
263.573	2.94
263.953	2.14
264.333	2.59
264.713	2.29
265.093	3.26
265.473	2.48
265.853	1.87
266.233	1.28
266.612	2.72
266.992	2.8
267.372	2.45
267.752	2.28
268.131	2.34
268.511	2.3
268.89	2.13
269.27	2.15
269.649	2.4
270.029	2.55
270.408	2.6
270.787	1.99
271.167	1.95
271.546	1.93
271.925	1.81
272.304	1.93
272.683	2.05
273.062	1.98
273.441	2.27
273.82	1.82
274.199	2.14
274.578	2.09
274.957	1.98
275.336	2.25
275.715	2.22
276.093	2.55
276.472	2.75
276.851	2.26
277.229	2.52
277.608	2.09
277.986	2.27
278.365	2.26
278.743	2.82
279.122	1.68
279.5	2.1
279.878	2.31
280.257	2.13
280.635	1.86
281.013	2.31
281.391	2.09
281.769	1.9
282.147	2.23
282.525	2.43
282.903	2.37
283.281	2.23
283.659	2.32
284.037	2.59
284.415	2.46
284.792	2.1
285.17	2.26
285.548	2.31
285.925	2.61
286.303	2.49
286.68	2.48
287.058	2.53
287.435	2.34
287.813	2.45
288.19	2.43
288.567	2.39
288.945	2.5
289.322	2.53
289.699	2.26
290.076	2.61
290.453	2.64
290.83	2.78
291.207	2.34
291.584	2.62
291.961	2.41
292.338	2.65
292.715	2.45
293.092	2.47
293.469	2.83
293.845	2.82
294.222	3.12
294.599	2.51
294.975	2.44
295.352	2.94
295.728	2.84
296.105	2.59
296.481	2.64
296.858	2.53
297.234	2.78
297.61	2.29
297.986	2.56
298.363	2.69
298.739	2.94
299.115	2.66
299.491	2.72
299.867	2.67
300.243	2.93
300.619	3.51
300.995	3.15
301.371	2.82
301.746	3.13
302.122	2.71
302.498	2.99
302.874	2.74
303.249	2.88
303.625	2.99
304	3.25
304.376	3.31
304.751	2.91
305.127	2.83
305.502	3.59
305.878	2.94
306.253	3.48
306.628	3.23
307.003	2.79
307.378	3.14
307.754	3.46
308.129	3.26
308.504	3.73
308.879	3.24
309.254	3.6
309.629	3.62
310.003	3.93
310.378	3.5
310.753	3.6
311.128	3.45
311.502	3.49
311.877	3.64
312.252	3.58
312.626	3.97
313.001	3.46
313.375	3.59
313.75	3.62
314.124	3.27
314.498	4.24
314.873	3.92
315.247	4.06
315.621	4.1
315.995	4.48
316.369	3.58
316.743	3.24
317.117	3.58
317.491	3.6
317.865	4.5
318.239	4.59
318.613	3.86
318.987	3.96
319.361	3.67
319.734	3.46
320.108	3.65
320.482	4.07
320.855	4.07
321.229	4.19
321.602	4.16
321.976	4.44
322.349	4.59
322.723	4.34
323.096	4.36
323.469	4.02
323.843	3.85
324.216	4.76
324.589	4.71
324.962	4.74
325.335	4.21
325.708	5.31
326.081	4.32
326.454	4.6
326.827	4.53
327.2	4.53
327.573	5.12
327.945	5
328.318	4.42
328.691	4.89
329.063	4.99
329.436	4.96
329.809	5.68
330.181	4.65
330.553	4.44
330.926	4.84
331.298	4.99
331.671	4.77
332.043	5.53
332.415	4.68
332.787	4.87
333.159	5.21
333.532	5.01
333.904	4.52
334.276	5.01
334.648	5.28
335.02	5.17
335.391	4.94
335.763	5.04
336.135	5.44
336.507	5.07
336.879	5.17
337.25	5.55
337.622	5.06
337.993	5.54
338.365	5.27
338.736	5.42
339.108	6.34
339.479	5.33
339.851	5.65
340.222	5.82
340.593	5.76
340.964	5.73
341.336	5.77
341.707	6.31
342.078	5.59
342.449	5.65
342.82	5.63
343.191	5.39
343.562	5.76
343.933	6.23
344.303	5.65
344.674	6.07
345.045	6.31
345.416	6.03
345.786	6.21
346.157	5.94
346.527	5.99
346.898	6.23
347.268	6.11
347.639	6.18
348.009	6.01
348.38	5.94
348.75	5.72
349.12	6.07
349.49	6.29
349.861	6.08
350.231	5.98
350.601	6.09
350.971	6.91
351.341	6.34
351.711	6.37
352.081	6.34
352.45	6.44
352.82	6.17
353.19	6.94
353.56	6.76
353.929	6.16
354.299	6.92
354.669	6.53
355.038	7.07
355.408	6.37
355.777	6.71
356.147	6.61
356.516	6.76
356.885	6.61
357.254	6.65
357.624	6.35
357.993	6.85
358.362	6.57
358.731	6.65
359.1	6.91
359.469	6.73
359.838	6.62
360.207	7.27
360.576	7.26
360.945	6.8
361.314	6.51
361.682	6.77
362.051	7.26
362.42	7.45
362.788	6.91
363.157	7.26
363.525	7.29
363.894	7.18
364.262	6.95
364.631	7.24
364.999	7.2
365.367	7.42
365.735	7.16
366.104	7.56
366.472	7.44
366.84	7.48
367.208	7.67
367.576	7.87
367.944	7.35
368.312	7.73
368.68	7.65
369.048	7.88
369.416	7.77
369.783	7.5
370.151	7.9
370.519	7.66
370.886	7.92
371.254	7.6
371.621	7.62
371.989	7.7
372.356	8.04
372.724	7.48
373.091	8.08
373.458	7.84
373.826	7.92
374.193	7.91
374.56	7.98
374.927	8.16
375.294	8.63
375.661	7.96
376.028	8.16
376.395	7.99
376.762	7.84
377.129	8.18
377.496	8.48
377.863	8.51
378.229	8.07
378.596	8.32
378.963	8.52
379.329	8.57
379.696	8.3
380.062	8.2
380.429	8.18
380.795	8.41
381.161	8.56
381.528	8.97
381.894	8.27
382.26	8.45
382.626	8.39
382.993	8.75
383.359	8.85
383.725	9.07
384.091	8.85
384.457	8.87
384.823	8.55
385.188	8.97
385.554	8.73
385.92	9.15
386.286	8.96
386.651	9.13
387.017	9.08
387.383	8.85
387.748	9.11
388.114	8.85
388.479	9.1
388.845	9.08
389.21	8.98
389.575	9.16
389.94	8.96
390.306	9.03
390.671	9.23
391.036	9.3
391.401	9.4
391.766	9.48
392.131	9.55
392.496	9.31
392.861	9.39
393.226	9.36
393.591	9.39
393.956	9.51
394.32	9.68
394.685	9.24
395.05	9.44
395.414	9.62
395.779	9.51
396.143	9.64
396.508	9.66
396.872	9.7
397.236	10.06
397.601	9.9
397.965	10.15
398.329	10.06
398.694	9.96
399.058	9.86
399.422	10.2
399.786	10.01
400.15	9.98
400.514	9.84
400.878	9.97
401.242	10.01
401.605	10.32
401.969	10.08
402.333	9.88
402.697	9.81
403.06	10.28
403.424	10.31
403.787	10.18
404.151	10.28
404.514	10.18
404.878	10.14
405.241	10.29
405.604	10.35
405.968	10.24
406.331	10.29
406.694	10.59
407.057	10.34
407.42	10.26
407.783	10.5
408.146	10.42
408.509	10.52
408.872	10.44
409.235	10.59
409.598	10.79
409.961	10.93
410.323	10.8
410.686	10.88
411.049	10.81
411.411	11.02
411.774	10.65
412.136	10.85
412.499	10.77
412.861	10.76
413.223	10.8
413.586	11.05
413.948	10.98
414.31	11.02
414.672	10.94
415.035	10.98
415.397	11.17
415.759	11.3
416.121	11.31
416.483	11.17
416.845	11.14
417.206	11.27
417.568	11.28
417.93	11.2
418.292	11.42
418.653	11.12
419.015	11.2
419.377	11.15
419.738	11.33
420.1	11.2
420.461	11.36
420.822	11.34
421.184	11.34
421.545	11.42
421.906	11.37
422.267	11.33
422.629	11.34
422.99	11.4
423.351	11.27
423.712	11.35
424.073	11.38
424.434	11.43
424.795	11.5
425.155	11.63
425.516	11.58
425.877	11.56
426.238	11.62
426.598	11.64
426.959	11.63
427.32	11.69
427.68	11.83
428.041	11.77
428.401	11.8
428.761	11.8
429.122	11.91
429.482	12.05
429.842	12.18
430.202	12.21
430.563	11.9
430.923	12.2
431.283	12.52
431.643	12.29
432.003	12.18
432.363	12.4
432.722	12.61
433.082	12.39
433.442	12.31
433.802	12.43
434.161	12.51
434.521	12.53
434.881	12.45
435.24	12.6
435.6	12.38
435.959	12.5
436.319	12.52
436.678	12.62
437.037	12.66
437.396	12.69
437.756	12.74
438.115	12.7
438.474	12.86
438.833	12.91
439.192	12.99
439.551	13.03
439.91	12.99
440.269	13.11
440.628	12.88
440.987	12.98
441.345	12.98
441.704	12.99
442.063	13.08
442.421	12.91
442.78	12.93
443.138	12.91
443.497	13.01
443.855	13.06
444.214	13.22
444.572	13.22
444.93	13.23
445.288	13.42
445.647	13.48
446.005	13.44
446.363	13.42
446.721	13.45
447.079	13.48
447.437	13.55
447.795	13.43
448.153	13.29
448.51	13.38
448.868	13.34
449.226	13.29
449.584	13.45
449.941	13.53
450.299	13.63
450.656	13.7
451.014	13.75
451.371	13.58
451.729	13.8
452.086	13.72
452.443	13.82
452.801	14.15
453.158	13.92
453.515	13.92
453.872	14.09
454.229	14.08
454.586	14.08
454.943	14.13
455.3	14.01
455.657	14.08
456.014	14.37
456.371	14.21
456.727	14.34
457.084	14.28
457.441	14.43
457.797	14.39
458.154	14.36
458.51	14.48
458.867	14.54
459.223	14.49
459.58	14.69
459.936	14.67
460.292	14.55
460.648	14.63
461.005	14.55
461.361	14.54
461.717	14.57
462.073	14.49
462.429	14.39
462.785	14.6
463.141	14.53
463.496	14.57
463.852	14.73
464.208	14.89
464.564	14.85
464.919	15.1
465.275	15.04
465.631	14.95
465.986	15.11
466.342	15.03
466.697	15.27
467.052	15.05
467.408	15.17
467.763	15.2
468.118	15.23
468.473	15.26
468.829	15.22
469.184	15.29
469.539	15.2
469.894	15.29
470.249	15.42
470.603	15.25
470.958	15.52
471.313	15.68
471.668	15.51
472.023	15.5
472.377	15.5
472.732	15.52
473.086	15.62
473.441	15.8
473.795	15.72
474.15	15.7
474.504	15.83
474.859	15.7
475.213	15.87
475.567	15.63
475.921	15.96
476.275	15.82
476.63	15.92
476.984	16.29
477.338	16.05
477.692	16.25
478.045	15.92
478.399	16.07
478.753	16.1
479.107	16.08
479.461	16.19
479.814	16.13
480.168	16.1
480.521	16.24
480.875	16.24
481.228	16.19
481.582	16.11
481.935	16.43
482.289	16.39
482.642	16.27
482.995	16.49
483.348	16.11
483.701	16.33
484.055	16.32
484.408	16.24
484.761	16.19
485.114	16.03
485.466	15.92
485.819	15.85
486.172	15.74
486.525	15.58
486.878	15.59
487.23	15.73
487.583	16
487.936	16.22
488.288	16.27
488.641	16.31
488.993	16.31
489.345	16.2
489.698	16.1
490.05	16.16
490.402	16.01
490.754	16.19
491.107	16.27
491.459	16.29
491.811	16.58
492.163	16.78
492.515	16.86
492.866	16.85
493.218	16.69
493.57	16.56
493.922	16.55
494.274	16.47
494.625	16.62
494.977	16.68
495.328	16.96
495.68	17.08
496.031	17.18
496.383	17.36
496.734	17.47
497.086	17.58
497.437	17.56
497.788	17.63
498.139	17.51
498.49	17.56
498.842	17.48
499.193	17.54
499.544	17.41
499.894	17.46
500.245	17.64
500.596	17.6
500.947	17.72
501.298	17.8
501.648	17.93
501.999	17.93
502.35	18
502.7	18.03
503.051	17.95
503.401	18.15
503.752	18.03
504.102	18.16
504.452	18.08
504.803	18.13
505.153	18.22
505.503	18.09
505.853	18.36
506.203	18.32
506.553	18.24
506.903	18.31
507.253	18.32
507.603	18.5
507.953	18.4
508.303	18.47
508.652	18.43
509.002	18.7
509.352	18.57
509.701	18.6
510.051	18.53
510.4	18.62
510.75	18.37
511.099	18.47
511.449	18.48
511.798	18.66
512.147	18.51
512.496	18.63
512.846	18.63
513.195	18.54
513.544	18.87
513.893	18.74
514.242	18.75
514.591	18.78
514.939	18.77
515.288	18.77
515.637	18.89
515.986	18.9
516.334	18.84
516.683	19.15
517.032	19.05
517.38	19.12
517.729	19.19
518.077	19.11
518.426	19.25
518.774	19.21
519.122	19.22
519.47	19.22
519.819	19.2
520.167	19.01
520.515	19.05
520.863	19.05
521.211	19.01
521.559	18.94
521.907	19.13
522.255	19.15
522.602	19.32
522.95	19.46
523.298	19.59
523.645	19.62
523.993	19.55
524.341	19.75
524.688	19.66
525.036	19.84
525.383	19.65
525.73	19.8
526.078	19.83
526.425	19.75
526.772	19.81
527.119	19.71
527.466	19.63
527.814	19.56
528.161	19.55
528.508	19.6
528.854	19.59
529.201	19.55
529.548	19.68
529.895	19.49
530.242	19.53
530.588	19.45
530.935	19.3
531.282	19.18
531.628	19.15
531.975	19.3
532.321	19.47
532.667	19.64
533.014	19.77
533.36	19.93
533.706	19.97
534.052	20.08
534.399	20.05
534.745	20.06
535.091	19.97
535.437	19.84
535.783	19.85
536.129	19.72
536.474	19.96
536.82	20.11
537.166	20.2
537.512	20.3
537.857	20.45
538.203	20.39
538.549	20.42
538.894	20.46
539.239	20.4
539.585	20.48
539.93	20.5
540.276	20.56
540.621	20.83
540.966	21.01
541.311	21.06
541.656	20.82
542.001	21.17
542.346	20.9
542.691	20.81
543.036	20.56
543.381	20.56
543.726	20.42
544.071	20.36
544.415	20.49
544.76	20.57
545.105	20.78
545.449	20.9
545.794	20.85
546.138	20.99
546.483	21.24
546.827	21.27
547.171	21.35
547.516	21.28
547.86	21.32
548.204	21.24
548.548	21.3
548.892	21.27
549.236	21.35
549.58	21.35
549.924	21.49
550.268	21.59
550.612	21.5
550.956	21.87
551.3	21.89
551.643	21.89
551.987	22
552.33	22.01
552.674	21.96
553.017	22.24
553.361	22.2
553.704	22.18
554.048	22.34
554.391	22.33
554.734	22.23
555.077	22.09
555.42	22.01
555.764	22.09
556.107	22.23
556.45	22.34
556.793	22.52
557.135	22.31
557.478	22.43
557.821	22.54
558.164	22.36
558.507	22.4
558.849	22.64
559.192	22.84
559.534	22.74
559.877	22.87
560.219	22.73
560.562	22.87
560.904	22.74
561.246	22.69
561.589	23.05
561.931	22.82
562.273	23.04
562.615	22.87
562.957	22.91
563.299	22.99
563.641	22.94
563.983	22.95
564.325	23.09
564.667	23.18
565.008	23.08
565.35	23.29
565.692	23.17
566.033	23.35
566.375	23.3
566.716	23.24
567.058	23.25
567.399	23.19
567.741	23.43
568.082	23.32
568.423	23.15
568.764	23.36
569.105	23.36
569.447	23.28
569.788	23.22
570.129	23.4
570.47	23.55
570.811	23.71
571.151	23.79
571.492	23.59
571.833	23.8
572.174	23.54
572.514	23.63
572.855	23.52
573.195	23.69
573.536	23.64
573.876	23.65
574.217	23.56
574.557	23.55
574.898	23.57
575.238	23.56
575.578	23.93
575.918	23.78
576.258	23.67
576.598	23.81
576.938	23.95
577.278	23.97
577.618	23.92
577.958	23.96
578.298	23.84
578.638	23.94
578.977	24.15
579.317	24.13
579.657	24.27
579.996	24.33
580.336	24.28
580.675	24.32
581.014	24.37
581.354	24.48
581.693	24.59
582.032	24.65
582.372	24.7
582.711	24.72
583.05	24.78
583.389	24.61
583.728	24.52
584.067	24.8
584.406	24.7
584.745	24.94
585.083	24.45
585.422	24.67
585.761	24.77
586.1	24.97
586.438	24.68
586.777	24.86
587.115	25.08
587.454	24.95
587.792	25.15
588.13	25.08
588.469	25.14
588.807	24.95
589.145	25.07
589.483	24.95
589.821	24.97
590.159	25.25
590.497	25.06
590.835	25.2
591.173	25.33
591.511	25.39
591.849	25.1
592.187	25.3
592.524	25.54
592.862	25.62
593.2	25.61
593.537	25.54
593.875	25.23
594.212	25.55
594.55	25.21
594.887	25.55
595.224	25.51
595.561	25.55
595.899	25.73
596.236	25.47
596.573	25.88
596.91	25.53
597.247	25.68
597.584	25.66
597.921	25.65
598.258	25.64
598.594	25.77
598.931	25.6
599.268	25.65
599.604	25.56
599.941	25.64
600.277	25.82
600.614	25.77
600.95	25.72
601.287	26.03
601.623	25.86
601.959	25.82
602.296	26.01
602.632	26.15
602.968	25.97
603.304	25.93
603.64	26.33
603.976	26.38
604.312	26.32
604.648	26.47
604.984	25.98
605.319	26.38
605.655	26.29
605.991	26.28
606.326	26.22
606.662	26.07
606.998	26.29
607.333	26.23
607.668	26.16
608.004	26.19
608.339	26.25
608.674	26.52
609.01	26.5
609.345	26.48
609.68	26.48
610.015	26.76
610.35	26.68
610.685	26.44
611.02	26.62
611.355	26.5
611.689	26.77
612.024	26.76
612.359	26.59
612.694	26.77
613.028	26.62
613.363	26.89
613.697	27
614.032	26.86
614.366	26.63
614.7	26.95
615.035	27.05
615.369	27.19
615.703	27.22
616.037	27.25
616.371	27.19
616.705	27.1
617.039	26.86
617.373	27.3
617.707	27.33
618.041	27.54
618.375	27.2
618.709	27.08
619.042	27.38
619.376	27.66
619.71	27.56
620.043	27.47
620.377	27.66
620.71	27.68
621.043	27.65
621.377	27.15
621.71	27.57
622.043	27.23
622.376	27.79
622.709	27.7
623.043	27.57
623.376	27.78
623.709	27.68
624.041	27.83
624.374	27.54
624.707	27.83
625.04	27.93
625.373	27.84
625.705	27.9
626.038	28.03
626.37	27.77
626.703	28.06
627.035	28.37
627.368	27.99
627.7	27.77
628.032	27.61
628.365	28.16
628.697	28.15
629.029	28.12
629.361	28.02
629.693	28.04
630.025	27.96
630.357	28.17
630.689	27.98
631.021	28.13
631.353	27.99
631.684	28.32
632.016	28.54
632.348	28.18
632.679	28.11
633.011	28.88
633.342	28.76
633.674	28.6
634.005	28.29
634.336	28.46
634.668	28.62
634.999	28.51
635.33	28.39
635.661	28.65
635.992	28.58
636.323	28.98
636.654	28.49
636.985	28.76
637.316	28.76
637.647	28.96
637.977	29.16
638.308	28.5
638.639	28.68
638.969	28.77
639.3	28.85
639.63	28.92
639.961	28.76
640.291	29.1
640.622	29.09
640.952	28.89
641.282	29.19
641.612	28.86
641.943	29.27
642.273	28.98
642.603	29.22
642.933	28.84
643.263	29.07
643.592	29.22
643.922	29.13
644.252	29.8
644.582	29.86
644.911	29.12
645.241	29.47
645.571	29.31
645.9	29.49
646.23	29.31
646.559	29.05
646.888	29.78
647.218	29.92
647.547	29.33
647.876	29.44
648.205	29.41
648.534	29.44
648.863	29.7
649.192	29.93
649.521	29.73
649.85	29.71
650.179	29.55
650.508	29.66
650.837	29.62
651.165	29.93
651.494	29.54
651.822	30.25
652.151	29.75
652.479	30.17
652.808	29.88
653.136	29.63
653.465	29.8
653.793	29.84
654.121	29.73
654.449	29.67
654.777	29.73
655.105	29.64
655.433	30.01
655.761	30.53
656.089	29.95
656.417	29.8
656.745	29.9
657.073	29.5
657.4	30.32
657.728	29.94
658.056	30.44
658.383	30.26
658.711	30.25
659.038	30.32
659.365	30.04
659.693	30.44
660.02	30.02
660.347	30.52
660.674	30.15
661.001	30.47
661.329	30.74
661.656	30.72
661.982	30.41
662.309	30.45
662.636	30.49
662.963	30.64
663.29	30.58
663.616	30.25
663.943	30.55
664.27	30.26
664.596	30.61
664.923	31.19
665.249	30.99
665.576	30.97
665.902	30.84
666.228	31.11
666.554	30.63
666.881	30.72
667.207	31.05
667.533	31.17
667.859	30.44
668.185	31.08
668.511	30.96
668.837	30.94
669.162	30.96
669.488	30.3
669.814	31.26
670.139	30.93
670.465	30.74
670.791	31.02
671.116	31.24
671.442	30.78
671.767	30.57
672.092	31.18
672.418	31.31
672.743	31.86
673.068	30.69
673.393	31.16
673.718	31.64
674.043	31.93
