Data from 97276_chest_Reflection__4__110.txt Node

Date: Fri Sep 23 20:32:47 CDT 2022
User: ToomeyLab
Spectrometer: FLMS14357
Trigger mode: 0
Integration Time (sec): 1.000000E-2
Scans to average: 100
Electric dark correction enabled: true
Nonlinearity correction enabled: false
Boxcar width: 0
XAxis mode: Wavelengths
Number of Pixels in Spectrum: 2048
>>>>>Begin Spectral Data<<<<<
189.047	100.46
189.435	100.46
189.823	100.46
190.211	115.31
190.599	529.63
190.987	-86.56
191.375	-49.63
191.763	111.88
192.151	-23.77
192.538	83.5
192.926	46.96
193.314	107.59
193.702	33.62
194.089	635.44
194.477	29.75
194.864	785.46
195.252	22.31
195.639	-61.02
196.027	74.32
196.414	153.18
196.801	158.28
197.189	-107.53
197.576	66.97
197.963	-5.68
198.351	30.66
198.738	-23.81
199.125	21.78
199.512	-2.92
199.899	-13.12
200.286	14.21
200.673	25.4
201.06	28.23
201.447	33.72
201.833	25.65
202.22	21.77
202.607	3.13
202.994	21.31
203.38	-4.2
203.767	-19.36
204.154	31.43
204.54	26.8
204.927	34.96
205.313	17.25
205.699	-50.92
206.086	-22.82
206.472	-4.21
206.858	18.62
207.245	-41.41
207.631	-9
208.017	-2.4
208.403	4.11
208.789	11
209.175	17.11
209.561	28.8
209.947	-28.24
210.333	-1.35
210.719	-6.34
211.105	7.02
211.491	-41.76
211.876	21.42
212.262	-29.79
212.648	3
213.034	-23.02
213.419	-51.37
213.805	24.4
214.19	20.54
214.576	-10.78
214.961	24.79
215.346	-4.1
215.732	20.28
216.117	-3.68
216.502	-10.27
216.888	24.76
217.273	2.64
217.658	-29.82
218.043	8.53
218.428	-20.08
218.813	24.83
219.198	-5.59
219.583	18.55
219.968	-0.37
220.353	3.57
220.738	14.16
221.122	1.15
221.507	-15
221.892	4.15
222.276	-8.27
222.661	-8.42
223.046	-2.14
223.43	-2.48
223.815	3.1
224.199	4.83
224.583	13.14
224.968	-0.91
225.352	6
225.736	3.47
226.121	13.18
226.505	6.2
226.889	8.35
227.273	6.33
227.657	-1.78
228.041	6.15
228.425	1.96
228.809	1.89
229.193	5.51
229.577	5.85
229.961	3.93
230.344	4.11
230.728	3.44
231.112	3.69
231.495	3.47
231.879	3.15
232.263	3.65
232.646	4.12
233.03	4.15
233.413	4.93
233.797	4.02
234.18	6.23
234.563	0.96
234.946	5.24
235.33	3.36
235.713	6.33
236.096	2.86
236.479	4.38
236.862	4.02
237.245	3.91
237.628	5.86
238.011	4.74
238.394	4.55
238.777	4.96
239.16	3.36
239.543	3.65
239.925	4.05
240.308	5.59
240.691	5.75
241.073	3.51
241.456	3.39
241.838	5.08
242.221	5.01
242.603	5.14
242.986	3.29
243.368	3.32
243.75	4.3
244.133	3.91
244.515	4.08
244.897	4.38
245.279	4.62
245.661	4.61
246.043	5.04
246.425	3.23
246.807	3.03
247.189	4.48
247.571	4.26
247.953	4.11
248.335	4.23
248.717	4.16
249.098	4.09
249.48	4.05
249.862	4.25
250.243	4.54
250.625	4.35
251.006	4.53
251.388	3.4
251.769	4.22
252.151	2.52
252.532	4.99
252.913	5.22
253.295	4.45
253.676	4.31
254.057	4.09
254.438	4.14
254.819	4.48
255.2	4.49
255.581	4.93
255.962	3.48
256.343	4.77
256.724	3.87
257.105	4.98
257.486	3.08
257.867	3.89
258.247	3.26
258.628	4.23
259.009	3.57
259.389	3.68
259.77	2.59
260.15	4.23
260.531	4.01
260.911	4.14
261.292	4.07
261.672	3.93
262.052	3.78
262.432	3.64
262.813	3.98
263.193	3.63
263.573	4.3
263.953	3.89
264.333	3.65
264.713	3.72
265.093	3.72
265.473	4.45
265.853	3.95
266.233	3.14
266.612	3.56
266.992	4.19
267.372	3.42
267.752	4.23
268.131	3.94
268.511	3.79
268.89	4.13
269.27	3.68
269.649	3.82
270.029	3.74
270.408	4.14
270.787	3.41
271.167	3.32
271.546	3.66
271.925	3.14
272.304	3.37
272.683	3.14
273.062	3.82
273.441	4.02
273.82	3.6
274.199	3.75
274.578	3.48
274.957	3.71
275.336	3.3
275.715	3.69
276.093	4.32
276.472	4.2
276.851	3.93
277.229	3.56
277.608	3.09
277.986	3.51
278.365	3.89
278.743	4.32
279.122	3.33
279.5	3.27
279.878	3.34
280.257	3.64
280.635	3.5
281.013	3.4
281.391	3.65
281.769	3.72
282.147	3.26
282.525	4.11
282.903	3.51
283.281	3.68
283.659	3.75
284.037	3.31
284.415	3.46
284.792	3.96
285.17	3.78
285.548	3.28
285.925	3.74
286.303	3.73
286.68	3.67
287.058	3.63
287.435	3.71
287.813	3.69
288.19	3.36
288.567	3.75
288.945	3.67
289.322	4.1
289.699	4
290.076	3.85
290.453	3.33
290.83	4
291.207	3.8
291.584	3.87
291.961	3.71
292.338	3.77
292.715	3.68
293.092	3.65
293.469	3.69
293.845	4.18
294.222	4.35
294.599	3.43
294.975	3.45
295.352	3.8
295.728	3.43
296.105	3.56
296.481	3.79
296.858	3.61
297.234	3.93
297.61	3.22
297.986	3.85
298.363	3.72
298.739	3.69
299.115	3.54
299.491	3.78
299.867	3.6
300.243	3.46
300.619	4.11
300.995	4.24
301.371	3.51
301.746	4.08
302.122	3.51
302.498	3.84
302.874	3.58
303.249	3.79
303.625	3.4
304	3.72
304.376	3.76
304.751	3.3
305.127	3.74
305.502	4.08
305.878	4.09
306.253	4.13
306.628	3.5
307.003	3.8
307.378	4.06
307.754	4.13
308.129	3.72
308.504	4.11
308.879	4.34
309.254	4.12
309.629	4.08
310.003	3.98
310.378	4.18
310.753	3.37
311.128	3.57
311.502	3.55
311.877	4.23
312.252	3.66
312.626	3.92
313.001	3.9
313.375	3.79
313.75	3.85
314.124	3.53
314.498	3.64
314.873	4.28
315.247	3.81
315.621	3.67
315.995	3.95
316.369	3.89
316.743	3.19
317.117	3.34
317.491	3.75
317.865	3.94
318.239	4.7
318.613	4.02
318.987	3.06
319.361	3.67
319.734	3.8
320.108	3.92
320.482	4.07
320.855	3.46
321.229	4.12
321.602	3.98
321.976	4.11
322.349	4.35
322.723	4.23
323.096	4.1
323.469	3.76
323.843	3.74
324.216	4.29
324.589	4.06
324.962	3.77
325.335	4.34
325.708	4.18
326.081	4
326.454	4.05
326.827	3.91
327.2	3.47
327.573	4.02
327.945	4.52
328.318	3.75
328.691	4.18
329.063	4.05
329.436	4.05
329.809	4.38
330.181	3.72
330.553	3.09
330.926	3.71
331.298	3.62
331.671	4.21
332.043	3.6
332.415	3.79
332.787	3.49
333.159	3.75
333.532	3.5
333.904	3.51
334.276	3.51
334.648	3.78
335.02	3.75
335.391	4.21
335.763	3.44
336.135	3.86
336.507	4.22
336.879	3.65
337.25	4.33
337.622	4.04
337.993	3.65
338.365	4.08
338.736	4.67
339.108	4.46
339.479	3.71
339.851	4.34
340.222	4.56
340.593	3.6
340.964	4.23
341.336	3.7
341.707	4.67
342.078	4.11
342.449	3.72
342.82	3.63
343.191	3.87
343.562	4.02
343.933	4.57
344.303	4.14
344.674	4.15
345.045	3.98
345.416	4.07
345.786	4.56
346.157	4.08
346.527	4.16
346.898	4.14
347.268	3.86
347.639	4.29
348.009	3.99
348.38	3.78
348.75	3.78
349.12	4.03
349.49	4.23
349.861	4.18
350.231	3.67
350.601	3.43
350.971	3.55
351.341	3.91
351.711	4.07
352.081	3.81
352.45	3.65
352.82	3.81
353.19	4.23
353.56	4.52
353.929	3.82
354.299	3.95
354.669	4.08
355.038	4.09
355.408	3.59
355.777	3.85
356.147	3.78
356.516	4.39
356.885	4.02
357.254	3.82
357.624	4.1
357.993	4.15
358.362	3.9
358.731	4.14
359.1	4.07
359.469	3.94
359.838	4.18
360.207	4.1
360.576	4.37
360.945	3.87
361.314	3.79
361.682	4.17
362.051	4.3
362.42	4.51
362.788	3.98
363.157	4.22
363.525	4.42
363.894	4
364.262	3.79
364.631	4.02
364.999	4.18
365.367	3.9
365.735	4.17
366.104	4.01
366.472	4.37
366.84	3.76
367.208	4.15
367.576	4.55
367.944	3.9
368.312	4.01
368.68	4.12
369.048	4.11
369.416	4.1
369.783	4.09
370.151	4.25
370.519	4.09
370.886	4.38
371.254	4.28
371.621	4.08
371.989	4.24
372.356	4.51
372.724	4.13
373.091	4.51
373.458	3.95
373.826	4.14
374.193	4.39
374.56	4.33
374.927	4.17
375.294	4.3
375.661	4.06
376.028	3.91
376.395	4.26
376.762	3.85
377.129	3.97
377.496	4.31
377.863	4.52
378.229	3.88
378.596	4.16
378.963	4.41
379.329	4.5
379.696	4.22
380.062	3.98
380.429	4.08
380.795	4.04
381.161	4.14
381.528	4.35
381.894	4.44
382.26	4.16
382.626	4.18
382.993	4.32
383.359	4.4
383.725	4.34
384.091	4.17
384.457	4.35
384.823	3.94
385.188	4.18
385.554	4.19
385.92	4.37
386.286	4.27
386.651	4.23
387.017	4.53
387.383	4.33
387.748	4.33
388.114	4.28
388.479	4.39
388.845	4.18
389.21	4.26
389.575	4.3
389.94	3.83
390.306	4.12
390.671	4.18
391.036	4.28
391.401	4.63
391.766	4.24
392.131	4.32
392.496	4.13
392.861	4.41
393.226	4.45
393.591	4.26
393.956	4.18
394.32	4.26
394.685	4.34
395.05	4.46
395.414	4.48
395.779	4.16
396.143	4.14
396.508	4.44
396.872	4.37
397.236	4.51
397.601	4.22
397.965	4.66
398.329	4.46
398.694	4.2
399.058	4.34
399.422	4.6
399.786	4.56
400.15	4.22
400.514	4.29
400.878	4.41
401.242	4.29
401.605	4.41
401.969	4.47
402.333	4.28
402.697	4.25
403.06	4.53
403.424	4.33
403.787	4.17
404.151	4.4
404.514	4.2
404.878	4.61
405.241	4.33
405.604	4.42
405.968	4.3
406.331	4.39
406.694	4.31
407.057	4.45
407.42	4.37
407.783	4.35
408.146	4.22
408.509	4.48
408.872	4.29
409.235	4.4
409.598	4.55
409.961	4.49
410.323	4.41
410.686	4.48
411.049	4.4
411.411	4.56
411.774	4.22
412.136	4.33
412.499	4.11
412.861	4.32
413.223	4.31
413.586	4.59
413.948	4.46
414.31	4.26
414.672	4.48
415.035	4.27
415.397	4.67
415.759	4.52
416.121	4.71
416.483	4.28
416.845	4.19
417.206	4.45
417.568	4.38
417.93	4.35
418.292	4.61
418.653	4.5
419.015	4.37
419.377	4.39
419.738	4.49
420.1	4.31
420.461	4.53
420.822	4.43
421.184	4.47
421.545	4.42
421.906	4.46
422.267	4.35
422.629	4.44
422.99	4.39
423.351	4.44
423.712	4.39
424.073	4.38
424.434	4.49
424.795	4.42
425.155	4.47
425.516	4.44
425.877	4.46
426.238	4.48
426.598	4.49
426.959	4.42
427.32	4.49
427.68	4.53
428.041	4.44
428.401	4.54
428.761	4.53
429.122	4.53
429.482	4.54
429.842	4.72
430.202	4.51
430.563	4.59
430.923	4.69
431.283	4.67
431.643	4.64
432.003	4.62
432.363	4.68
432.722	4.48
433.082	4.67
433.442	4.53
433.802	4.44
434.161	4.7
434.521	4.76
434.881	4.48
435.24	4.47
435.6	4.56
435.959	4.53
436.319	4.68
436.678	4.52
437.037	4.84
437.396	4.7
437.756	4.53
438.115	4.65
438.474	4.68
438.833	4.86
439.192	4.73
439.551	4.74
439.91	4.57
440.269	4.76
440.628	4.57
440.987	4.56
441.345	4.71
441.704	4.66
442.063	4.69
442.421	4.59
442.78	4.61
443.138	4.58
443.497	4.62
443.855	4.62
444.214	4.84
444.572	4.72
444.93	4.56
445.288	4.77
445.647	4.92
446.005	4.77
446.363	4.69
446.721	4.66
447.079	4.68
447.437	4.74
447.795	4.76
448.153	4.71
448.51	4.68
448.868	4.65
449.226	4.73
449.584	4.57
449.941	4.67
450.299	4.69
450.656	4.63
451.014	4.79
451.371	4.59
451.729	4.72
452.086	4.8
452.443	4.67
452.801	4.71
453.158	4.82
453.515	4.85
453.872	4.86
454.229	4.89
454.586	4.77
454.943	4.79
455.3	4.75
455.657	4.84
456.014	4.93
456.371	4.91
456.727	5
457.084	4.85
457.441	4.97
457.797	4.81
458.154	4.87
458.51	4.81
458.867	5
459.223	4.96
459.58	4.98
459.936	5.04
460.292	4.88
460.648	4.9
461.005	4.92
461.361	4.83
461.717	4.85
462.073	4.94
462.429	4.72
462.785	4.92
463.141	4.81
463.496	4.92
463.852	4.91
464.208	5.03
464.564	5.11
464.919	4.95
465.275	4.92
465.631	4.7
465.986	4.79
466.342	5.07
466.697	4.91
467.052	5.01
467.408	5.06
467.763	4.95
468.118	4.83
468.473	4.97
468.829	5.03
469.184	5.08
469.539	4.96
469.894	5.02
470.249	5.02
470.603	5.1
470.958	5.15
471.313	5.12
471.668	5.08
472.023	5.05
472.377	5.01
472.732	5.1
473.086	5.05
473.441	5.21
473.795	5.11
474.15	5.18
474.504	5.25
474.859	5.18
475.213	5.13
475.567	5
475.921	5.2
476.275	5.11
476.63	4.98
476.984	5.4
477.338	5.12
477.692	4.95
478.045	4.97
478.399	5.18
478.753	5.21
479.107	5
479.461	5.05
479.814	4.98
480.168	5.13
480.521	5.11
480.875	5.11
481.228	5.27
481.582	5.23
481.935	5.23
482.289	5.3
482.642	5.07
482.995	5.31
483.348	5.09
483.701	5.12
484.055	5.15
484.408	5.13
484.761	5.09
485.114	5.01
485.466	4.99
485.819	4.94
486.172	4.9
486.525	4.89
486.878	4.91
487.23	4.95
487.583	4.99
487.936	5.15
488.288	5.15
488.641	5.09
488.993	5.02
489.345	5.03
489.698	4.99
490.05	5.02
490.402	5.01
490.754	5.08
491.107	5.12
491.459	5.04
491.811	5.22
492.163	5.16
492.515	5.17
492.866	5.22
493.218	5.17
493.57	5.12
493.922	5.13
494.274	5.1
494.625	5.16
494.977	5.17
495.328	5.38
495.68	5.31
496.031	5.22
496.383	5.43
496.734	5.29
497.086	5.53
497.437	5.55
497.788	5.46
498.139	5.41
498.49	5.3
498.842	5.28
499.193	5.43
499.544	5.35
499.894	5.35
500.245	5.46
500.596	5.42
500.947	5.39
501.298	5.45
501.648	5.49
501.999	5.51
502.35	5.62
502.7	5.49
503.051	5.32
503.401	5.49
503.752	5.47
504.102	5.58
504.452	5.59
504.803	5.62
505.153	5.52
505.503	5.4
505.853	5.65
506.203	5.57
506.553	5.54
506.903	5.51
507.253	5.56
507.603	5.54
507.953	5.47
508.303	5.52
508.652	5.68
509.002	5.78
509.352	5.71
509.701	5.57
510.051	5.63
510.4	5.6
510.75	5.56
511.099	5.55
511.449	5.48
511.798	5.62
512.147	5.58
512.496	5.57
512.846	5.67
513.195	5.55
513.544	5.79
513.893	5.74
514.242	5.56
514.591	5.67
514.939	5.78
515.288	5.66
515.637	5.68
515.986	5.73
516.334	5.6
516.683	5.76
517.032	5.74
517.38	5.81
517.729	5.78
518.077	5.56
518.426	5.89
518.774	5.71
519.122	5.71
519.47	5.78
519.819	5.77
520.167	5.74
520.515	5.7
520.863	5.8
521.211	5.7
521.559	5.74
521.907	5.82
522.255	5.78
522.602	5.78
522.95	5.92
523.298	5.72
523.645	5.96
523.993	5.88
524.341	5.99
524.688	5.94
525.036	5.96
525.383	5.82
525.73	6.03
526.078	6.1
526.425	6.03
526.772	5.97
527.119	5.97
527.466	5.91
527.814	5.91
528.161	5.95
528.508	5.92
528.854	5.89
529.201	5.9
529.548	5.91
529.895	5.88
530.242	5.8
530.588	5.82
530.935	5.86
531.282	5.81
531.628	5.75
531.975	5.9
532.321	5.91
532.667	6.01
533.014	5.98
533.36	6.11
533.706	6.1
534.052	6.04
534.399	6.08
534.745	6.08
535.091	6.15
535.437	6.08
535.783	6.09
536.129	6.04
536.474	6.05
536.82	6.05
537.166	6.13
537.512	6.13
537.857	6.33
538.203	6.19
538.549	6.21
538.894	6.22
539.239	6.22
539.585	6.21
539.93	6.31
540.276	6.38
540.621	6.31
540.966	6.34
541.311	6.49
541.656	6.41
542.001	6.5
542.346	6.34
542.691	6.42
543.036	6.31
543.381	6.33
543.726	6.23
544.071	6.23
544.415	6.25
544.76	6.31
545.105	6.35
545.449	6.4
545.794	6.38
546.138	6.39
546.483	6.46
546.827	6.59
547.171	6.5
547.516	6.63
547.86	6.53
548.204	6.6
548.548	6.51
548.892	6.62
549.236	6.62
549.58	6.58
549.924	6.71
550.268	6.73
550.612	6.65
550.956	6.69
551.3	6.87
551.643	6.81
551.987	6.91
552.33	6.8
552.674	6.81
553.017	6.82
553.361	6.91
553.704	6.83
554.048	6.89
554.391	6.9
554.734	6.9
555.077	6.67
555.42	6.76
555.764	6.7
556.107	7
556.45	7.03
556.793	6.85
557.135	7.15
557.478	7.01
557.821	7.29
558.164	7.15
558.507	7.05
558.849	7.12
559.192	7.02
559.534	7.04
559.877	7.39
560.219	7.12
560.562	7.51
560.904	7.23
561.246	7.08
561.589	7.21
561.931	7.38
562.273	7.53
562.615	7.32
562.957	7.09
563.299	7.3
563.641	7.16
563.983	7.31
564.325	7.2
564.667	7.4
565.008	7.46
565.35	7.52
565.692	7.5
566.033	7.33
566.375	7.51
566.716	7.5
567.058	7.57
567.399	7.46
567.741	7.54
568.082	7.48
568.423	7.35
568.764	7.45
569.105	7.52
569.447	7.38
569.788	7.34
570.129	7.57
570.47	7.64
570.811	7.68
571.151	7.63
571.492	7.62
571.833	7.67
572.174	7.9
572.514	7.8
572.855	7.74
573.195	7.68
573.536	7.9
573.876	7.57
574.217	7.74
574.557	7.77
574.898	7.73
575.238	7.79
575.578	7.87
575.918	7.84
576.258	7.84
576.598	7.78
576.938	7.87
577.278	7.97
577.618	7.87
577.958	7.99
578.298	7.96
578.638	7.94
578.977	7.99
579.317	8.14
579.657	8.23
579.996	7.96
580.336	8.23
580.675	8.04
581.014	8.11
581.354	8.09
581.693	8.35
582.032	8.25
582.372	8.48
582.711	8.29
583.05	8.45
583.389	8.39
583.728	8.31
584.067	8.28
584.406	8.42
584.745	8.52
585.083	8.32
585.422	8.48
585.761	8.25
586.1	8.17
586.438	8.31
586.777	8.43
587.115	8.49
587.454	8.79
587.792	8.69
588.13	8.48
588.469	8.61
588.807	8.6
589.145	8.84
589.483	8.48
589.821	8.76
590.159	8.54
590.497	8.56
590.835	8.69
591.173	8.67
591.511	8.64
591.849	8.72
592.187	8.87
592.524	8.94
592.862	8.95
593.2	9
593.537	9
593.875	9.11
594.212	9.06
594.55	8.78
594.887	8.94
595.224	9.09
595.561	9.15
595.899	8.96
596.236	8.82
596.573	9.16
596.91	9.04
597.247	9.17
597.584	9.15
597.921	9.12
598.258	9.07
598.594	9.12
598.931	9.19
599.268	9.15
599.604	9.08
599.941	9.29
600.277	9.13
600.614	9
600.95	9.29
601.287	9.49
601.623	9.39
601.959	9.35
602.296	9.32
602.632	9.4
602.968	9.03
603.304	9.36
603.64	9.47
603.976	9.31
604.312	9.33
604.648	9.66
604.984	9.48
605.319	9.64
605.655	9.59
605.991	9.54
606.326	9.55
606.662	9.58
606.998	9.67
607.333	9.58
607.668	9.81
608.004	9.72
608.339	9.7
608.674	9.62
609.01	9.77
609.345	9.77
609.68	9.89
610.015	10.07
610.35	9.73
610.685	9.85
611.02	9.91
611.355	10
611.689	10.03
612.024	9.86
612.359	9.98
612.694	10.13
613.028	9.99
613.363	10.13
613.697	10.14
614.032	10.06
614.366	10.03
614.7	9.96
615.035	10.33
615.369	10.36
615.703	10.15
616.037	9.8
616.371	10.41
616.705	10.44
617.039	10.28
617.373	10.36
617.707	10.7
618.041	10.39
618.375	10.4
618.709	10.43
619.042	10.28
619.376	10.77
619.71	10.4
620.043	10.51
620.377	10.33
620.71	10.41
621.043	10.61
621.377	10.32
621.71	10.99
622.043	10.29
622.376	10.33
622.709	10.48
623.043	10.34
623.376	11
623.709	10.79
624.041	10.8
624.374	10.59
624.707	10.9
625.04	11.24
625.373	11.08
625.705	11.1
626.038	11.02
626.37	10.59
626.703	10.82
627.035	11.52
627.368	10.85
627.7	11.05
628.032	10.97
628.365	10.91
628.697	11.19
629.029	11.28
629.361	11.34
629.693	10.99
630.025	11.28
630.357	11.29
630.689	11.29
631.021	11.15
631.353	11.44
631.684	11.34
632.016	11.88
632.348	11.17
632.679	11.43
633.011	11.44
633.342	11.62
633.674	11.74
634.005	11.33
634.336	11.77
634.668	11.59
634.999	11.53
635.33	11.4
635.661	11.71
635.992	11.98
636.323	11.93
636.654	11.99
636.985	11.81
637.316	11.58
637.647	12.19
637.977	11.71
638.308	11.63
638.639	11.53
638.969	11.67
639.3	11.76
639.63	11.72
639.961	12.18
640.291	11.91
640.622	12.11
640.952	11.92
641.282	12.06
641.612	12.11
641.943	12.11
642.273	12.28
642.603	12.09
642.933	12.37
643.263	11.87
643.592	12.53
643.922	12.12
644.252	12.44
644.582	12.49
644.911	12.31
645.241	12.03
645.571	12.52
645.9	12.41
646.23	12.69
646.559	11.73
646.888	12.75
647.218	12.5
647.547	12.27
647.876	11.9
648.205	12.66
648.534	12.91
648.863	12.62
649.192	13.11
649.521	12.39
649.85	12.56
650.179	12.49
650.508	12.66
650.837	12.86
651.165	13.08
651.494	12.33
651.822	12.95
652.151	12.68
652.479	12.9
652.808	12.81
653.136	13.19
653.465	12.66
653.793	12.53
654.121	12.61
654.449	12.57
654.777	13.01
655.105	13.05
655.433	13.34
655.761	13.33
656.089	13.26
656.417	12.85
656.745	13.15
657.073	12.39
657.4	13.39
657.728	13.54
658.056	13.79
658.383	13.17
658.711	12.95
659.038	13.44
659.365	13.26
659.693	13.49
660.02	13.55
660.347	13.56
660.674	13.24
661.001	13.92
661.329	13.53
661.656	14.08
661.982	13.31
662.309	13.47
662.636	13.66
662.963	13.6
663.29	13.51
663.616	13.39
663.943	13.52
664.27	13.62
664.596	13.93
664.923	13.97
665.249	14.28
665.576	14.3
665.902	13.44
666.228	14.02
666.554	13.24
666.881	13.54
667.207	13.68
667.533	13.62
667.859	14.17
668.185	14.18
668.511	13.77
668.837	14.56
669.162	13.73
669.488	13.96
669.814	14.38
670.139	13.95
670.465	13.89
670.791	13.88
671.116	13.77
671.442	14.34
671.767	14.15
672.092	13.6
672.418	14.52
672.743	14.42
673.068	13.64
673.393	14.13
673.718	14.23
674.043	14.32
674.368	14.58
674.693	14.49
675.018	14.41
675.343	14.68
675.667	14.47
675.992	14.38
676.317	15.17
676.641	14.32
676.966	15.19
677.29	14.7
677.615	14.9
677.939	14.22
678.264	14.73
678.588	13.96
678.912	15.13
679.236	14.36
679.56	14.84
679.885	14.79
680.209	14.92
680.532	14.51
680.856	14.85
681.18	15.11
681.504	15.19
681.828	15.43
682.152	15.49
682.475	15.3
682.799	15.58
683.122	15.51
683.446	15.2
683.769	14.56
684.093	15.77
684.416	15.86
684.739	15.52
685.062	14.89
685.386	15.19
685.709	15.55
686.032	15.46
686.355	15.52
686.678	15.08
687.001	15.37
687.324	16.03
687.646	15.92
