Data from 97276_crown_Reflection__3__119.txt Node

Date: Fri Sep 23 20:36:14 CDT 2022
User: ToomeyLab
Spectrometer: FLMS14357
Trigger mode: 0
Integration Time (sec): 1.000000E-2
Scans to average: 100
Electric dark correction enabled: true
Nonlinearity correction enabled: false
Boxcar width: 0
XAxis mode: Wavelengths
Number of Pixels in Spectrum: 2048
>>>>>Begin Spectral Data<<<<<
189.047	245.44
189.435	245.44
189.823	245.44
190.211	-25.25
190.599	-330.16
190.987	288.77
191.375	-37.64
191.763	61.37
192.151	-47.34
192.538	78.39
192.926	63.54
193.314	35.8
193.702	128.39
194.089	-228.81
194.477	72.47
194.864	-63.44
195.252	37.8
195.639	240.72
196.027	16.98
196.414	-84.66
196.801	128.33
197.189	-203.04
197.576	-33.13
197.963	-9.38
198.351	27.06
198.738	-34.98
199.125	-15.31
199.512	-8.55
199.899	-42.12
200.286	-25.38
200.673	25.59
201.06	-23.58
201.447	33.95
201.833	13.9
202.22	0.28
202.607	3.17
202.994	12.01
203.38	-46.01
203.767	-66.87
204.154	21.27
204.54	37.26
204.927	23.2
205.313	3.44
205.699	-2.65
206.086	-3.6
206.472	3.07
206.858	3.65
207.245	-22.56
207.631	11.69
208.017	-7.39
208.403	15.29
208.789	31.57
209.175	16.81
209.561	-0.68
209.947	-24.89
210.333	-46.57
210.719	-24.05
211.105	-2.51
211.491	19.92
211.876	20.94
212.262	-9.33
212.648	-5.33
213.034	-34.88
213.419	-4.98
213.805	17.6
214.19	0.3
214.576	-13.91
214.961	19.67
215.346	-26.5
215.732	18.57
216.117	-10.51
216.502	-2.17
216.888	11.56
217.273	-0.56
217.658	-35.91
218.043	11.59
218.428	15.18
218.813	28.33
219.198	12.01
219.583	10.5
219.968	4.56
220.353	4.46
220.738	-7.09
221.122	1.17
221.507	1.43
221.892	-9.78
222.276	-17.59
222.661	-7.84
223.046	-8.46
223.43	9.73
223.815	6.04
224.199	1.3
224.583	4.44
224.968	-10.89
225.352	-2.76
225.736	-5.61
226.121	2.68
226.505	4.19
226.889	4.97
227.273	-3.38
227.657	-2.72
228.041	1.78
228.425	6.24
228.809	3.6
229.193	2.38
229.577	3.84
229.961	3.94
230.344	3.69
230.728	3.6
231.112	3.7
231.495	2.64
231.879	3.66
232.263	3.83
232.646	4.58
233.03	4.83
233.413	3.56
233.797	3.4
234.18	5.03
234.563	-0.74
234.946	6.92
235.33	1.76
235.713	3.68
236.096	0.85
236.479	3.21
236.862	3.15
237.245	4.11
237.628	4.98
238.011	4.29
238.394	3.87
238.777	3.12
239.16	3.85
239.543	3.88
239.925	3.51
240.308	5.08
240.691	2.43
241.073	2.65
241.456	3.1
241.838	4.48
242.221	4.21
242.603	4.9
242.986	2.99
243.368	3.91
243.75	4.24
244.133	3.96
244.515	3.92
244.897	4.02
245.279	3.74
245.661	4.34
246.043	3.64
246.425	3.5
246.807	3.4
247.189	3.88
247.571	3.34
247.953	3.81
248.335	4.22
248.717	4.09
249.098	4.09
249.48	3.87
249.862	3.68
250.243	4.3
250.625	4.05
251.006	4.67
251.388	4.54
251.769	4.28
252.151	2.96
252.532	3.69
252.913	3.91
253.295	3.94
253.676	3.75
254.057	3.95
254.438	4.54
254.819	4.32
255.2	4.09
255.581	3.76
255.962	3.18
256.343	3.55
256.724	3.25
257.105	3.37
257.486	2.48
257.867	4.62
258.247	3.75
258.628	3.02
259.009	3.25
259.389	3.77
259.77	3.06
260.15	3.59
260.531	3.71
260.911	3.83
261.292	3.81
261.672	3.88
262.052	3.76
262.432	3.72
262.813	3.66
263.193	3.57
263.573	4.59
263.953	3.8
264.333	3.57
264.713	4.06
265.093	4.06
265.473	3.71
265.853	2.72
266.233	3.35
266.612	3.69
266.992	4.26
267.372	3.34
267.752	3.46
268.131	3.98
268.511	3.79
268.89	3.85
269.27	3.22
269.649	3.92
270.029	3.83
270.408	3.93
270.787	3.37
271.167	3.33
271.546	3.69
271.925	3.92
272.304	3.54
272.683	3.66
273.062	3.46
273.441	3.36
273.82	3.94
274.199	3.58
274.578	3.63
274.957	3.64
275.336	4.38
275.715	3.4
276.093	3.79
276.472	4.58
276.851	3.72
277.229	3.56
277.608	3.39
277.986	3.5
278.365	3.48
278.743	4.02
279.122	3.15
279.5	3.71
279.878	3.55
280.257	3.43
280.635	3.24
281.013	3.25
281.391	3.35
281.769	3.51
282.147	3.5
282.525	3.2
282.903	3.18
283.281	3.63
283.659	3.57
284.037	3.19
284.415	3.13
284.792	3.33
285.17	3.54
285.548	3.31
285.925	3.95
286.303	3.47
286.68	3.51
287.058	3.47
287.435	3.09
287.813	3.75
288.19	3.63
288.567	3.35
288.945	3.6
289.322	3.43
289.699	3.57
290.076	3.49
290.453	3.26
290.83	3.67
291.207	3.32
291.584	3.81
291.961	3.18
292.338	3.27
292.715	3.14
293.092	3.15
293.469	3.22
293.845	3.87
294.222	3.67
294.599	3.47
294.975	3.67
295.352	3.17
295.728	3.37
296.105	3.25
296.481	3.29
296.858	3.39
297.234	3.21
297.61	3.2
297.986	3.41
298.363	3.4
298.739	3.56
299.115	3.18
299.491	3.26
299.867	3.34
300.243	3.46
300.619	3.71
300.995	3.89
301.371	2.54
301.746	3.48
302.122	2.93
302.498	3.44
302.874	3.04
303.249	3.63
303.625	3.07
304	3.47
304.376	2.88
304.751	3.41
305.127	3.13
305.502	3.35
305.878	3.51
306.253	3.14
306.628	3.31
307.003	3.21
307.378	3.3
307.754	3.46
308.129	3.09
308.504	3.05
308.879	3.51
309.254	3.69
309.629	3.69
310.003	3.37
310.378	3.26
310.753	3.06
311.128	3.12
311.502	3.28
311.877	3.35
312.252	2.99
312.626	3.55
313.001	3.31
313.375	3.54
313.75	3.25
314.124	3.19
314.498	3.2
314.873	3.19
315.247	3.01
315.621	3.53
315.995	3.55
316.369	3
316.743	3.19
317.117	2.7
317.491	3.01
317.865	3.5
318.239	3.49
318.613	2.81
318.987	3.02
319.361	3.14
319.734	2.8
320.108	2.7
320.482	3.3
320.855	3.28
321.229	3.37
321.602	3.24
321.976	3.5
322.349	3.39
322.723	3.12
323.096	3.22
323.469	3.11
323.843	2.86
324.216	3.96
324.589	3.37
324.962	3.26
325.335	2.71
325.708	3.03
326.081	3.32
326.454	3.07
326.827	2.98
327.2	3.11
327.573	3.35
327.945	3.58
328.318	2.75
328.691	3.37
329.063	3.23
329.436	3.03
329.809	3.74
330.181	3.04
330.553	2.69
330.926	3.31
331.298	3.18
331.671	3.1
332.043	3.33
332.415	3.27
332.787	3.54
333.159	3.44
333.532	2.85
333.904	2.81
334.276	2.86
334.648	3.38
335.02	2.9
335.391	3.46
335.763	3.28
336.135	3.39
336.507	3.47
336.879	3.56
337.25	3.44
337.622	3.45
337.993	3.42
338.365	3.28
338.736	3.52
339.108	3.43
339.479	2.74
339.851	3.52
340.222	3.77
340.593	3.18
340.964	3.36
341.336	3.03
341.707	3.63
342.078	3.42
342.449	3.28
342.82	3.05
343.191	3.27
343.562	3.26
343.933	3.85
344.303	3.37
344.674	3.06
345.045	3.82
345.416	3.34
345.786	3.66
346.157	3.3
346.527	3.44
346.898	3.55
347.268	3.14
347.639	3.18
348.009	3.45
348.38	3.07
348.75	3.81
349.12	3.65
349.49	3.48
349.861	3.58
350.231	3.17
350.601	3.33
350.971	3.4
351.341	3.26
351.711	3.37
352.081	3.27
352.45	2.88
352.82	3.1
353.19	3.82
353.56	3.77
353.929	3.15
354.299	3.04
354.669	3.4
355.038	3.46
355.408	3.18
355.777	3.44
356.147	3.03
356.516	3.36
356.885	3.2
357.254	2.97
357.624	3.18
357.993	3.55
358.362	3.44
358.731	3.32
359.1	3.54
359.469	3.35
359.838	3.16
360.207	3.32
360.576	3.52
360.945	3.24
361.314	3.44
361.682	3.5
362.051	3.45
362.42	3.67
362.788	3.17
363.157	3.57
363.525	3.66
363.894	3.52
364.262	3.29
364.631	3.34
364.999	3.5
365.367	3.45
365.735	3.37
366.104	3.47
366.472	3.61
366.84	3.38
367.208	3.54
367.576	3.58
367.944	3.33
368.312	3.66
368.68	3.36
369.048	3
369.416	3.48
369.783	3.47
370.151	3.72
370.519	3.5
370.886	3.41
371.254	3.41
371.621	3.36
371.989	3.52
372.356	3.76
372.724	3.17
373.091	3.66
373.458	3.46
373.826	3.47
374.193	3.55
374.56	3.38
374.927	3.78
375.294	4.02
375.661	3.62
376.028	3.51
376.395	3.48
376.762	3.49
377.129	3.24
377.496	3.68
377.863	3.77
378.229	3.47
378.596	3.27
378.963	3.99
379.329	3.71
379.696	3.49
380.062	3.56
380.429	3.27
380.795	3.32
381.161	3.64
381.528	3.43
381.894	3.59
382.26	3.43
382.626	3.49
382.993	3.77
383.359	3.66
383.725	4.17
384.091	3.54
384.457	3.85
384.823	3.5
385.188	3.81
385.554	4.02
385.92	3.73
386.286	3.41
386.651	3.56
387.017	4
387.383	3.76
387.748	3.77
388.114	3.79
388.479	3.68
388.845	3.77
389.21	3.77
389.575	3.49
389.94	3.73
390.306	3.5
390.671	3.73
391.036	3.76
391.401	3.73
391.766	3.53
392.131	3.58
392.496	3.56
392.861	3.43
393.226	3.61
393.591	3.75
393.956	3.81
394.32	3.92
394.685	3.5
395.05	3.69
395.414	3.64
395.779	3.66
396.143	3.73
396.508	3.62
396.872	3.51
397.236	3.76
397.601	3.77
397.965	3.84
398.329	3.98
398.694	3.52
399.058	3.78
399.422	3.94
399.786	3.94
400.15	3.88
400.514	3.73
400.878	3.92
401.242	3.73
401.605	3.99
401.969	3.9
402.333	3.74
402.697	3.45
403.06	3.96
403.424	3.72
403.787	3.96
404.151	3.82
404.514	3.62
404.878	3.72
405.241	3.76
405.604	3.79
405.968	3.78
406.331	3.85
406.694	3.99
407.057	3.85
407.42	3.89
407.783	3.86
408.146	3.9
408.509	3.78
408.872	3.81
409.235	3.88
409.598	3.83
409.961	3.89
410.323	3.84
410.686	3.89
411.049	3.99
411.411	3.87
411.774	3.72
412.136	3.78
412.499	3.57
412.861	3.92
413.223	3.86
413.586	3.78
413.948	3.81
414.31	3.89
414.672	3.98
415.035	3.72
415.397	3.97
415.759	4.05
416.121	4.04
416.483	3.95
416.845	3.68
417.206	3.83
417.568	3.96
417.93	3.7
418.292	4.14
418.653	3.98
419.015	4
419.377	3.85
419.738	3.86
420.1	3.86
420.461	4.02
420.822	3.98
421.184	4.06
421.545	3.95
421.906	3.95
422.267	3.83
422.629	3.85
422.99	3.89
423.351	3.94
423.712	3.93
424.073	3.97
424.434	3.92
424.795	3.95
425.155	3.99
425.516	3.98
425.877	3.92
426.238	3.99
426.598	3.93
426.959	3.9
427.32	4.11
427.68	4.02
428.041	4.01
428.401	4.07
428.761	4.02
429.122	4.09
429.482	4.03
429.842	4.21
430.202	4.14
430.563	4.19
430.923	4.15
431.283	4.25
431.643	4.1
432.003	4.03
432.363	4.29
432.722	4.11
433.082	3.92
433.442	3.86
433.802	4.14
434.161	4.02
434.521	4.1
434.881	3.99
435.24	4.05
435.6	4.04
435.959	4.19
436.319	4.17
436.678	4.06
437.037	4.23
437.396	4.14
437.756	4.14
438.115	3.92
438.474	4.18
438.833	4.2
439.192	4.36
439.551	4.23
439.91	4.15
440.269	4.2
440.628	4.15
440.987	4.11
441.345	4.19
441.704	4.13
442.063	4.25
442.421	4.09
442.78	4.06
443.138	4.16
443.497	4.2
443.855	4.13
444.214	4.29
444.572	4.18
444.93	4.05
445.288	4.17
445.647	4.28
446.005	4.24
446.363	4.19
446.721	4.04
447.079	4.21
447.437	4.3
447.795	4.27
448.153	4.08
448.51	4.13
448.868	4.22
449.226	4.28
449.584	4.17
449.941	4.29
450.299	4.33
450.656	4.24
451.014	4.36
451.371	4.13
451.729	4.21
452.086	4.33
452.443	4.35
452.801	4.32
453.158	4.48
453.515	4.37
453.872	4.31
454.229	4.34
454.586	4.16
454.943	4.37
455.3	4.28
455.657	4.33
456.014	4.44
456.371	4.31
456.727	4.36
457.084	4.22
457.441	4.41
457.797	4.31
458.154	4.3
458.51	4.39
458.867	4.41
459.223	4.29
459.58	4.38
459.936	4.32
460.292	4.3
460.648	4.36
461.005	4.33
461.361	4.28
461.717	4.34
462.073	4.39
462.429	4.3
462.785	4.45
463.141	4.4
463.496	4.38
463.852	4.52
464.208	4.38
464.564	4.55
464.919	4.58
465.275	4.43
465.631	4.26
465.986	4.35
466.342	4.44
466.697	4.49
467.052	4.56
467.408	4.47
467.763	4.51
468.118	4.41
468.473	4.52
468.829	4.46
469.184	4.54
469.539	4.54
469.894	4.65
470.249	4.56
470.603	4.49
470.958	4.54
471.313	4.57
471.668	4.68
472.023	4.46
472.377	4.43
472.732	4.65
473.086	4.67
473.441	4.62
473.795	4.76
474.15	4.52
474.504	4.57
474.859	4.49
475.213	4.7
475.567	4.43
475.921	4.6
476.275	4.63
476.63	4.42
476.984	4.78
477.338	4.5
477.692	4.47
478.045	4.42
478.399	4.5
478.753	4.64
479.107	4.48
479.461	4.64
479.814	4.48
480.168	4.55
480.521	4.61
480.875	4.65
481.228	4.65
481.582	4.54
481.935	4.63
482.289	4.53
482.642	4.47
482.995	4.68
483.348	4.39
483.701	4.59
484.055	4.52
484.408	4.46
484.761	4.43
485.114	4.33
485.466	4.28
485.819	4.25
486.172	4.34
486.525	4.42
486.878	4.47
487.23	4.53
487.583	4.49
487.936	4.58
488.288	4.5
488.641	4.48
488.993	4.45
489.345	4.44
489.698	4.4
490.05	4.45
490.402	4.46
490.754	4.55
491.107	4.54
491.459	4.54
491.811	4.58
492.163	4.67
492.515	4.56
492.866	4.52
493.218	4.41
493.57	4.41
493.922	4.5
494.274	4.57
494.625	4.69
494.977	4.61
495.328	4.75
495.68	4.73
496.031	4.73
496.383	4.77
496.734	4.8
497.086	4.84
497.437	4.88
497.788	4.76
498.139	4.83
498.49	4.63
498.842	4.66
499.193	4.8
499.544	4.63
499.894	4.73
500.245	4.78
500.596	4.83
500.947	4.64
501.298	4.92
501.648	4.96
501.999	4.8
502.35	4.95
502.7	4.82
503.051	4.86
503.401	4.78
503.752	4.78
504.102	4.86
504.452	4.91
504.803	4.76
505.153	4.82
505.503	4.71
505.853	4.97
506.203	4.76
506.553	4.93
506.903	4.83
507.253	4.85
507.603	4.86
507.953	4.87
508.303	4.99
508.652	4.7
509.002	4.81
509.352	4.9
509.701	4.75
510.051	4.84
510.4	4.87
510.75	4.8
511.099	4.87
511.449	4.78
511.798	4.83
512.147	4.8
512.496	4.78
512.846	4.82
513.195	4.83
513.544	4.93
513.893	4.85
514.242	4.81
514.591	4.9
514.939	4.88
515.288	4.93
515.637	4.86
515.986	4.88
516.334	4.8
516.683	4.87
517.032	4.86
517.38	4.89
517.729	4.91
518.077	4.74
518.426	4.94
518.774	4.92
519.122	4.76
519.47	4.82
519.819	4.88
520.167	4.79
520.515	4.8
520.863	4.86
521.211	4.79
521.559	4.85
521.907	4.92
522.255	4.91
522.602	4.87
522.95	4.91
523.298	4.86
523.645	4.89
523.993	4.89
524.341	4.94
524.688	4.95
525.036	4.9
525.383	4.81
525.73	5.01
526.078	5.02
526.425	4.93
526.772	4.92
527.119	4.84
527.466	4.71
527.814	4.85
528.161	4.94
528.508	4.96
528.854	4.9
529.201	4.88
529.548	4.89
529.895	4.7
530.242	4.64
530.588	4.62
530.935	4.74
531.282	4.77
531.628	4.82
531.975	4.83
532.321	4.93
532.667	4.92
533.014	4.85
533.36	5
533.706	4.88
534.052	4.94
534.399	4.82
534.745	4.82
535.091	4.84
535.437	4.87
535.783	4.86
536.129	4.89
536.474	4.97
536.82	4.9
537.166	5.06
537.512	4.93
537.857	4.89
538.203	4.87
538.549	4.79
538.894	4.94
539.239	4.91
539.585	5
539.93	4.94
540.276	5.19
540.621	5.02
540.966	4.99
541.311	5.19
541.656	4.91
542.001	5.07
542.346	4.98
542.691	4.91
543.036	4.87
543.381	4.88
543.726	4.89
544.071	4.92
544.415	5.03
544.76	4.92
545.105	4.94
545.449	5.01
545.794	5.09
546.138	5.06
546.483	4.98
546.827	5.18
547.171	5.1
547.516	5.01
547.86	5.07
548.204	5.18
548.548	4.93
548.892	4.92
549.236	5.02
549.58	5.04
549.924	5.19
550.268	5.2
550.612	5.12
550.956	5.22
551.3	5.18
551.643	5.12
551.987	5.24
552.33	5.09
552.674	5.23
553.017	5.16
553.361	5.25
553.704	5.14
554.048	5.15
554.391	5.1
554.734	5.12
555.077	5.11
555.42	5.03
555.764	5.14
556.107	5.17
556.45	5.2
556.793	5.16
557.135	5.15
557.478	5.47
557.821	5.37
558.164	5.11
558.507	5.15
558.849	5.36
559.192	5.39
559.534	5.18
559.877	5.26
560.219	5.27
560.562	5.42
560.904	5.23
561.246	5.14
561.589	5.24
561.931	5.32
562.273	5.41
562.615	5.18
562.957	5.03
563.299	5.2
563.641	5.34
563.983	5.18
564.325	5.29
564.667	5.37
565.008	5.22
565.35	5.24
565.692	5.24
566.033	5.21
566.375	5.26
566.716	5.22
567.058	5.15
567.399	5.11
567.741	5.32
568.082	5.2
568.423	5.1
568.764	5.16
569.105	5.35
569.447	5.11
569.788	5.27
570.129	5.18
570.47	5.26
570.811	5.34
571.151	5.46
571.492	5.29
571.833	5.26
572.174	5.22
572.514	5.39
572.855	5.33
573.195	5.36
573.536	5.25
573.876	5.05
574.217	5.2
574.557	5.18
574.898	5.2
575.238	5.22
575.578	5.31
575.918	5.24
576.258	5.18
576.598	5.28
576.938	5.43
577.278	5.48
577.618	5.16
577.958	5.36
578.298	5.3
578.638	5.34
578.977	5.35
579.317	5.24
579.657	5.53
579.996	5.26
580.336	5.28
580.675	5.4
581.014	5.4
581.354	5.52
581.693	5.27
582.032	5.51
582.372	5.46
582.711	5.39
583.05	5.59
583.389	5.63
583.728	5.57
584.067	5.35
584.406	5.47
584.745	5.49
585.083	5.3
585.422	5.36
585.761	5.42
586.1	5.33
586.438	5.25
586.777	5.37
587.115	5.34
587.454	5.41
587.792	5.5
588.13	5.45
588.469	5.23
588.807	5.36
589.145	5.36
589.483	5.52
589.821	5.55
590.159	5.64
590.497	5.35
590.835	5.18
591.173	5.55
591.511	5.37
591.849	5.15
592.187	5.25
592.524	5.63
592.862	5.55
593.2	5.67
593.537	5.44
593.875	5.4
594.212	5.68
594.55	5.14
594.887	5.51
595.224	5.31
595.561	5.32
595.899	5.19
596.236	5.12
596.573	5.44
596.91	5.58
597.247	5.51
597.584	5.64
597.921	5.46
598.258	5.41
598.594	5.45
598.931	5.46
599.268	5.39
599.604	5.54
599.941	5.6
600.277	5.56
600.614	5.42
600.95	5.5
601.287	5.6
601.623	5.44
601.959	5.52
602.296	5.32
602.632	5.45
602.968	5.38
603.304	5.24
603.64	5.66
603.976	5.54
604.312	5.49
604.648	5.55
604.984	5.36
605.319	5.56
605.655	5.56
605.991	5.38
606.326	5.56
606.662	5.47
606.998	5.58
607.333	5.41
607.668	5.47
608.004	5.58
608.339	5.37
608.674	5.62
609.01	5.64
609.345	5.72
609.68	5.54
610.015	5.62
610.35	5.6
610.685	5.23
611.02	5.42
611.355	5.45
611.689	5.55
612.024	5.57
612.359	5.43
612.694	5.8
613.028	5.47
613.363	5.54
613.697	5.35
614.032	5.6
614.366	5.73
614.7	5.53
615.035	5.8
615.369	5.49
615.703	5.56
616.037	5.53
616.371	5.71
616.705	5.65
617.039	5.42
617.373	5.8
617.707	5.93
618.041	5.79
618.375	5.85
618.709	5.6
619.042	5.6
619.376	5.86
619.71	5.68
620.043	5.29
620.377	5.63
620.71	5.73
621.043	5.69
621.377	4.99
621.71	5.88
622.043	5.72
622.376	5.48
622.709	5.54
623.043	5.35
623.376	5.55
623.709	5.74
624.041	5.69
624.374	5.41
624.707	5.62
625.04	6.12
625.373	5.61
625.705	5.63
626.038	5.61
626.37	5.45
626.703	5.87
627.035	5.75
627.368	5.84
627.7	5.42
628.032	5.57
628.365	5.46
628.697	5.4
629.029	5.76
629.361	5.72
629.693	5.74
630.025	5.78
630.357	5.87
630.689	5.7
631.021	5.78
631.353	5.64
631.684	5.71
632.016	6.1
632.348	5.67
632.679	5.91
633.011	5.82
633.342	5.82
633.674	5.78
634.005	5.76
634.336	6.18
634.668	5.89
634.999	5.59
635.33	5.82
635.661	5.87
635.992	5.97
636.323	5.95
636.654	5.95
636.985	5.85
637.316	5.56
637.647	5.77
637.977	5.49
638.308	5.73
638.639	5.77
638.969	5.83
639.3	5.59
639.63	5.47
639.961	5.84
640.291	5.64
640.622	5.78
640.952	5.45
641.282	6.09
641.612	5.74
641.943	5.83
642.273	5.98
642.603	6.16
642.933	5.81
643.263	5.89
643.592	6.07
643.922	5.57
644.252	6.12
644.582	5.82
644.911	5.71
645.241	5.59
645.571	6.12
645.9	5.7
646.23	6.17
646.559	5.69
646.888	6.14
647.218	5.93
647.547	5.7
647.876	5.69
648.205	5.58
648.534	5.89
648.863	5.99
649.192	6.03
649.521	5.7
649.85	5.17
650.179	5.61
650.508	6.3
650.837	5.9
651.165	6.02
651.494	5.85
651.822	6.32
652.151	5.55
652.479	6.13
652.808	5.85
653.136	5.4
653.465	5.41
653.793	5.8
654.121	5.79
654.449	5.68
654.777	6.28
655.105	5.9
655.433	5.94
655.761	6.13
656.089	6.5
656.417	6.16
656.745	6.13
657.073	5.52
657.4	5.57
657.728	5.9
658.056	6.31
658.383	6.14
658.711	5.81
659.038	6.32
659.365	5.73
659.693	6.29
660.02	6.19
660.347	6.19
660.674	5.71
661.001	6.09
661.329	5.74
661.656	6.53
661.982	6.07
662.309	6.08
662.636	5.95
662.963	6.01
663.29	6.49
663.616	6
663.943	6.28
664.27	5.79
664.596	5.95
664.923	6.31
665.249	6.41
665.576	6.48
665.902	5.76
666.228	5.91
666.554	5.97
666.881	6.15
667.207	6.1
667.533	5.8
667.859	5.71
668.185	6.55
668.511	6.18
668.837	6.62
669.162	6.72
669.488	5.76
669.814	6.44
670.139	6.26
670.465	5.56
670.791	6.1
671.116	6.01
671.442	6.43
671.767	6.28
672.092	5.83
672.418	6.33
672.743	6.54
673.068	5.61
673.393	5.98
673.718	6.22
674.043	6.26
674.368	5.89
674.693	6.04
675.018	6.45
675.343	6.57
675.667	5.95
675.992	6.28
676.317	5.86
676.641	6.38
676.966	6.16
677.29	6.14
677.615	6.25
677.939	6.09
678.264	5.8
678.588	6.27
678.912	6.37
679.236	6.44
679.56	6.35
679.885	6.74
680.209	6.36
680.532	6.21
680.856	6.54
681.18	6.18
681.504	6.68
681.828	6.7
682.152	6.73
682.475	6.55
682.799	6.57
683.122	5.96
683.446	6.43
683.769	5.47
684.093	6.24
684.416	6.65
684.739	6.6
685.062	6.4
685.386	6.31
685.709	6.97
686.032	6.69
686.355	6.49
686.678	6.37
687.001	6.08
687.324	7.16
687.646	6.7
687.969	6.24
688.292	5.73
688.614	6.49
688.937	6.24
689.26	6.27
689.582	6.83
689.904	6.54
690.227	6.07
690.549	6.77
690.871	6.69
691.194	6.29
691.516	6.39
691.838	6.05
692.16	6.39
