Data from 97276_crown_Reflection__1__117.txt Node

Date: Fri Sep 23 20:35:48 CDT 2022
User: ToomeyLab
Spectrometer: FLMS14357
Trigger mode: 0
Integration Time (sec): 1.000000E-2
Scans to average: 100
Electric dark correction enabled: true
Nonlinearity correction enabled: false
Boxcar width: 0
XAxis mode: Wavelengths
Number of Pixels in Spectrum: 2048
>>>>>Begin Spectral Data<<<<<
189.047	-12.73
189.435	-12.73
189.823	-12.73
190.211	-14.08
190.599	185.36
190.987	102.55
191.375	-59.04
191.763	71.71
192.151	-81.69
192.538	-7.29
192.926	41.11
193.314	12.89
193.702	106.89
194.089	-17.35
194.477	28.43
194.864	-309.4
195.252	83.19
195.639	152.37
196.027	54.18
196.414	214.36
196.801	-6.2
197.189	-371.91
197.576	74.94
197.963	-36.82
198.351	44.76
198.738	-18.79
199.125	5.87
199.512	-4.66
199.899	29.42
200.286	-22.85
200.673	5.89
201.06	35.31
201.447	8.23
201.833	9.19
202.22	-14.26
202.607	-4.78
202.994	-20.59
203.38	-12.38
203.767	-150.19
204.154	-10.98
204.54	-4.25
204.927	5.72
205.313	2.76
205.699	-78.66
206.086	-10.53
206.472	26.26
206.858	39.64
207.245	36.4
207.631	-4.01
208.017	16.96
208.403	6.48
208.789	4.69
209.175	35.16
209.561	16.09
209.947	20.93
210.333	6.63
210.719	2.25
211.105	13.15
211.491	-3.69
211.876	33.29
212.262	-14.69
212.648	-22.3
213.034	-33.2
213.419	6.44
213.805	26.05
214.19	-16.72
214.576	3.01
214.961	25.43
215.346	-27.23
215.732	16.55
216.117	-15.45
216.502	2.15
216.888	22.35
217.273	-3.52
217.658	-10.83
218.043	3.4
218.428	8.92
218.813	-9.82
219.198	-4.55
219.583	-4.27
219.968	15.28
220.353	-5.89
220.738	8.13
221.122	19.71
221.507	15.67
221.892	-4.98
222.276	-15.06
222.661	-6.99
223.046	8.74
223.43	-14
223.815	9.27
224.199	-4.2
224.583	1.27
224.968	-2.01
225.352	1.51
225.736	2.12
226.121	8.13
226.505	2.4
226.889	6.5
227.273	3.73
227.657	-0.4
228.041	3.37
228.425	6.43
228.809	5.5
229.193	3.97
229.577	7
229.961	6.15
230.344	4.26
230.728	5.34
231.112	5.34
231.495	4.81
231.879	3.47
232.263	6.18
232.646	5.87
233.03	5.33
233.413	6.15
233.797	4.29
234.18	4.98
234.563	5.62
234.946	6.79
235.33	4.88
235.713	6.6
236.096	5.01
236.479	5.04
236.862	6.36
237.245	5
237.628	7.44
238.011	5.52
238.394	5.11
238.777	6.48
239.16	5.14
239.543	4.42
239.925	4.81
240.308	5.59
240.691	4.51
241.073	4.81
241.456	3.65
241.838	6.37
242.221	5.72
242.603	6.27
242.986	4.91
243.368	5.04
243.75	5.42
244.133	5.61
244.515	5.04
244.897	5.34
245.279	5.67
245.661	5.93
246.043	6.23
246.425	4.42
246.807	4.69
247.189	6.18
247.571	5.23
247.953	5.26
248.335	5.4
248.717	5.39
249.098	5.26
249.48	5.19
249.862	5.28
250.243	5.54
250.625	5.24
251.006	5.14
251.388	4.71
251.769	4.71
252.151	3.72
252.532	5.42
252.913	4.68
253.295	4.9
253.676	5.18
254.057	4.9
254.438	4.76
254.819	5.57
255.2	4.92
255.581	6.21
255.962	4.39
256.343	6.14
256.724	4.93
257.105	6.01
257.486	4.44
257.867	4.36
258.247	5.43
258.628	4.94
259.009	4.72
259.389	5.44
259.77	4.26
260.15	5.18
260.531	4.68
260.911	4.63
261.292	4.91
261.672	4.69
262.052	4.65
262.432	4.49
262.813	4.83
263.193	4.43
263.573	5.58
263.953	4.17
264.333	5.19
264.713	5.03
265.093	4.8
265.473	5.3
265.853	3.65
266.233	3.76
266.612	4.09
266.992	5.78
267.372	4.66
267.752	4.73
268.131	4.74
268.511	4.38
268.89	5.19
269.27	4.65
269.649	4.48
270.029	4.47
270.408	5.71
270.787	4.52
271.167	4.57
271.546	4.41
271.925	4.66
272.304	4.98
272.683	4.17
273.062	4.33
273.441	4.48
273.82	4.66
274.199	4.46
274.578	4.26
274.957	4.37
275.336	4.46
275.715	4.12
276.093	4.8
276.472	4.81
276.851	4.65
277.229	4.14
277.608	4.3
277.986	4.79
278.365	4.87
278.743	4.57
279.122	3.8
279.5	4.56
279.878	4.25
280.257	4.57
280.635	4.64
281.013	4.17
281.391	4.14
281.769	4.09
282.147	3.87
282.525	4.33
282.903	4.15
283.281	4.26
283.659	4.67
284.037	4.15
284.415	4.14
284.792	3.96
285.17	4.31
285.548	3.75
285.925	4.42
286.303	4.62
286.68	4.3
287.058	4.19
287.435	4.06
287.813	4.53
288.19	4.47
288.567	4.35
288.945	4.2
289.322	4.47
289.699	4.49
290.076	4
290.453	4.29
290.83	4.41
291.207	4.1
291.584	4.57
291.961	4.31
292.338	4.52
292.715	4.13
293.092	3.94
293.469	4.48
293.845	4.51
294.222	4.01
294.599	3.9
294.975	3.87
295.352	4.14
295.728	3.84
296.105	3.86
296.481	4.27
296.858	4.28
297.234	3.91
297.61	3.89
297.986	4.14
298.363	3.88
298.739	4.09
299.115	3.75
299.491	3.9
299.867	4.01
300.243	3.76
300.619	4.29
300.995	4.29
301.371	3.58
301.746	4.57
302.122	3.86
302.498	4.18
302.874	3.87
303.249	3.95
303.625	3.83
304	4.28
304.376	4.1
304.751	3.17
305.127	3.91
305.502	4.3
305.878	4.09
306.253	4.2
306.628	3.33
307.003	3.66
307.378	4.19
307.754	3.86
308.129	4.05
308.504	3.69
308.879	3.75
309.254	3.87
309.629	4.38
310.003	4.17
310.378	3.89
310.753	3.71
311.128	4.01
311.502	3.67
311.877	3.5
312.252	3.73
312.626	4.12
313.001	3.82
313.375	4.08
313.75	3.67
314.124	3.57
314.498	3.73
314.873	3.99
315.247	3.6
315.621	3.96
315.995	3.95
316.369	3.7
316.743	3.39
317.117	3.51
317.491	3.71
317.865	4.23
318.239	4.24
318.613	3.78
318.987	3.2
319.361	3.59
319.734	3.76
320.108	3.41
320.482	3.92
320.855	3.57
321.229	4.12
321.602	3.98
321.976	3.87
322.349	3.61
322.723	3.59
323.096	3.96
323.469	3.32
323.843	3.65
324.216	4.04
324.589	4.05
324.962	3.68
325.335	3.16
325.708	4.03
326.081	3.46
326.454	3.9
326.827	3.81
327.2	3.32
327.573	3.78
327.945	3.81
328.318	3.39
328.691	4.18
329.063	3.52
329.436	3.65
329.809	4.28
330.181	4
330.553	3.17
330.926	3.65
331.298	3.71
331.671	3.65
332.043	3.92
332.415	3.89
332.787	3.3
333.159	3.96
333.532	3.66
333.904	3.44
334.276	3.43
334.648	4.09
335.02	3.15
335.391	3.63
335.763	3.48
336.135	4.1
336.507	3.86
336.879	3.71
337.25	4.25
337.622	3.66
337.993	3.84
338.365	3.89
338.736	4.02
339.108	4.15
339.479	3.54
339.851	4.25
340.222	4.06
340.593	3.36
340.964	4.06
341.336	3.42
341.707	4.48
342.078	3.82
342.449	3.37
342.82	3.98
343.191	3.96
343.562	3.97
343.933	4.53
344.303	3.48
344.674	4.05
345.045	3.96
345.416	4
345.786	4.26
346.157	3.76
346.527	3.93
346.898	3.79
347.268	3.9
347.639	4.13
348.009	3.77
348.38	3.47
348.75	4.18
349.12	3.99
349.49	3.7
349.861	4.09
350.231	3.37
350.601	3.75
350.971	3.92
351.341	3.7
351.711	4
352.081	3.69
352.45	3.72
352.82	3.71
353.19	4.08
353.56	4.46
353.929	3.47
354.299	3.66
354.669	3.96
355.038	4.3
355.408	3.62
355.777	4.26
356.147	3.71
356.516	4.26
356.885	4.02
357.254	3.94
357.624	3.7
357.993	3.71
358.362	3.78
358.731	3.74
359.1	4.02
359.469	3.9
359.838	3.77
360.207	4.12
360.576	4.21
360.945	3.74
361.314	3.67
361.682	3.57
362.051	4.03
362.42	4.01
362.788	3.88
363.157	4.16
363.525	4.09
363.894	4.13
364.262	3.72
364.631	3.86
364.999	4.05
365.367	3.87
365.735	3.79
366.104	4.06
366.472	4.04
366.84	3.92
367.208	4.09
367.576	4.37
367.944	4
368.312	4.03
368.68	4.1
369.048	4.01
369.416	4.27
369.783	3.95
370.151	4.3
370.519	3.66
370.886	3.97
371.254	4.35
371.621	4.41
371.989	4.23
372.356	4.48
372.724	3.86
373.091	3.96
373.458	4.11
373.826	4.22
374.193	4.18
374.56	4.15
374.927	4.19
375.294	4.05
375.661	3.91
376.028	4.06
376.395	4.03
376.762	4.18
377.129	4.07
377.496	4.17
377.863	4.36
378.229	3.83
378.596	4.11
378.963	4.26
379.329	4.35
379.696	4.29
380.062	4.17
380.429	4.27
380.795	4.19
381.161	4.42
381.528	4.3
381.894	4.08
382.26	4.14
382.626	4.08
382.993	4.58
383.359	4.29
383.725	4.54
384.091	4.21
384.457	4.02
384.823	4.32
385.188	4.5
385.554	4.12
385.92	4.56
386.286	3.87
386.651	4.43
387.017	4.35
387.383	4.48
387.748	4.54
388.114	4.3
388.479	4.26
388.845	4.09
389.21	4.18
389.575	4.31
389.94	4.18
390.306	4.34
390.671	4.26
391.036	3.99
391.401	4.73
391.766	4.35
392.131	4.34
392.496	4.46
392.861	4.36
393.226	4.22
393.591	4.4
393.956	4.5
394.32	4.38
394.685	4.29
395.05	4.48
395.414	4.48
395.779	4.26
396.143	4.41
396.508	4.58
396.872	4.51
397.236	4.35
397.601	4.44
397.965	4.84
398.329	4.39
398.694	4.32
399.058	4.37
399.422	4.58
399.786	4.62
400.15	4.49
400.514	4.27
400.878	4.5
401.242	4.34
401.605	4.65
401.969	4.74
402.333	4.42
402.697	4.19
403.06	4.64
403.424	4.5
403.787	4.57
404.151	4.26
404.514	4.39
404.878	4.31
405.241	4.59
405.604	4.32
405.968	4.35
406.331	4.53
406.694	4.6
407.057	4.27
407.42	4.4
407.783	4.46
408.146	4.54
408.509	4.45
408.872	4.29
409.235	4.5
409.598	4.6
409.961	4.57
410.323	4.31
410.686	4.51
411.049	4.52
411.411	4.67
411.774	4.5
412.136	4.45
412.499	4.51
412.861	4.44
413.223	4.51
413.586	4.49
413.948	4.77
414.31	4.3
414.672	4.58
415.035	4.49
415.397	4.84
415.759	4.82
416.121	4.76
416.483	4.59
416.845	4.25
417.206	4.57
417.568	4.51
417.93	4.63
418.292	4.63
418.653	4.58
419.015	4.67
419.377	4.43
419.738	4.58
420.1	4.47
420.461	4.59
420.822	4.6
421.184	4.6
421.545	4.6
421.906	4.63
422.267	4.52
422.629	4.47
422.99	4.57
423.351	4.59
423.712	4.62
424.073	4.52
424.434	4.54
424.795	4.73
425.155	4.62
425.516	4.62
425.877	4.68
426.238	4.62
426.598	4.57
426.959	4.55
427.32	4.7
427.68	4.65
428.041	4.7
428.401	4.64
428.761	4.69
429.122	4.72
429.482	4.6
429.842	4.79
430.202	4.68
430.563	4.64
430.923	4.76
431.283	4.93
431.643	4.67
432.003	4.72
432.363	4.89
432.722	4.82
433.082	4.82
433.442	4.6
433.802	4.69
434.161	4.86
434.521	4.87
434.881	4.56
435.24	4.63
435.6	4.75
435.959	4.7
436.319	4.76
436.678	4.79
437.037	4.77
437.396	4.81
437.756	4.83
438.115	4.8
438.474	4.84
438.833	4.84
439.192	4.79
439.551	4.8
439.91	4.73
440.269	4.82
440.628	4.7
440.987	4.61
441.345	4.64
441.704	4.74
442.063	4.81
442.421	4.63
442.78	4.65
443.138	4.55
443.497	4.75
443.855	4.74
444.214	4.88
444.572	4.81
444.93	4.81
445.288	4.79
445.647	4.89
446.005	4.88
446.363	4.88
446.721	4.71
447.079	4.68
447.437	4.78
447.795	4.86
448.153	4.68
448.51	4.7
448.868	4.77
449.226	4.83
449.584	4.83
449.941	4.84
450.299	4.94
450.656	4.91
451.014	4.89
451.371	4.68
451.729	4.91
452.086	4.97
452.443	4.77
452.801	4.9
453.158	4.95
453.515	4.78
453.872	4.9
454.229	4.93
454.586	4.96
454.943	4.97
455.3	4.88
455.657	4.96
456.014	5.2
456.371	4.9
456.727	4.91
457.084	4.91
457.441	5.03
457.797	4.81
458.154	4.96
458.51	4.92
458.867	5.05
459.223	4.98
459.58	4.89
459.936	5.04
460.292	4.75
460.648	4.91
461.005	4.87
461.361	4.77
461.717	4.85
462.073	4.84
462.429	4.82
462.785	4.95
463.141	4.92
463.496	4.94
463.852	5.06
464.208	4.92
464.564	5.02
464.919	4.95
465.275	5.06
465.631	4.9
465.986	4.99
466.342	4.93
466.697	5.01
467.052	4.95
467.408	5.06
467.763	5.09
468.118	4.87
468.473	4.98
468.829	5.01
469.184	4.99
469.539	4.88
469.894	5.09
470.249	5.02
470.603	5.08
470.958	4.97
471.313	5.09
471.668	5.18
472.023	4.99
472.377	4.9
472.732	5.16
473.086	4.95
473.441	5.02
473.795	5.13
474.15	5.06
474.504	5
474.859	5.12
475.213	5.18
475.567	4.92
475.921	5.16
476.275	5.06
476.63	5.06
476.984	5.26
477.338	5.03
477.692	5.14
478.045	4.95
478.399	4.99
478.753	5.15
479.107	5.04
479.461	5
479.814	4.91
480.168	4.89
480.521	4.85
480.875	5.1
481.228	5.23
481.582	5.01
481.935	5.08
482.289	5.07
482.642	4.96
482.995	5.14
483.348	4.84
483.701	5
484.055	4.91
484.408	4.86
484.761	4.89
485.114	4.75
485.466	4.7
485.819	4.66
486.172	4.75
486.525	4.83
486.878	4.87
487.23	4.87
487.583	4.92
487.936	4.97
488.288	4.83
488.641	4.84
488.993	4.88
489.345	4.8
489.698	4.78
490.05	4.86
490.402	4.87
490.754	4.96
491.107	4.98
491.459	4.92
491.811	5
492.163	5.07
492.515	5.02
492.866	4.88
493.218	4.86
493.57	4.8
493.922	4.91
494.274	4.96
494.625	4.96
494.977	4.97
495.328	5.08
495.68	5.18
496.031	5.08
496.383	5.18
496.734	5.13
497.086	5.11
497.437	5.09
497.788	5.21
498.139	5.07
498.49	5.01
498.842	5.05
499.193	5.06
499.544	5.05
499.894	5.07
500.245	5.11
500.596	5.05
500.947	5.05
501.298	5.17
501.648	5.28
501.999	5.15
502.35	5.23
502.7	5.16
503.051	5.11
503.401	5.17
503.752	5.07
504.102	5.14
504.452	5.15
504.803	5.16
505.153	5
505.503	4.95
505.853	5.17
506.203	5.02
506.553	5.17
506.903	5.16
507.253	5.2
507.603	5.15
507.953	5.24
508.303	5.21
508.652	4.94
509.002	5.2
509.352	5.26
509.701	5.09
510.051	5.11
510.4	5.12
510.75	5.07
511.099	5.05
511.449	4.98
511.798	5.12
512.147	5.04
512.496	5.09
512.846	5.14
513.195	5.01
513.544	5.25
513.893	5.11
514.242	5.11
514.591	5.1
514.939	5.16
515.288	5.16
515.637	5.15
515.986	5.1
516.334	5.02
516.683	5.15
517.032	5.09
517.38	5.18
517.729	5.11
518.077	5.01
518.426	5.15
518.774	5.04
519.122	4.99
519.47	5.05
519.819	5.02
520.167	4.99
520.515	4.94
520.863	5.13
521.211	4.97
521.559	5.03
521.907	5.08
522.255	5.1
522.602	5.14
522.95	5.24
523.298	5.24
523.645	5.2
523.993	5.12
524.341	5.29
524.688	5.01
525.036	5.15
525.383	5.01
525.73	5.19
526.078	5.12
526.425	5.11
526.772	5.08
527.119	5.05
527.466	5.02
527.814	5.05
528.161	5.09
528.508	5.04
528.854	5.12
529.201	5.05
529.548	4.98
529.895	4.91
530.242	4.8
530.588	4.87
530.935	4.91
531.282	4.94
531.628	4.96
531.975	4.97
532.321	4.98
532.667	5
533.014	5.05
533.36	5.12
533.706	5.04
534.052	5.07
534.399	4.99
534.745	4.95
535.091	4.91
535.437	4.99
535.783	4.98
536.129	5.05
536.474	5.06
536.82	5.04
537.166	5.13
537.512	5.11
537.857	5.14
538.203	5.01
538.549	5.01
538.894	5.06
539.239	5.05
539.585	5.14
539.93	5.14
540.276	5.21
540.621	5.17
540.966	5.18
541.311	5.19
541.656	4.99
542.001	5.27
542.346	4.99
542.691	4.99
543.036	4.92
543.381	5
543.726	4.99
544.071	4.96
544.415	5.09
544.76	5.01
545.105	5.03
545.449	5.17
545.794	5.17
546.138	5.1
546.483	5.18
546.827	5.12
547.171	5.19
547.516	5.04
547.86	5.2
548.204	5.24
548.548	4.96
548.892	5.06
549.236	5.16
549.58	5.12
549.924	5.33
550.268	5.31
550.612	5.33
550.956	5.22
551.3	5.15
551.643	5.15
551.987	5.19
552.33	5.1
552.674	5.07
553.017	5.06
553.361	5.16
553.704	5.13
554.048	5.18
554.391	5.11
554.734	5.22
555.077	5.05
555.42	5.17
555.764	5.02
556.107	5.23
556.45	5.23
556.793	5.18
557.135	5.2
557.478	5.16
557.821	5.21
558.164	5.12
558.507	5.09
558.849	5.34
559.192	5.26
559.534	5.28
559.877	5.23
560.219	5.32
560.562	5.41
560.904	5.25
561.246	5.03
561.589	5.18
561.931	5.15
562.273	5.21
562.615	5.3
562.957	5.16
563.299	5.26
563.641	5.04
563.983	5.06
564.325	5.14
564.667	5.3
565.008	5.11
565.35	5.38
565.692	5.12
566.033	5.06
566.375	5.12
566.716	5.19
567.058	5.08
567.399	5.08
567.741	5.17
568.082	5.03
568.423	4.95
568.764	5.07
569.105	5.16
569.447	5.08
569.788	5.03
570.129	5.07
570.47	5.17
570.811	5.26
571.151	5.39
571.492	5.17
571.833	5.16
572.174	5.15
572.514	5.22
572.855	5.08
573.195	5.14
573.536	5.2
573.876	4.88
574.217	5.03
574.557	5.15
574.898	5.17
575.238	5.12
575.578	5.3
575.918	5.09
576.258	5.14
576.598	5.04
576.938	5.18
577.278	5.12
577.618	5.09
577.958	5.2
578.298	5.14
578.638	5.08
578.977	5.14
579.317	5.15
579.657	5.39
579.996	4.94
580.336	5.36
580.675	5.08
581.014	5.18
581.354	5.08
581.693	5.18
582.032	5.29
582.372	5.37
582.711	5.27
583.05	5.3
583.389	5.22
583.728	5.2
584.067	5.16
584.406	5.08
584.745	5.31
585.083	5.05
585.422	5.27
585.761	5.12
586.1	5.01
586.438	5.23
586.777	5.03
587.115	5.11
587.454	5.15
587.792	5.23
588.13	5.18
588.469	5.2
588.807	5.05
589.145	5.18
589.483	5.04
589.821	5.19
590.159	5.15
590.497	4.84
590.835	4.95
591.173	5.24
591.511	5.21
591.849	4.77
592.187	5.19
592.524	5.43
592.862	5.4
593.2	5.33
593.537	5.25
593.875	5.32
594.212	5.23
594.55	5.04
594.887	5.2
595.224	5.06
595.561	5.07
595.899	5.06
596.236	4.88
596.573	5.34
596.91	4.93
597.247	5.34
597.584	5.04
597.921	5.22
598.258	4.94
598.594	4.9
598.931	5.19
599.268	4.94
599.604	5.05
599.941	5.3
600.277	5.17
600.614	4.94
600.95	5.02
601.287	5.23
601.623	5.06
601.959	4.81
602.296	5
602.632	5.19
602.968	4.89
603.304	4.87
603.64	5.11
603.976	5.26
604.312	5
604.648	5.13
604.984	5.03
605.319	5.28
605.655	5.15
605.991	4.81
606.326	5.04
606.662	5.23
606.998	5.1
607.333	4.96
607.668	5.01
608.004	5.15
608.339	5.12
608.674	5.17
609.01	5.22
609.345	5.29
609.68	4.84
610.015	5.06
610.35	5.26
610.685	4.73
611.02	5.06
611.355	5.02
611.689	5.19
612.024	5
612.359	5.14
612.694	5.37
613.028	5.4
613.363	5.24
613.697	5.17
614.032	4.98
614.366	5.22
614.7	4.9
615.035	5.32
615.369	5.14
615.703	5.11
616.037	5.1
616.371	5.26
616.705	5.06
617.039	5.01
617.373	5.31
617.707	5.59
618.041	5.35
618.375	5.35
618.709	4.64
619.042	5.49
619.376	5.41
619.71	5.14
620.043	4.72
620.377	4.95
620.71	5.13
621.043	5.27
621.377	5.17
621.71	5.24
622.043	5.03
622.376	4.86
622.709	5.04
623.043	4.98
623.376	5.39
623.709	5.35
624.041	5.33
624.374	4.95
624.707	5.15
625.04	5.29
625.373	5.3
625.705	5.17
626.038	5.36
626.37	4.81
626.703	5.09
627.035	5.36
627.368	5.29
627.7	5.28
628.032	5.04
628.365	5.09
628.697	4.98
629.029	5.38
629.361	5.13
629.693	5.06
630.025	5.24
630.357	5.31
630.689	5.24
631.021	4.77
631.353	5.44
631.684	5.2
632.016	5.51
632.348	4.63
632.679	5.22
633.011	5.09
633.342	5.12
633.674	4.99
634.005	5.23
634.336	5.28
634.668	5.46
634.999	5.14
635.33	5.22
635.661	5.41
635.992	5.19
636.323	5.36
636.654	5.48
636.985	5.58
637.316	5.39
637.647	5.3
637.977	5.09
638.308	5.12
638.639	4.98
638.969	5.03
639.3	5.33
639.63	5.07
639.961	5.18
640.291	5.29
640.622	5.01
640.952	4.65
641.282	5.11
641.612	5.02
641.943	4.91
642.273	5.27
642.603	5.23
642.933	5.19
643.263	4.92
643.592	5.17
643.922	5.02
644.252	5.29
644.582	5.66
644.911	5.06
645.241	5.14
645.571	5.5
645.9	4.98
646.23	5.64
646.559	4.63
646.888	5.28
647.218	5.23
647.547	4.95
647.876	5.1
648.205	4.93
648.534	5.08
648.863	5.57
649.192	5.7
649.521	5.06
649.85	5.23
650.179	4.89
650.508	5.23
650.837	5.35
651.165	5.27
651.494	5.06
651.822	5.36
652.151	5.07
652.479	5.28
652.808	5.39
653.136	5.13
653.465	4.9
653.793	5.13
654.121	5.15
654.449	5.14
654.777	5.3
655.105	5
655.433	5.14
655.761	5.62
656.089	5.72
656.417	5.68
656.745	5.14
657.073	4.8
657.4	5.17
657.728	5.58
658.056	5.55
658.383	5.23
658.711	5.24
659.038	5.24
659.365	4.87
659.693	5.31
660.02	5.37
660.347	5.35
660.674	4.7
661.001	5.37
661.329	5.17
661.656	5.59
661.982	5.45
662.309	5.23
662.636	5.75
662.963	5.37
663.29	5.25
663.616	5.18
663.943	5.32
664.27	5.37
664.596	5.59
664.923	5.48
665.249	5.11
665.576	5.87
665.902	4.93
666.228	5.38
666.554	5.27
666.881	5.04
667.207	5.04
667.533	5.45
667.859	5.07
668.185	5.99
668.511	4.51
668.837	5.36
669.162	5.11
669.488	4.87
669.814	5.55
670.139	5.15
670.465	5.01
670.791	4.98
671.116	5.12
671.442	5.61
671.767	5.03
672.092	4.98
672.418	5.37
672.743	6.05
673.068	4.93
673.393	5.35
673.718	5.47
674.043	5.94
674.368	5.32
674.693	5.38
675.018	6.09
675.343	5.91
675.667	5.18
675.992	5.45
676.317	5.54
676.641	5.74
676.966	5.76
677.29	5.29
677.615	5.64
677.939	5.46
678.264	5.18
678.588	4.7
678.912	5.36
679.236	5.09
679.56	5.35
679.885	5.34
680.209	5.53
680.532	5.11
680.856	5.34
681.18	5.7
681.504	5.28
681.828	6.08
682.152	5.8
682.475	5.61
682.799	5.69
683.122	5.09
683.446	5.92
683.769	5.26
684.093	5.81
684.416	5.89
684.739	5.87
685.062	5.01
685.386	5.76
685.709	5.49
686.032	5.45
686.355	5.62
686.678	5.47
687.001	5.68
687.324	5.74
687.646	5.8
687.969	6.03
688.292	5.39
688.614	5.62
688.937	5.49
689.26	5.52
689.582	5.52
689.904	5.4
690.227	5.19
690.549	4.71
690.871	5.8
691.194	5.08
691.516	5.34
691.838	5.88
692.16	5.38
692.482	6.16
692.804	5.18
693.126	6.38
