Data from 97276_forehead_Reflection__1__112.txt Node

Date: Fri Sep 23 20:33:56 CDT 2022
User: ToomeyLab
Spectrometer: FLMS14357
Trigger mode: 0
Integration Time (sec): 1.000000E-2
Scans to average: 100
Electric dark correction enabled: true
Nonlinearity correction enabled: false
Boxcar width: 0
XAxis mode: Wavelengths
Number of Pixels in Spectrum: 2048
>>>>>Begin Spectral Data<<<<<
189.047	2.11
189.435	2.11
189.823	2.11
190.211	-124.62
190.599	-568.43
190.987	45.95
191.375	-52.54
191.763	61.69
192.151	123.32
192.538	73.15
192.926	78.92
193.314	27.65
193.702	40.71
194.089	95.16
194.477	137.84
194.864	-85.9
195.252	50.91
195.639	-57.5
196.027	-7.07
196.414	89.95
196.801	0.81
197.189	-127.5
197.576	114.73
197.963	-69.29
198.351	57.4
198.738	-14.53
199.125	10.8
199.512	-13.8
199.899	34.77
200.286	21.04
200.673	-9.96
201.06	68.73
201.447	57.4
201.833	60.88
202.22	-19.91
202.607	35.95
202.994	16.35
203.38	-2.07
203.767	-44.22
204.154	24.66
204.54	32.05
204.927	15.42
205.313	47.73
205.699	-29.89
206.086	-10.85
206.472	17.24
206.858	44.46
207.245	37.83
207.631	23.55
208.017	9.56
208.403	10.86
208.789	13.48
209.175	38.87
209.561	5.76
209.947	-2.38
210.333	-0.58
210.719	15.11
211.105	-9.14
211.491	33.78
211.876	3.69
212.262	10.62
212.648	2.25
213.034	-32.64
213.419	-10.78
213.805	35.02
214.19	-8.39
214.576	10.2
214.961	21.72
215.346	-31.78
215.732	26.32
216.117	-6.81
216.502	0.12
216.888	25.83
217.273	-3.39
217.658	3.69
218.043	32.87
218.428	15.87
218.813	13.39
219.198	-14.72
219.583	20.71
219.968	9.03
220.353	-0.66
220.738	2.46
221.122	7.49
221.507	11.65
221.892	13.21
222.276	5.19
222.661	-11.29
223.046	-0.56
223.43	-4.02
223.815	2.02
224.199	-2.67
224.583	3.24
224.968	0.71
225.352	7.82
225.736	-2.2
226.121	6.34
226.505	5.98
226.889	4.94
227.273	1.81
227.657	-5.05
228.041	-0.24
228.425	4.29
228.809	5.55
229.193	1.05
229.577	2.6
229.961	2.15
230.344	1.97
230.728	1.3
231.112	0.93
231.495	1.53
231.879	-0.22
232.263	2.52
232.646	1.8
233.03	0.88
233.413	2.41
233.797	1.88
234.18	2.39
234.563	2.09
234.946	2.25
235.33	0.49
235.713	3.57
236.096	-0.55
236.479	0.35
236.862	3.03
237.245	1.58
237.628	2.54
238.011	1.43
238.394	0.3
238.777	1.99
239.16	1.02
239.543	1.02
239.925	1.97
240.308	2.46
240.691	2.22
241.073	1.02
241.456	1.06
241.838	2.69
242.221	2.04
242.603	2.35
242.986	0.87
243.368	0.95
243.75	1.72
244.133	1.38
244.515	1.38
244.897	1.41
245.279	2.15
245.661	2.24
246.043	1.98
246.425	1.05
246.807	0.57
247.189	1.84
247.571	1.08
247.953	1.42
248.335	1.75
248.717	1.77
249.098	1.67
249.48	1.61
249.862	1.47
250.243	1.7
250.625	1.6
251.006	1.71
251.388	2.17
251.769	2.09
252.151	1.16
252.532	1.8
252.913	1.51
253.295	2.2
253.676	1.73
254.057	2.07
254.438	1.59
254.819	1.75
255.2	1.97
255.581	2.52
255.962	1.06
256.343	1.12
256.724	1.35
257.105	2.64
257.486	0.72
257.867	2.27
258.247	2.45
258.628	1.23
259.009	1.62
259.389	2.01
259.77	1.09
260.15	1.86
260.531	1.5
260.911	1.63
261.292	1.54
261.672	1.49
262.052	1.49
262.432	1.35
262.813	1.86
263.193	1.48
263.573	1.94
263.953	1.39
264.333	1.61
264.713	1.63
265.093	1.79
265.473	1.45
265.853	1.34
266.233	1.2
266.612	1.99
266.992	1.84
267.372	1.55
267.752	1.98
268.131	1.83
268.511	1.3
268.89	1.63
269.27	1.74
269.649	1.52
270.029	1.51
270.408	2.04
270.787	1.24
271.167	1.73
271.546	2.08
271.925	1.11
272.304	1.33
272.683	0.84
273.062	1.53
273.441	1.5
273.82	1.52
274.199	1.78
274.578	1.52
274.957	1.35
275.336	1.49
275.715	1.75
276.093	2.5
276.472	2.28
276.851	1.71
277.229	2.02
277.608	1.15
277.986	1.72
278.365	1.66
278.743	2.26
279.122	1.37
279.5	1.73
279.878	1.24
280.257	1.76
280.635	1
281.013	1.73
281.391	1.5
281.769	2.03
282.147	1.2
282.525	1.72
282.903	1.69
283.281	1.84
283.659	1.58
284.037	1.44
284.415	1.36
284.792	1.86
285.17	1.4
285.548	1.3
285.925	1.9
286.303	2.14
286.68	1.9
287.058	1.86
287.435	1.44
287.813	2.08
288.19	1.49
288.567	1.82
288.945	1.64
289.322	2.04
289.699	2.12
290.076	1.45
290.453	1.6
290.83	1.63
291.207	1.71
291.584	2.04
291.961	1.71
292.338	1.53
292.715	1.72
293.092	1.89
293.469	1.95
293.845	2.43
294.222	1.95
294.599	1.67
294.975	1.8
295.352	2.14
295.728	1.73
296.105	1.71
296.481	1.75
296.858	1.82
297.234	1.88
297.61	1.67
297.986	1.78
298.363	1.62
298.739	2.44
299.115	1.76
299.491	1.99
299.867	1.81
300.243	2.24
300.619	2.09
300.995	2.37
301.371	1.62
301.746	2.3
302.122	2.16
302.498	2.28
302.874	1.84
303.249	2.32
303.625	2.16
304	2.26
304.376	2.11
304.751	2.54
305.127	2.17
305.502	2.34
305.878	2.38
306.253	2.34
306.628	2.45
307.003	1.76
307.378	2.52
307.754	2.35
308.129	2.74
308.504	2.41
308.879	2.82
309.254	2.83
309.629	2.68
310.003	2.78
310.378	2.8
310.753	2.6
311.128	2.21
311.502	2.25
311.877	2.5
312.252	2.52
312.626	2.3
313.001	3.04
313.375	2.89
313.75	2.54
314.124	2.42
314.498	3.12
314.873	2.43
315.247	3.21
315.621	2.83
315.995	3.21
316.369	2.86
316.743	2.38
317.117	2.32
317.491	2.88
317.865	3.49
318.239	3.35
318.613	2.53
318.987	2.67
319.361	2.6
319.734	2.87
320.108	3.21
320.482	2.83
320.855	3.17
321.229	3.43
321.602	3.03
321.976	3.48
322.349	3.33
322.723	3.4
323.096	2.78
323.469	3.26
323.843	2.75
324.216	3.96
324.589	3.81
324.962	2.98
325.335	2.86
325.708	3.38
326.081	3.08
326.454	3.22
326.827	3.33
327.2	3.16
327.573	3.74
327.945	3.92
328.318	2.95
328.691	3.44
329.063	3.72
329.436	3.26
329.809	3.94
330.181	3.57
330.553	3.28
330.926	3.57
331.298	4.19
331.671	3.8
332.043	3.73
332.415	3.81
332.787	3.63
333.159	3.76
333.532	3.32
333.904	3.48
334.276	3.3
334.648	3.5
335.02	3.37
335.391	3.78
335.763	3.49
336.135	3.88
336.507	3.9
336.879	3.94
337.25	4.23
337.622	3.95
337.993	3.56
338.365	4
338.736	3.82
339.108	4.64
339.479	3.65
339.851	4.12
340.222	4.22
340.593	3.55
340.964	4.19
341.336	3.95
341.707	4.66
342.078	3.87
342.449	4.17
342.82	3.74
343.191	3.82
343.562	4.15
343.933	4.86
344.303	4.04
344.674	4.33
345.045	4.32
345.416	4.41
345.786	4.79
346.157	4.19
346.527	3.98
346.898	4.44
347.268	4.23
347.639	4.1
348.009	4.4
348.38	4.38
348.75	4.76
349.12	4.47
349.49	4.42
349.861	4.82
350.231	4.44
350.601	4.35
350.971	4.53
351.341	4.58
351.711	4.35
352.081	4.34
352.45	4.32
352.82	4.35
353.19	4.85
353.56	4.56
353.929	4.18
354.299	4.96
354.669	4.41
355.038	5.09
355.408	4.49
355.777	4.66
356.147	4.34
356.516	4.88
356.885	4.74
357.254	4.61
357.624	4.7
357.993	4.7
358.362	4.75
358.731	4.72
359.1	4.9
359.469	4.86
359.838	4.91
360.207	5.23
360.576	5.12
360.945	4.76
361.314	4.82
361.682	4.74
362.051	5.04
362.42	5.04
362.788	4.75
363.157	5.1
363.525	5.15
363.894	5.13
364.262	4.77
364.631	5.2
364.999	4.94
365.367	5.2
365.735	5.37
366.104	5.28
366.472	5.25
366.84	4.99
367.208	5.18
367.576	5.62
367.944	5.34
368.312	5.44
368.68	5.3
369.048	5.33
369.416	5.44
369.783	5.54
370.151	5.49
370.519	5.73
370.886	5.78
371.254	5.64
371.621	5.6
371.989	5.71
372.356	5.81
372.724	5.41
373.091	5.31
373.458	5.69
373.826	5.61
374.193	5.98
374.56	5.64
374.927	5.74
375.294	6.07
375.661	5.77
376.028	5.85
376.395	5.76
376.762	5.46
377.129	5.69
377.496	6.2
377.863	6.21
378.229	5.66
378.596	5.58
378.963	6.04
379.329	6.05
379.696	5.73
380.062	5.74
380.429	5.92
380.795	5.94
381.161	5.98
381.528	6.4
381.894	5.87
382.26	5.99
382.626	5.92
382.993	6.15
383.359	6.41
383.725	6.53
384.091	6.33
384.457	6.52
384.823	6.12
385.188	6.19
385.554	6.21
385.92	6.55
386.286	6.51
386.651	6.78
387.017	6.76
387.383	6.67
387.748	6.29
388.114	6.43
388.479	6.5
388.845	6.39
389.21	6.39
389.575	6.43
389.94	6.48
390.306	6.38
390.671	6.22
391.036	6.71
391.401	6.62
391.766	6.59
392.131	6.72
392.496	6.68
392.861	6.71
393.226	6.48
393.591	6.73
393.956	6.58
394.32	7.03
394.685	6.81
395.05	7.15
395.414	6.96
395.779	6.77
396.143	6.75
396.508	6.89
396.872	6.84
397.236	6.99
397.601	6.85
397.965	7.1
398.329	7.29
398.694	6.85
399.058	6.78
399.422	7.23
399.786	7.25
400.15	7.05
400.514	6.97
400.878	7.16
401.242	7.01
401.605	7.21
401.969	7.25
402.333	6.95
402.697	6.95
403.06	7.13
403.424	7.12
403.787	7.08
404.151	7.33
404.514	7.13
404.878	7.25
405.241	7.28
405.604	7.25
405.968	7.06
406.331	7.24
406.694	7.31
407.057	7.16
407.42	7.4
407.783	7.24
408.146	7.25
408.509	7.37
408.872	7.54
409.235	7.31
409.598	7.55
409.961	7.65
410.323	7.53
410.686	7.68
411.049	7.46
411.411	7.72
411.774	7.62
412.136	7.59
412.499	7.6
412.861	7.38
413.223	7.51
413.586	7.62
413.948	7.64
414.31	7.61
414.672	7.7
415.035	7.72
415.397	7.79
415.759	7.78
416.121	7.95
416.483	7.68
416.845	7.68
417.206	7.78
417.568	7.78
417.93	7.82
418.292	7.93
418.653	7.76
419.015	7.74
419.377	7.77
419.738	7.67
420.1	7.67
420.461	7.77
420.822	7.89
421.184	7.92
421.545	7.86
421.906	7.87
422.267	7.82
422.629	7.74
422.99	7.89
423.351	7.85
423.712	7.91
424.073	7.92
424.434	8.03
424.795	8.03
425.155	8.02
425.516	8.11
425.877	7.98
426.238	8.11
426.598	8.09
426.959	8.1
427.32	8.23
427.68	8.38
428.041	8.27
428.401	8.48
428.761	8.49
429.122	8.42
429.482	8.45
429.842	8.69
430.202	8.59
430.563	8.49
430.923	8.58
431.283	8.7
431.643	8.78
432.003	8.58
432.363	8.83
432.722	8.88
433.082	8.79
433.442	8.59
433.802	8.84
434.161	8.82
434.521	8.76
434.881	8.79
435.24	8.73
435.6	8.82
435.959	8.85
436.319	8.92
436.678	9
437.037	9.2
437.396	9.02
437.756	9.16
438.115	9.08
438.474	9.04
438.833	9.22
439.192	9.18
439.551	9.27
439.91	9.03
440.269	9.17
440.628	9.1
440.987	9.23
441.345	9.07
441.704	9.17
442.063	9.2
442.421	9.13
442.78	9.1
443.138	9.19
443.497	9.38
443.855	9.27
444.214	9.62
444.572	9.62
444.93	9.54
445.288	9.72
445.647	9.71
446.005	9.69
446.363	9.56
446.721	9.48
447.079	9.45
447.437	9.59
447.795	9.5
448.153	9.41
448.51	9.64
448.868	9.47
449.226	9.71
449.584	9.69
449.941	9.79
450.299	9.94
450.656	9.91
451.014	9.94
451.371	9.85
451.729	10.03
452.086	10.23
452.443	10.01
452.801	10.21
453.158	10.06
453.515	9.98
453.872	10.15
454.229	10.09
454.586	10.29
454.943	10.13
455.3	10.18
455.657	10.31
456.014	10.36
456.371	10.35
456.727	10.37
457.084	10.37
457.441	10.52
457.797	10.43
458.154	10.44
458.51	10.46
458.867	10.62
459.223	10.63
459.58	10.56
459.936	10.62
460.292	10.56
460.648	10.59
461.005	10.54
461.361	10.45
461.717	10.44
462.073	10.54
462.429	10.59
462.785	10.69
463.141	10.79
463.496	10.73
463.852	10.93
464.208	11.01
464.564	11.01
464.919	10.96
465.275	11.21
465.631	11.11
465.986	10.96
466.342	10.8
466.697	11.21
467.052	11.27
467.408	11.23
467.763	11.23
468.118	11.18
468.473	11.23
468.829	11.37
469.184	11.26
469.539	11.29
469.894	11.47
470.249	11.36
470.603	11.51
470.958	11.36
471.313	11.45
471.668	11.5
472.023	11.34
472.377	11.38
472.732	11.56
473.086	11.47
473.441	11.56
473.795	11.61
474.15	11.81
474.504	11.63
474.859	11.58
475.213	11.82
475.567	11.61
475.921	11.98
476.275	11.81
476.63	11.81
476.984	11.93
477.338	11.89
477.692	12.01
478.045	11.62
478.399	11.97
478.753	12.11
479.107	11.98
479.461	12
479.814	12.01
480.168	11.97
480.521	11.95
480.875	12.14
481.228	12.31
481.582	12.22
481.935	12.26
482.289	12.2
482.642	12.12
482.995	12.32
483.348	12.03
483.701	12.14
484.055	12.12
484.408	12.07
484.761	11.8
485.114	11.6
485.466	11.43
485.819	11.44
486.172	11.67
486.525	11.95
486.878	12.08
487.23	12.18
487.583	12.26
487.936	12.33
488.288	12.1
488.641	12.03
488.993	12.05
489.345	11.93
489.698	12.01
490.05	12.16
490.402	12.2
490.754	12.45
491.107	12.59
491.459	12.56
491.811	12.65
492.163	12.75
492.515	12.6
492.866	12.45
493.218	12.26
493.57	12.23
493.922	12.49
494.274	12.71
494.625	12.92
494.977	12.99
495.328	13.08
495.68	13.2
496.031	13.16
496.383	13.34
496.734	13.29
497.086	13.28
497.437	13.46
497.788	13.36
498.139	13.31
498.49	13.03
498.842	13.32
499.193	13.34
499.544	13.34
499.894	13.31
500.245	13.41
500.596	13.29
500.947	13.47
501.298	13.62
501.648	13.7
501.999	13.87
502.35	13.94
502.7	13.81
503.051	13.73
503.401	13.93
503.752	13.7
504.102	14.01
504.452	13.82
504.803	13.87
505.153	14.02
505.503	13.72
505.853	14.12
506.203	13.97
506.553	13.9
506.903	14.02
507.253	14.25
507.603	14.18
507.953	14.17
508.303	14.19
508.652	14.09
509.002	14.23
509.352	14.31
509.701	14.21
510.051	14.15
510.4	14.27
510.75	14.21
511.099	14.15
511.449	14.09
511.798	14.33
512.147	14.35
512.496	14.33
512.846	14.46
513.195	14.29
513.544	14.56
513.893	14.45
514.242	14.39
514.591	14.58
514.939	14.62
515.288	14.55
515.637	14.69
515.986	14.68
516.334	14.74
516.683	14.72
517.032	14.79
517.38	14.78
517.729	14.89
518.077	14.74
518.426	14.87
518.774	14.89
519.122	14.73
519.47	14.61
519.819	14.67
520.167	14.63
520.515	14.55
520.863	14.85
521.211	14.75
521.559	14.9
521.907	14.88
522.255	14.95
522.602	15.14
522.95	15.04
523.298	15.25
523.645	15.27
523.993	15.35
524.341	15.32
524.688	15.26
525.036	15.24
525.383	15.22
525.73	15.44
526.078	15.29
526.425	15.42
526.772	15.27
527.119	15.17
527.466	15.08
527.814	15.17
528.161	15.29
528.508	15.36
528.854	15.3
529.201	15.15
529.548	15.19
529.895	14.84
530.242	14.62
530.588	14.68
530.935	14.91
531.282	15.12
531.628	15.2
531.975	15.34
532.321	15.52
532.667	15.61
533.014	15.6
533.36	15.76
533.706	15.7
534.052	15.71
534.399	15.58
534.745	15.38
535.091	15.33
535.437	15.39
535.783	15.61
536.129	15.7
536.474	15.97
536.82	15.98
537.166	16.08
537.512	15.89
537.857	15.96
538.203	15.88
538.549	15.76
538.894	16.13
539.239	16.09
539.585	16.29
539.93	16.31
540.276	16.55
540.621	16.68
540.966	16.37
541.311	16.6
541.656	16.29
542.001	16.56
542.346	16.34
542.691	16.04
543.036	15.78
543.381	15.88
543.726	16.03
544.071	16.2
544.415	16.35
544.76	16.33
545.105	16.42
545.449	16.52
545.794	16.64
546.138	16.66
546.483	16.77
546.827	16.94
547.171	16.83
547.516	16.92
547.86	16.79
548.204	16.79
548.548	16.76
548.892	16.8
549.236	16.95
549.58	17.07
549.924	17.34
550.268	17.45
550.612	17.34
550.956	17.6
551.3	17.38
551.643	17.45
551.987	17.54
552.33	17.48
552.674	17.6
553.017	17.57
553.361	17.63
553.704	17.64
554.048	17.68
554.391	17.59
554.734	17.64
555.077	17.56
555.42	17.42
555.764	17.54
556.107	17.78
556.45	17.99
556.793	17.95
557.135	18.06
557.478	17.89
557.821	18.12
558.164	17.92
558.507	17.94
558.849	18.22
559.192	18.32
559.534	18.17
559.877	18.52
560.219	18.41
560.562	18.38
560.904	18.18
561.246	18.34
561.589	18.29
561.931	18.37
562.273	18.48
562.615	18.36
562.957	18.3
563.299	18.31
563.641	18.49
563.983	18.42
564.325	18.54
564.667	18.56
565.008	18.45
565.35	18.64
565.692	18.75
566.033	18.54
566.375	18.73
566.716	18.69
567.058	18.78
567.399	18.51
567.741	18.53
568.082	18.48
568.423	18.5
568.764	18.68
569.105	18.78
569.447	18.82
569.788	19.11
570.129	19.01
570.47	19.01
570.811	19.08
571.151	19.12
571.492	18.92
571.833	19.05
572.174	19.18
572.514	19.13
572.855	19.14
573.195	19.05
573.536	18.99
573.876	18.9
574.217	19.11
574.557	19.04
574.898	19.05
575.238	19.4
575.578	19.45
575.918	19.26
576.258	19.2
576.598	19.24
576.938	19.38
577.278	19.55
577.618	19.49
577.958	19.47
578.298	19.39
578.638	19.62
578.977	19.7
579.317	20.01
579.657	19.74
579.996	19.67
580.336	19.84
580.675	19.84
581.014	20.01
581.354	20.25
581.693	19.93
582.032	19.96
582.372	20.23
582.711	19.95
583.05	20.3
583.389	20.13
583.728	20.24
584.067	20.12
584.406	20.05
584.745	20.3
585.083	20.15
585.422	20.32
585.761	20.35
586.1	20.51
586.438	20.33
586.777	20.41
587.115	20.26
587.454	20.68
587.792	20.8
588.13	20.54
588.469	20.62
588.807	20.52
589.145	20.51
589.483	20.82
589.821	20.51
590.159	20.86
590.497	20.5
590.835	20.41
591.173	20.68
591.511	20.89
591.849	20.55
592.187	20.89
592.524	21.16
592.862	20.88
593.2	20.9
593.537	20.88
593.875	21.15
594.212	21.1
594.55	21.01
594.887	21.01
595.224	20.98
595.561	20.98
595.899	21.05
596.236	20.73
596.573	21.05
596.91	21.15
597.247	21.3
597.584	21
597.921	21.11
598.258	21.03
598.594	20.88
598.931	21.04
599.268	21.07
599.604	21.19
599.941	21.39
600.277	21.4
600.614	21.43
600.95	21.63
601.287	21.61
601.623	21.34
601.959	21.32
602.296	21.73
602.632	21.61
602.968	21.32
603.304	21.69
603.64	21.75
603.976	21.87
604.312	21.68
604.648	21.78
604.984	21.6
605.319	21.73
605.655	21.75
605.991	21.66
606.326	21.62
606.662	21.52
606.998	21.83
607.333	21.77
607.668	22.07
608.004	22.19
608.339	21.79
608.674	22.19
609.01	22.15
609.345	22.22
609.68	21.84
610.015	22.32
610.35	22.25
610.685	22.15
611.02	22.28
611.355	21.86
611.689	22.32
612.024	22.3
612.359	22.27
612.694	22.65
613.028	22.42
613.363	22.82
613.697	22.55
614.032	22.38
614.366	22.69
614.7	22.44
615.035	22.71
615.369	23.1
615.703	22.83
616.037	22.72
616.371	22.49
616.705	22.74
617.039	22.68
617.373	23
617.707	22.93
618.041	22.99
618.375	22.82
618.709	22.8
619.042	23.02
619.376	23.26
619.71	23.05
620.043	23.27
620.377	23
620.71	22.9
621.043	23.22
621.377	22.85
621.71	23.39
622.043	22.88
622.376	23.16
622.709	23.53
623.043	23
623.376	23.37
623.709	23.7
624.041	23.53
624.374	23.57
624.707	23.92
625.04	23.66
625.373	23.66
625.705	23.72
626.038	23.5
626.37	23.8
626.703	23.82
627.035	24.24
627.368	23.88
627.7	23.33
628.032	23.57
628.365	23.58
628.697	23.58
629.029	23.57
629.361	23.75
629.693	23.91
630.025	24.22
630.357	23.87
630.689	23.71
631.021	23.93
631.353	24.06
631.684	24.15
632.016	24.34
632.348	24.18
632.679	24.17
633.011	24.33
633.342	23.98
633.674	24.23
634.005	24.08
634.336	24.17
634.668	24.27
634.999	24.49
635.33	24.54
635.661	24.54
635.992	24.46
636.323	24.57
636.654	24.45
636.985	24.87
637.316	24.43
637.647	24.68
637.977	24.73
638.308	24.61
638.639	24.63
638.969	24.67
639.3	24.86
639.63	24.48
639.961	24.57
640.291	24.83
640.622	25.13
640.952	24.77
641.282	24.67
641.612	24.9
641.943	25.01
642.273	24.94
642.603	25.61
642.933	24.94
643.263	25.01
643.592	25.13
643.922	25.16
644.252	25.48
644.582	25.57
644.911	25.06
645.241	25.23
645.571	25.62
645.9	25.47
646.23	25.19
646.559	25.08
646.888	25.23
647.218	25.41
647.547	25.42
647.876	25.49
648.205	25.68
648.534	25.42
648.863	25.39
649.192	25.94
649.521	25.43
649.85	25.17
650.179	25.57
650.508	25.25
650.837	25.61
651.165	26.04
651.494	25.36
651.822	25.99
652.151	25.77
652.479	26.04
652.808	25.87
653.136	25.71
653.465	25.96
653.793	26.25
654.121	25.75
654.449	25.57
654.777	26.18
655.105	26
655.433	25.92
655.761	25.93
656.089	26.3
656.417	25.84
656.745	26.28
657.073	25.73
657.4	25.98
657.728	26.2
658.056	26.83
658.383	26.22
658.711	25.93
659.038	26.42
659.365	25.82
659.693	26.52
660.02	26.45
660.347	26.73
660.674	26
661.001	26.44
661.329	26.25
661.656	26.78
661.982	26.53
662.309	26.66
662.636	26.88
662.963	26.74
663.29	26.91
663.616	26.64
663.943	26.67
664.27	26.46
664.596	26.56
664.923	27
665.249	27.03
665.576	27.37
665.902	26.91
666.228	27.34
666.554	26.71
666.881	26.75
667.207	27.33
667.533	27.34
667.859	26.68
668.185	27.25
668.511	26.9
668.837	27.44
669.162	27.15
669.488	27.35
669.814	27.86
670.139	26.62
670.465	27.06
670.791	27.31
671.116	27.12
671.442	27.27
671.767	26.95
672.092	26.88
672.418	27.46
672.743	27.36
673.068	27.55
673.393	27.4
673.718	27.16
674.043	27.52
674.368	27.9
674.693	27.64
675.018	27.67
675.343	28.27
675.667	27.62
675.992	27.47
676.317	27.45
676.641	27.7
676.966	28.21
677.29	27.24
