Data from 97276_crown_Reflection__4__120.txt Node

Date: Fri Sep 23 20:36:23 CDT 2022
User: ToomeyLab
Spectrometer: FLMS14357
Trigger mode: 0
Integration Time (sec): 1.000000E-2
Scans to average: 100
Electric dark correction enabled: true
Nonlinearity correction enabled: false
Boxcar width: 0
XAxis mode: Wavelengths
Number of Pixels in Spectrum: 2048
>>>>>Begin Spectral Data<<<<<
189.047	166.05
189.435	166.05
189.823	166.05
190.211	-23.31
190.599	-177.6
190.987	125.6
191.375	-26.16
191.763	94.62
192.151	71.81
192.538	165.67
192.926	68.36
193.314	78.37
193.702	31.14
194.089	134.7
194.477	51.04
194.864	-206.9
195.252	56.25
195.639	58.96
196.027	30.48
196.414	175.68
196.801	50.38
197.189	72.9
197.576	161.49
197.963	-13.2
198.351	29.25
198.738	19.49
199.125	38.83
199.512	36.64
199.899	8.54
200.286	-22.23
200.673	36.2
201.06	33.67
201.447	47.99
201.833	14.24
202.22	21.83
202.607	36.32
202.994	-4.53
203.38	-0.13
203.767	-68.9
204.154	29.02
204.54	13.72
204.927	1.61
205.313	-4.4
205.699	-16.16
206.086	-10.93
206.472	26.02
206.858	18.95
207.245	7.82
207.631	26.1
208.017	11.39
208.403	26.96
208.789	18.59
209.175	43.1
209.561	17.92
209.947	-14.34
210.333	34.41
210.719	-16.74
211.105	20.7
211.491	-8.83
211.876	18.23
212.262	6.67
212.648	-36.9
213.034	-11.77
213.419	3.03
213.805	19.68
214.19	-16.69
214.576	-1.82
214.961	34.21
215.346	-32.42
215.732	18.24
216.117	2.33
216.502	16.54
216.888	22.96
217.273	-0.98
217.658	-5.49
218.043	41.86
218.428	29.81
218.813	27.2
219.198	35.3
219.583	1.42
219.968	7.94
220.353	15.09
220.738	0.69
221.122	14.25
221.507	5.81
221.892	-3.91
222.276	-16.86
222.661	19.05
223.046	8.42
223.43	8.72
223.815	-0.33
224.199	18.41
224.583	14.31
224.968	2.38
225.352	-1.45
225.736	-4.37
226.121	9.59
226.505	-2.75
226.889	7.21
227.273	11.84
227.657	7.77
228.041	6.35
228.425	8.74
228.809	10.99
229.193	9.47
229.577	9.25
229.961	5.99
230.344	6.62
230.728	5.97
231.112	6.45
231.495	5.67
231.879	5.24
232.263	7.06
232.646	6.23
233.03	7.15
233.413	6.77
233.797	6.05
234.18	8.73
234.563	4.44
234.946	6.66
235.33	7.17
235.713	7.89
236.096	5
236.479	6.44
236.862	6.95
237.245	6.39
237.628	6.03
238.011	7.81
238.394	6.63
238.777	7.32
239.16	6.33
239.543	6.76
239.925	5.57
240.308	7.67
240.691	7.18
241.073	5.9
241.456	6.71
241.838	7.54
242.221	6.57
242.603	6.83
242.986	5.57
243.368	6.05
243.75	5.81
244.133	6.82
244.515	6.06
244.897	6.43
245.279	6.22
245.661	6.18
246.043	6.66
246.425	6.13
246.807	5.54
247.189	6.36
247.571	6.8
247.953	5.95
248.335	6.55
248.717	6.26
249.098	6.23
249.48	6.05
249.862	6.13
250.243	6.44
250.625	5.94
251.006	6.39
251.388	5.18
251.769	6.72
252.151	5.31
252.532	5.93
252.913	5.82
253.295	6.31
253.676	5.62
254.057	6.17
254.438	5.55
254.819	6.45
255.2	6.2
255.581	6.84
255.962	5.14
256.343	6.24
256.724	5.67
257.105	5.99
257.486	5.78
257.867	5.5
258.247	5.85
258.628	5.17
259.009	5.4
259.389	5.48
259.77	4.92
260.15	5.67
260.531	5.98
260.911	5.97
261.292	5.89
261.672	5.74
262.052	5.43
262.432	5.36
262.813	5.7
263.193	5.94
263.573	5.29
263.953	5.7
264.333	5.5
264.713	5.4
265.093	6.01
265.473	5.65
265.853	5.22
266.233	4.8
266.612	5.67
266.992	6.19
267.372	5.09
267.752	5.7
268.131	6.24
268.511	5.21
268.89	5.78
269.27	5.41
269.649	5.23
270.029	4.92
270.408	6.15
270.787	4.96
271.167	4.81
271.546	5.62
271.925	5.03
272.304	5.05
272.683	4.99
273.062	5.25
273.441	5.37
273.82	5.35
274.199	4.69
274.578	5.07
274.957	5.2
275.336	5.07
275.715	5.15
276.093	5.47
276.472	5.71
276.851	5.39
277.229	5.33
277.608	5.2
277.986	4.86
278.365	5.67
278.743	5.81
279.122	4.57
279.5	5.31
279.878	5.09
280.257	5.21
280.635	5.08
281.013	5.42
281.391	4.5
281.769	5.07
282.147	4.67
282.525	4.72
282.903	4.88
283.281	5.28
283.659	4.99
284.037	5.13
284.415	4.68
284.792	4.56
285.17	4.92
285.548	4.67
285.925	4.99
286.303	5.67
286.68	5.12
287.058	5.14
287.435	4.8
287.813	5.12
288.19	4.79
288.567	4.9
288.945	4.83
289.322	4.91
289.699	5.04
290.076	5.02
290.453	5.07
290.83	4.83
291.207	4.77
291.584	5.16
291.961	4.84
292.338	4.8
292.715	4.53
293.092	4.41
293.469	5.11
293.845	5.22
294.222	4.89
294.599	4.65
294.975	4.9
295.352	4.89
295.728	4.22
296.105	4.66
296.481	4.62
296.858	4.56
297.234	4.65
297.61	4.61
297.986	4.68
298.363	4.75
298.739	4.94
299.115	4.58
299.491	4.56
299.867	4.33
300.243	4.58
300.619	5.15
300.995	5.16
301.371	4.35
301.746	5.35
302.122	4.6
302.498	4.56
302.874	4.02
303.249	5.04
303.625	4.73
304	4.48
304.376	4.39
304.751	4.19
305.127	4.26
305.502	4.41
305.878	4.53
306.253	4.72
306.628	4.32
307.003	3.9
307.378	4.67
307.754	5.11
308.129	4.48
308.504	4.32
308.879	4.37
309.254	4.72
309.629	4.73
310.003	4.86
310.378	4.56
310.753	4.51
311.128	3.88
311.502	4.31
311.877	4.63
312.252	4.26
312.626	4.29
313.001	4.63
313.375	4.54
313.75	3.79
314.124	4.25
314.498	4.66
314.873	4.85
315.247	4.92
315.621	4.83
315.995	4.67
316.369	4.59
316.743	4.08
317.117	3.6
317.491	4.33
317.865	4.72
318.239	4.43
318.613	4.05
318.987	4.28
319.361	4.09
319.734	4.11
320.108	3.8
320.482	4.33
320.855	4.07
321.229	4.66
321.602	4.24
321.976	4.88
322.349	4.45
322.723	4.51
323.096	4.46
323.469	4.04
323.843	4.4
324.216	4.84
324.589	5.03
324.962	4.31
325.335	4.27
325.708	4.65
326.081	4.76
326.454	4.76
326.827	4.05
327.2	4.33
327.573	4.43
327.945	4.91
328.318	4.2
328.691	4.67
329.063	4.39
329.436	4.26
329.809	5.06
330.181	4.18
330.553	4.23
330.926	4.54
331.298	4.14
331.671	4.68
332.043	4.39
332.415	4.19
332.787	4.29
333.159	4.52
333.532	4.32
333.904	4.03
334.276	4.15
334.648	4.19
335.02	4.42
335.391	4.11
335.763	4.25
336.135	4.61
336.507	5.08
336.879	4.27
337.25	4.85
337.622	4.41
337.993	3.95
338.365	4.47
338.736	4.85
339.108	4.55
339.479	4.5
339.851	4.83
340.222	4.61
340.593	4.12
340.964	4.26
341.336	4.56
341.707	5.25
342.078	4.13
342.449	4.32
342.82	4.24
343.191	4.21
343.562	4.19
343.933	5.07
344.303	4.44
344.674	4.5
345.045	4.39
345.416	4.12
345.786	4.78
346.157	4.56
346.527	4.53
346.898	4.71
347.268	4.55
347.639	4.3
348.009	4.58
348.38	4.4
348.75	4.45
349.12	4.75
349.49	4.53
349.861	4.9
350.231	4.37
350.601	4.13
350.971	4.23
351.341	4.72
351.711	4.59
352.081	4.62
352.45	4.33
352.82	4.29
353.19	5.07
353.56	5.07
353.929	4.65
354.299	4.45
354.669	4.93
355.038	4.77
355.408	4.35
355.777	4.67
356.147	4.52
356.516	4.86
356.885	4.62
357.254	4.5
357.624	4.6
357.993	4.96
358.362	4.4
358.731	4.47
359.1	4.75
359.469	4.49
359.838	4.64
360.207	4.84
360.576	4.53
360.945	4.47
361.314	4.43
361.682	4.27
362.051	4.83
362.42	4.62
362.788	4.51
363.157	4.66
363.525	4.96
363.894	4.76
364.262	4.48
364.631	4.53
364.999	4.54
365.367	4.67
365.735	5
366.104	4.95
366.472	4.69
366.84	4.74
367.208	4.8
367.576	4.96
367.944	4.54
368.312	4.96
368.68	4.72
369.048	4.34
369.416	4.82
369.783	4.79
370.151	5.07
370.519	4.76
370.886	5.04
371.254	4.98
371.621	4.82
371.989	4.7
372.356	5.3
372.724	4.62
373.091	5.02
373.458	4.7
373.826	4.83
374.193	4.78
374.56	4.92
374.927	5.24
375.294	5.17
375.661	4.68
376.028	4.81
376.395	4.88
376.762	4.68
377.129	4.76
377.496	4.9
377.863	5.12
378.229	4.74
378.596	4.87
378.963	5.39
379.329	5.18
379.696	4.91
380.062	4.95
380.429	5
380.795	4.84
381.161	4.96
381.528	5.14
381.894	4.79
382.26	4.77
382.626	4.86
382.993	5.23
383.359	4.96
383.725	5.38
384.091	5.15
384.457	5.07
384.823	5.12
385.188	5.05
385.554	5.35
385.92	5.47
386.286	4.76
386.651	5.08
387.017	5.27
387.383	4.89
387.748	5.23
388.114	5.2
388.479	5.29
388.845	5.29
389.21	5.01
389.575	4.99
389.94	4.79
390.306	5.18
390.671	5.18
391.036	4.82
391.401	5.47
391.766	5.21
392.131	5.19
392.496	5.06
392.861	5.28
393.226	4.91
393.591	5.12
393.956	5.08
394.32	5.26
394.685	5.13
395.05	5.25
395.414	5.25
395.779	5.1
396.143	5.19
396.508	5.06
396.872	5.02
397.236	5.18
397.601	5.05
397.965	5.46
398.329	5.36
398.694	5.12
399.058	5.13
399.422	5.49
399.786	5.26
400.15	5.06
400.514	5.1
400.878	5.43
401.242	5.27
401.605	5.55
401.969	5.3
402.333	5.36
402.697	5
403.06	5.36
403.424	5.33
403.787	5.38
404.151	5.4
404.514	5.54
404.878	5.17
405.241	5.1
405.604	5.14
405.968	5.15
406.331	5.22
406.694	5.43
407.057	5.13
407.42	5.39
407.783	5.33
408.146	5.26
408.509	5.31
408.872	5.26
409.235	5.21
409.598	5.56
409.961	5.44
410.323	5.37
410.686	5.43
411.049	5.18
411.411	5.22
411.774	5.31
412.136	5.44
412.499	5.37
412.861	5.32
413.223	5.39
413.586	5.4
413.948	5.43
414.31	5.19
414.672	5.37
415.035	5.26
415.397	5.72
415.759	5.67
416.121	5.46
416.483	5.44
416.845	5.26
417.206	5.3
417.568	5.38
417.93	5.38
418.292	5.45
418.653	5.36
419.015	5.33
419.377	5.22
419.738	5.53
420.1	5.41
420.461	5.4
420.822	5.47
421.184	5.48
421.545	5.46
421.906	5.48
422.267	5.44
422.629	5.32
422.99	5.36
423.351	5.38
423.712	5.29
424.073	5.28
424.434	5.42
424.795	5.47
425.155	5.4
425.516	5.36
425.877	5.41
426.238	5.42
426.598	5.33
426.959	5.4
427.32	5.45
427.68	5.44
428.041	5.44
428.401	5.47
428.761	5.53
429.122	5.49
429.482	5.51
429.842	5.64
430.202	5.67
430.563	5.61
430.923	5.78
431.283	5.73
431.643	5.62
432.003	5.43
432.363	5.7
432.722	5.62
433.082	5.53
433.442	5.55
433.802	5.49
434.161	5.57
434.521	5.6
434.881	5.52
435.24	5.6
435.6	5.44
435.959	5.54
436.319	5.54
436.678	5.52
437.037	5.76
437.396	5.68
437.756	5.58
438.115	5.52
438.474	5.55
438.833	5.75
439.192	5.69
439.551	5.66
439.91	5.49
440.269	5.7
440.628	5.56
440.987	5.49
441.345	5.61
441.704	5.7
442.063	5.61
442.421	5.53
442.78	5.41
443.138	5.54
443.497	5.7
443.855	5.64
444.214	5.74
444.572	5.64
444.93	5.54
445.288	5.71
445.647	5.77
446.005	5.65
446.363	5.68
446.721	5.76
447.079	5.65
447.437	5.7
447.795	5.74
448.153	5.59
448.51	5.56
448.868	5.64
449.226	5.7
449.584	5.53
449.941	5.68
450.299	5.78
450.656	5.6
451.014	5.73
451.371	5.67
451.729	5.55
452.086	5.82
452.443	5.7
452.801	5.83
453.158	5.58
453.515	5.75
453.872	5.68
454.229	5.74
454.586	5.75
454.943	5.76
455.3	5.57
455.657	5.69
456.014	5.83
456.371	5.68
456.727	5.8
457.084	5.68
457.441	5.79
457.797	5.64
458.154	5.72
458.51	5.77
458.867	5.89
459.223	5.77
459.58	5.77
459.936	5.88
460.292	5.6
460.648	5.9
461.005	5.96
461.361	5.78
461.717	5.79
462.073	5.75
462.429	5.66
462.785	5.81
463.141	5.72
463.496	5.83
463.852	5.83
464.208	5.79
464.564	5.99
464.919	5.95
465.275	5.78
465.631	5.75
465.986	5.77
466.342	5.75
466.697	5.9
467.052	5.92
467.408	5.91
467.763	5.82
468.118	5.91
468.473	5.87
468.829	5.87
469.184	5.9
469.539	5.79
469.894	5.86
470.249	5.81
470.603	5.88
470.958	5.82
471.313	5.96
471.668	5.89
472.023	5.82
472.377	5.84
472.732	5.92
473.086	6.04
473.441	6
473.795	6.13
474.15	6.05
474.504	5.88
474.859	5.79
475.213	5.94
475.567	5.6
475.921	5.9
476.275	5.79
476.63	5.85
476.984	6.05
477.338	5.93
477.692	5.79
478.045	5.77
478.399	5.93
478.753	5.96
479.107	5.86
479.461	5.78
479.814	5.95
480.168	5.83
480.521	5.87
480.875	5.86
481.228	5.91
481.582	6
481.935	6
482.289	6.06
482.642	5.91
482.995	5.98
483.348	5.71
483.701	5.92
484.055	5.8
484.408	5.8
484.761	5.75
485.114	5.69
485.466	5.63
485.819	5.57
486.172	5.57
486.525	5.59
486.878	5.57
487.23	5.63
487.583	5.63
487.936	5.76
488.288	5.83
488.641	5.74
488.993	5.72
489.345	5.66
489.698	5.62
490.05	5.67
490.402	5.64
490.754	5.72
491.107	5.72
491.459	5.73
491.811	5.82
492.163	5.88
492.515	5.81
492.866	5.84
493.218	5.68
493.57	5.71
493.922	5.73
494.274	5.67
494.625	5.72
494.977	5.75
495.328	5.82
495.68	5.98
496.031	5.84
496.383	6.08
496.734	5.91
497.086	5.89
497.437	5.96
497.788	5.93
498.139	5.95
498.49	5.81
498.842	5.91
499.193	5.91
499.544	5.77
499.894	5.87
500.245	5.86
500.596	5.89
500.947	5.84
501.298	5.95
501.648	6.07
501.999	5.94
502.35	6
502.7	6.02
503.051	5.81
503.401	5.82
503.752	5.93
504.102	6.04
504.452	5.83
504.803	5.95
505.153	5.9
505.503	5.84
505.853	6.11
506.203	5.98
506.553	6
506.903	5.95
507.253	5.87
507.603	5.98
507.953	5.92
508.303	5.9
508.652	5.92
509.002	5.94
509.352	6.04
509.701	5.87
510.051	6.06
510.4	5.96
510.75	5.96
511.099	5.8
511.449	5.82
511.798	5.85
512.147	5.87
512.496	5.89
512.846	5.96
513.195	5.85
513.544	6.06
513.893	5.87
514.242	5.98
514.591	5.79
514.939	5.98
515.288	5.92
515.637	5.92
515.986	5.97
516.334	5.73
516.683	5.89
517.032	5.94
517.38	6
517.729	5.97
518.077	5.9
518.426	6.05
518.774	5.97
519.122	5.95
519.47	5.89
519.819	5.87
520.167	5.81
520.515	5.78
520.863	5.92
521.211	5.79
521.559	5.77
521.907	5.83
522.255	5.87
522.602	5.82
522.95	5.93
523.298	5.83
523.645	5.94
523.993	5.89
524.341	6.05
524.688	5.92
525.036	5.9
525.383	5.77
525.73	5.97
526.078	5.88
526.425	5.94
526.772	5.89
527.119	5.87
527.466	5.79
527.814	5.84
528.161	5.84
528.508	5.82
528.854	5.85
529.201	5.87
529.548	5.77
529.895	5.77
530.242	5.66
530.588	5.66
530.935	5.7
531.282	5.63
531.628	5.62
531.975	5.63
532.321	5.67
532.667	5.76
533.014	5.78
533.36	5.8
533.706	5.81
534.052	5.84
534.399	5.8
534.745	5.71
535.091	5.71
535.437	5.68
535.783	5.75
536.129	5.71
536.474	5.77
536.82	5.72
537.166	5.8
537.512	5.85
537.857	5.77
538.203	5.8
538.549	5.68
538.894	5.81
539.239	5.83
539.585	5.91
539.93	5.91
540.276	5.88
540.621	5.85
540.966	5.89
541.311	5.95
541.656	5.83
542.001	5.91
542.346	5.94
542.691	5.79
543.036	5.75
543.381	5.73
543.726	5.67
544.071	5.67
544.415	5.76
544.76	5.66
545.105	5.75
545.449	5.79
545.794	5.81
546.138	5.8
546.483	5.76
546.827	5.84
547.171	5.76
547.516	5.93
547.86	5.79
548.204	5.86
548.548	5.77
548.892	5.75
549.236	5.93
549.58	5.79
549.924	5.84
550.268	5.95
550.612	5.91
550.956	5.9
551.3	5.84
551.643	5.76
551.987	5.87
552.33	5.72
552.674	5.85
553.017	5.95
553.361	5.87
553.704	5.85
554.048	5.92
554.391	5.85
554.734	5.88
555.077	5.77
555.42	5.87
555.764	5.71
556.107	5.83
556.45	5.87
556.793	5.82
557.135	5.77
557.478	5.95
557.821	5.95
558.164	5.83
558.507	5.88
558.849	5.96
559.192	6.07
559.534	6.09
559.877	6.08
560.219	5.82
560.562	6.13
560.904	5.84
561.246	5.72
561.589	5.99
561.931	6.03
562.273	6.01
562.615	5.83
562.957	5.81
563.299	5.77
563.641	6.02
563.983	5.91
564.325	5.82
564.667	5.97
565.008	5.76
565.35	5.87
565.692	5.73
566.033	5.92
566.375	6.08
566.716	5.85
567.058	5.86
567.399	5.73
567.741	5.74
568.082	5.84
568.423	5.64
568.764	5.91
569.105	5.69
569.447	5.77
569.788	5.84
570.129	5.75
570.47	5.87
570.811	5.93
571.151	6
571.492	5.81
571.833	5.87
572.174	5.73
572.514	5.94
572.855	5.76
573.195	5.71
573.536	5.96
573.876	5.69
574.217	5.8
574.557	5.83
574.898	5.94
575.238	5.91
575.578	5.81
575.918	5.74
576.258	5.91
576.598	5.84
576.938	5.9
577.278	5.81
577.618	5.63
577.958	5.88
578.298	5.86
578.638	5.65
578.977	5.97
579.317	5.96
579.657	5.93
579.996	5.77
580.336	6.03
580.675	5.95
581.014	5.74
581.354	5.91
581.693	5.92
582.032	5.92
582.372	6.17
582.711	5.86
583.05	5.94
583.389	5.84
583.728	5.71
584.067	5.93
584.406	5.72
584.745	5.83
585.083	5.82
585.422	5.8
585.761	5.94
586.1	5.78
586.438	5.75
586.777	5.72
587.115	5.64
587.454	5.89
587.792	5.96
588.13	6.02
588.469	5.78
588.807	5.74
589.145	5.74
589.483	5.96
589.821	5.97
590.159	5.59
590.497	5.71
590.835	5.68
591.173	5.77
591.511	5.96
591.849	5.56
592.187	5.79
592.524	5.91
592.862	6.01
593.2	5.83
593.537	5.95
593.875	5.86
594.212	5.99
594.55	5.84
594.887	5.8
595.224	5.76
595.561	5.75
595.899	5.83
596.236	5.77
596.573	5.85
596.91	5.89
597.247	5.97
597.584	5.97
597.921	5.78
598.258	5.68
598.594	5.81
598.931	5.79
599.268	5.7
599.604	5.77
599.941	5.88
600.277	5.8
600.614	5.86
600.95	5.83
601.287	5.67
601.623	5.85
601.959	5.67
602.296	5.83
602.632	5.69
602.968	5.51
603.304	5.91
603.64	5.6
603.976	5.87
604.312	5.86
604.648	5.9
604.984	5.68
605.319	5.78
605.655	5.7
605.991	5.82
606.326	5.79
606.662	5.75
606.998	5.8
607.333	5.66
607.668	5.62
608.004	5.73
608.339	5.71
608.674	5.94
609.01	5.83
609.345	5.82
609.68	5.99
610.015	5.95
610.35	5.84
610.685	5.46
611.02	6.01
611.355	5.85
611.689	5.74
612.024	5.72
612.359	5.78
612.694	6.16
613.028	5.66
613.363	5.97
613.697	5.74
614.032	5.84
614.366	5.77
614.7	5.88
615.035	5.93
615.369	5.83
615.703	5.8
616.037	5.7
616.371	5.94
616.705	5.75
617.039	5.89
617.373	5.71
617.707	6.35
618.041	6.33
618.375	6.15
618.709	5.9
619.042	5.98
619.376	6.14
619.71	5.84
620.043	5.61
620.377	5.57
620.71	5.95
621.043	5.71
621.377	5.57
621.71	6.18
622.043	5.61
622.376	5.62
622.709	5.79
623.043	5.54
623.376	5.92
623.709	6.07
624.041	5.82
624.374	5.92
624.707	5.89
625.04	6.21
625.373	5.85
625.705	5.83
626.038	5.97
626.37	6.01
626.703	5.66
627.035	6.17
627.368	5.69
627.7	6.12
628.032	5.71
628.365	5.91
628.697	5.7
629.029	5.99
629.361	5.9
629.693	5.74
630.025	5.84
630.357	6.15
630.689	5.83
631.021	5.87
631.353	6.05
631.684	5.87
632.016	5.88
632.348	5.53
632.679	5.92
633.011	5.9
633.342	6.01
633.674	6.11
634.005	5.56
634.336	5.94
634.668	5.97
634.999	5.77
635.33	6.17
635.661	5.85
635.992	6.07
636.323	6.46
636.654	5.99
636.985	5.87
637.316	5.6
637.647	5.74
637.977	5.84
638.308	6
638.639	5.82
638.969	5.76
639.3	5.72
639.63	5.87
639.961	6.25
640.291	5.75
640.622	5.93
640.952	5.86
641.282	5.94
641.612	5.76
641.943	5.91
642.273	5.75
642.603	5.97
642.933	6.04
643.263	6.23
643.592	6.19
643.922	6.16
644.252	6.31
644.582	6.18
644.911	5.77
645.241	6.08
645.571	6.33
645.9	5.69
646.23	6.28
646.559	5.82
646.888	6.53
647.218	5.87
647.547	5.98
647.876	5.53
648.205	5.87
648.534	6.19
648.863	5.78
649.192	6.43
649.521	5.82
649.85	5.68
650.179	5.39
650.508	5.76
650.837	6.13
651.165	5.95
651.494	5.8
651.822	6.03
652.151	5.83
652.479	5.92
652.808	6.04
653.136	5.79
653.465	5.72
653.793	5.98
654.121	6.03
654.449	5.99
654.777	6.23
655.105	6.14
655.433	6.06
655.761	6.12
656.089	6.39
656.417	6.23
656.745	6.03
657.073	4.94
657.4	6.39
657.728	5.74
658.056	6.42
658.383	5.81
658.711	6.06
659.038	5.81
659.365	5.77
659.693	6.31
660.02	6.18
660.347	6.19
660.674	5.78
661.001	6.74
661.329	5.91
661.656	6.2
661.982	5.96
662.309	6.18
662.636	6.01
662.963	6.11
663.29	6.07
663.616	6.31
663.943	6.17
664.27	6.3
664.596	6.31
664.923	5.89
665.249	6.76
665.576	6.64
665.902	6.12
666.228	6.61
666.554	5.96
666.881	6.14
667.207	6.14
667.533	6.14
667.859	5.56
668.185	6.59
668.511	6.01
668.837	6.35
669.162	6.12
669.488	6.09
669.814	5.69
670.139	6.14
670.465	6.19
670.791	5.84
671.116	6.3
671.442	6.46
671.767	5.62
672.092	5.45
672.418	6.66
672.743	6.32
673.068	5.83
673.393	6.38
673.718	6.28
674.043	6.49
674.368	6.28
674.693	6.11
675.018	5.9
675.343	6.66
675.667	6.35
675.992	6.14
676.317	6.19
676.641	6.33
676.966	6.42
677.29	6.3
677.615	6.66
677.939	6.71
678.264	5.74
678.588	5.73
678.912	5.95
679.236	5.83
679.56	5.68
679.885	5.79
680.209	6.69
680.532	5.83
680.856	6.27
681.18	6.12
681.504	6.5
681.828	6.37
682.152	6.46
682.475	6.17
682.799	6.75
683.122	5.78
683.446	6.52
683.769	5.66
684.093	7.05
684.416	7.12
684.739	6.22
685.062	5.82
685.386	6.16
685.709	6.16
686.032	6.31
686.355	6.33
686.678	6.43
687.001	6.4
687.324	6.42
687.646	7.15
687.969	6.49
688.292	5.61
688.614	6.45
688.937	6.39
689.26	5.83
689.582	6.47
689.904	6.48
690.227	6.58
690.549	6.29
690.871	6.63
691.194	6.32
691.516	6.55
691.838	6.68
692.16	6.58
692.482	6.83
