Data from 97276_crown_Reflection__2__118.txt Node

Date: Fri Sep 23 20:36:03 CDT 2022
User: ToomeyLab
Spectrometer: FLMS14357
Trigger mode: 0
Integration Time (sec): 1.000000E-2
Scans to average: 100
Electric dark correction enabled: true
Nonlinearity correction enabled: false
Boxcar width: 0
XAxis mode: Wavelengths
Number of Pixels in Spectrum: 2048
>>>>>Begin Spectral Data<<<<<
189.047	281.43
189.435	281.43
189.823	281.43
190.211	56.49
190.599	35.27
190.987	107.11
191.375	-25.16
191.763	83.29
192.151	13.09
192.538	55.32
192.926	72.01
193.314	73.55
193.702	94.18
194.089	-106.83
194.477	53.53
194.864	207.93
195.252	71.7
195.639	87.83
196.027	53.66
196.414	33.08
196.801	89.04
197.189	-206.74
197.576	72.35
197.963	-56.09
198.351	31.68
198.738	-14.54
199.125	-12.36
199.512	8.49
199.899	37.65
200.286	-3.35
200.673	32.58
201.06	81.58
201.447	42.26
201.833	0.61
202.22	5.7
202.607	20.74
202.994	-4.2
203.38	4.76
203.767	-78.41
204.154	58.82
204.54	14.12
204.927	19.47
205.313	37.42
205.699	1.18
206.086	-10.26
206.472	13.89
206.858	15.44
207.245	9.18
207.631	11.06
208.017	4.63
208.403	11.2
208.789	17.03
209.175	-14.04
209.561	8.66
209.947	22.63
210.333	21.13
210.719	9.23
211.105	1.35
211.491	4.89
211.876	42.35
212.262	6.35
212.648	-27.34
213.034	-5.09
213.419	-8.53
213.805	37.09
214.19	-17.84
214.576	-0.06
214.961	30.31
215.346	-38.76
215.732	19.77
216.117	4.96
216.502	-4
216.888	11.93
217.273	22.73
217.658	-17.07
218.043	2.76
218.428	-12.67
218.813	19.1
219.198	11.68
219.583	16.04
219.968	-7.27
220.353	2.62
220.738	6.31
221.122	0.84
221.507	8.21
221.892	22.73
222.276	-3.49
222.661	5.07
223.046	3.77
223.43	5.37
223.815	1.02
224.199	-3.9
224.583	12.74
224.968	4.63
225.352	4.94
225.736	2.09
226.121	2.93
226.505	9.17
226.889	6.63
227.273	3.99
227.657	1.58
228.041	6.07
228.425	7.3
228.809	4.08
229.193	6.18
229.577	8
229.961	5.96
230.344	6.06
230.728	5.97
231.112	5.41
231.495	4.57
231.879	4.26
232.263	6.24
232.646	5.96
233.03	5.74
233.413	6.13
233.797	5.07
234.18	9.08
234.563	4.72
234.946	7.97
235.33	6.73
235.713	7
236.096	5.11
236.479	4.8
236.862	5.76
237.245	5.92
237.628	6.83
238.011	5.74
238.394	6.28
238.777	5.65
239.16	5.76
239.543	5.39
239.925	5.81
240.308	7.14
240.691	5.78
241.073	3.73
241.456	5.66
241.838	6.45
242.221	5.97
242.603	6.75
242.986	5.2
243.368	5.12
243.75	5.33
244.133	6.19
244.515	5.56
244.897	5.84
245.279	5.95
245.661	5.53
246.043	6.1
246.425	5.37
246.807	4.71
247.189	6.11
247.571	5.67
247.953	5.52
248.335	5.58
248.717	5.35
249.098	5.45
249.48	5.41
249.862	5.34
250.243	5.52
250.625	5.45
251.006	5.7
251.388	5
251.769	6.03
252.151	3.8
252.532	5.9
252.913	5.75
253.295	5.87
253.676	5.73
254.057	5.28
254.438	5.3
254.819	5.6
255.2	5.47
255.581	6.07
255.962	4.27
256.343	5.3
256.724	5.15
257.105	5.57
257.486	5.21
257.867	5.11
258.247	6.72
258.628	4.97
259.009	4.61
259.389	5.11
259.77	4.82
260.15	4.9
260.531	5.65
260.911	5.59
261.292	5.24
261.672	5.11
262.052	5.13
262.432	4.85
262.813	5.13
263.193	5.57
263.573	5.66
263.953	5.14
264.333	5.27
264.713	5.48
265.093	4.75
265.473	5.59
265.853	5.3
266.233	4.65
266.612	4.8
266.992	5.8
267.372	5.19
267.752	5.05
268.131	5.45
268.511	4.75
268.89	4.81
269.27	4.82
269.649	4.46
270.029	4.92
270.408	4.58
270.787	4.74
271.167	4.31
271.546	5.11
271.925	4.7
272.304	5.03
272.683	5.07
273.062	5.1
273.441	4.92
273.82	4.78
274.199	4.54
274.578	4.98
274.957	4.68
275.336	4.88
275.715	4.56
276.093	5.07
276.472	5.25
276.851	4.97
277.229	5.28
277.608	4.69
277.986	4.22
278.365	4.94
278.743	5.21
279.122	4.63
279.5	4.65
279.878	4.02
280.257	4.98
280.635	4.75
281.013	4.96
281.391	4.82
281.769	4.54
282.147	5.01
282.525	4.88
282.903	4.43
283.281	4.72
283.659	4.65
284.037	4.59
284.415	4.65
284.792	4.39
285.17	4.64
285.548	4.26
285.925	4.66
286.303	5.04
286.68	4.37
287.058	4.4
287.435	4.33
287.813	4.45
288.19	4.4
288.567	4.52
288.945	4.4
289.322	4.98
289.699	4.72
290.076	4.71
290.453	4.56
290.83	4.5
291.207	4.53
291.584	5.04
291.961	4.52
292.338	4.66
292.715	4.24
293.092	4.04
293.469	4.81
293.845	4.56
294.222	4.74
294.599	4.31
294.975	4.73
295.352	4.17
295.728	4.55
296.105	4.54
296.481	4.55
296.858	4.44
297.234	4.1
297.61	4.2
297.986	4.33
298.363	4.48
298.739	4.63
299.115	4.26
299.491	4.34
299.867	3.94
300.243	4.05
300.619	4.85
300.995	4.42
301.371	4.08
301.746	4.39
302.122	3.98
302.498	4.58
302.874	4.26
303.249	4.03
303.625	4.31
304	4.3
304.376	4.16
304.751	4.06
305.127	4.25
305.502	4.38
305.878	4.11
306.253	4.54
306.628	4.02
307.003	3.72
307.378	4.42
307.754	4.56
308.129	4.03
308.504	3.99
308.879	3.94
309.254	3.71
309.629	5.01
310.003	4.06
310.378	4.53
310.753	3.88
311.128	3.84
311.502	4.01
311.877	3.77
312.252	4.04
312.626	4.29
313.001	3.99
313.375	4.34
313.75	3.82
314.124	3.72
314.498	4.22
314.873	3.85
315.247	4.42
315.621	4.36
315.995	4.61
316.369	4.25
316.743	3.91
317.117	3.37
317.491	4.3
317.865	4.36
318.239	4.5
318.613	3.86
318.987	3.9
319.361	3.56
319.734	3.89
320.108	4.26
320.482	4.66
320.855	3.73
321.229	4.16
321.602	4.06
321.976	4.53
322.349	3.97
322.723	4.47
323.096	4.04
323.469	3.7
323.843	3.61
324.216	4.63
324.589	4.18
324.962	4.57
325.335	3.92
325.708	4.08
326.081	4.04
326.454	3.76
326.827	4.06
327.2	4.24
327.573	4.17
327.945	4.33
328.318	3.9
328.691	3.94
329.063	4.11
329.436	4.12
329.809	4.58
330.181	4.16
330.553	3.73
330.926	4.03
331.298	4.04
331.671	4.19
332.043	4.01
332.415	4.27
332.787	4.02
333.159	4.01
333.532	3.89
333.904	3.51
334.276	3.53
334.648	4.4
335.02	3.94
335.391	4.24
335.763	3.98
336.135	4.38
336.507	3.38
336.879	4.1
337.25	4.26
337.622	4.14
337.993	4.25
338.365	4.26
338.736	4.02
339.108	4.25
339.479	3.53
339.851	4.26
340.222	4.27
340.593	3.82
340.964	4.18
341.336	4.23
341.707	4.77
342.078	4.05
342.449	4.4
342.82	4.14
343.191	4.03
343.562	4.07
343.933	4.26
344.303	3.89
344.674	4.52
345.045	3.93
345.416	4.08
345.786	4.65
346.157	4.22
346.527	3.93
346.898	4.14
347.268	4
347.639	3.96
348.009	3.99
348.38	4.19
348.75	3.92
349.12	3.89
349.49	4.07
349.861	3.44
350.231	3.99
350.601	4.06
350.971	4.24
351.341	4.01
351.711	4.11
352.081	4.11
352.45	3.9
352.82	4.02
353.19	4.77
353.56	4.1
353.929	3.86
354.299	4.27
354.669	4.17
355.038	4.37
355.408	3.97
355.777	3.99
356.147	3.83
356.516	4.26
356.885	4.21
357.254	3.66
357.624	4.1
357.993	4.21
358.362	4.02
358.731	4.21
359.1	4.05
359.469	4.07
359.838	4.18
360.207	4.35
360.576	4.17
360.945	3.82
361.314	3.86
361.682	3.94
362.051	4.24
362.42	4.33
362.788	3.99
363.157	4.41
363.525	4.42
363.894	4.18
364.262	3.99
364.631	4.3
364.999	4.04
365.367	4.14
365.735	4.22
366.104	4.19
366.472	4.23
366.84	4.23
367.208	4.39
367.576	4.5
367.944	4.1
368.312	4.23
368.68	4.35
369.048	4.37
369.416	4.29
369.783	4.25
370.151	4.49
370.519	4.29
370.886	4.5
371.254	4.52
371.621	4.44
371.989	4.06
372.356	4.57
372.724	4.03
373.091	4.35
373.458	3.9
373.826	4.2
374.193	4.4
374.56	4.3
374.927	4.35
375.294	4.44
375.661	4.13
376.028	4.21
376.395	4.23
376.762	4.24
377.129	4
377.496	4.3
377.863	4.61
378.229	4.51
378.596	4.32
378.963	4.43
379.329	4.64
379.696	4.36
380.062	4.31
380.429	4.24
380.795	4.24
381.161	4.63
381.528	4.34
381.894	4.34
382.26	4.45
382.626	4.19
382.993	4.59
383.359	4.41
383.725	4.38
384.091	4.48
384.457	4.71
384.823	4.38
385.188	4.73
385.554	4.67
385.92	4.58
386.286	4.42
386.651	4.26
387.017	4.58
387.383	4.31
387.748	4.64
388.114	4.5
388.479	4.32
388.845	4.41
389.21	4.35
389.575	4.45
389.94	4.36
390.306	4.23
390.671	4.5
391.036	4.5
391.401	4.73
391.766	4.64
392.131	4.33
392.496	4.44
392.861	4.72
393.226	4.27
393.591	4.42
393.956	4.5
394.32	4.63
394.685	4.41
395.05	4.57
395.414	4.39
395.779	4.54
396.143	4.65
396.508	4.76
396.872	4.49
397.236	4.73
397.601	4.29
397.965	4.63
398.329	4.92
398.694	4.65
399.058	4.62
399.422	4.89
399.786	4.85
400.15	4.73
400.514	4.53
400.878	4.75
401.242	4.59
401.605	4.93
401.969	4.84
402.333	4.51
402.697	4.24
403.06	4.84
403.424	4.64
403.787	4.68
404.151	4.61
404.514	4.52
404.878	4.66
405.241	4.7
405.604	4.64
405.968	4.49
406.331	4.53
406.694	4.73
407.057	4.69
407.42	4.8
407.783	4.62
408.146	4.59
408.509	4.74
408.872	4.64
409.235	4.73
409.598	4.98
409.961	4.64
410.323	4.52
410.686	4.55
411.049	4.81
411.411	4.99
411.774	4.4
412.136	4.88
412.499	4.51
412.861	4.63
413.223	4.68
413.586	4.6
413.948	4.5
414.31	4.64
414.672	4.82
415.035	4.88
415.397	4.82
415.759	5
416.121	4.87
416.483	4.61
416.845	4.6
417.206	4.76
417.568	4.66
417.93	4.82
418.292	4.97
418.653	4.72
419.015	4.87
419.377	4.61
419.738	4.62
420.1	4.71
420.461	4.71
420.822	4.75
421.184	4.9
421.545	4.74
421.906	4.82
422.267	4.69
422.629	4.6
422.99	4.7
423.351	4.74
423.712	4.7
424.073	4.7
424.434	4.75
424.795	4.8
425.155	4.78
425.516	4.87
425.877	4.87
426.238	4.8
426.598	4.74
426.959	4.75
427.32	4.87
427.68	4.84
428.041	4.87
428.401	4.73
428.761	4.81
429.122	4.79
429.482	4.81
429.842	5
430.202	5.01
430.563	4.99
430.923	5.13
431.283	5.11
431.643	4.9
432.003	4.94
432.363	4.91
432.722	4.95
433.082	4.78
433.442	4.96
433.802	4.85
434.161	5.01
434.521	5.01
434.881	4.87
435.24	4.91
435.6	4.97
435.959	5
436.319	4.99
436.678	4.9
437.037	4.94
437.396	5.15
437.756	5.03
438.115	4.84
438.474	4.86
438.833	5.07
439.192	5.05
439.551	5.07
439.91	5.06
440.269	5.09
440.628	5.01
440.987	5.02
441.345	4.93
441.704	5.03
442.063	5.02
442.421	4.97
442.78	4.99
443.138	4.85
443.497	4.96
443.855	4.95
444.214	5.04
444.572	5.09
444.93	4.92
445.288	5.11
445.647	5.3
446.005	5.19
446.363	5.14
446.721	4.99
447.079	4.97
447.437	5.11
447.795	5.11
448.153	4.85
448.51	5.03
448.868	5.08
449.226	5.07
449.584	4.91
449.941	5.09
450.299	5.08
450.656	5.04
451.014	5.09
451.371	4.98
451.729	4.93
452.086	5.17
452.443	5.1
452.801	5.19
453.158	5.14
453.515	5.12
453.872	5.08
454.229	5.22
454.586	5.13
454.943	5.13
455.3	5.09
455.657	5.14
456.014	5.27
456.371	5.16
456.727	5.28
457.084	5.04
457.441	5.36
457.797	4.95
458.154	5.08
458.51	5.11
458.867	5.22
459.223	5.31
459.58	5.15
459.936	5.36
460.292	5.18
460.648	5.28
461.005	5.16
461.361	5.19
461.717	5.18
462.073	5.12
462.429	5.09
462.785	5.14
463.141	5.09
463.496	5.16
463.852	5.19
464.208	5.24
464.564	5.31
464.919	5.21
465.275	5.24
465.631	5.15
465.986	5.09
466.342	5.14
466.697	5.33
467.052	5.36
467.408	5.37
467.763	5.27
468.118	5.21
468.473	5.27
468.829	5.29
469.184	5.38
469.539	5.19
469.894	5.37
470.249	5.16
470.603	5.36
470.958	5.38
471.313	5.23
471.668	5.31
472.023	5.3
472.377	5.32
472.732	5.31
473.086	5.38
473.441	5.37
473.795	5.36
474.15	5.32
474.504	5.43
474.859	5.27
475.213	5.56
475.567	5.21
475.921	5.32
476.275	5.29
476.63	5.35
476.984	5.51
477.338	5.3
477.692	5.45
478.045	5.42
478.399	5.43
478.753	5.35
479.107	5.24
479.461	5.35
479.814	5.28
480.168	5.35
480.521	5.3
480.875	5.44
481.228	5.43
481.582	5.4
481.935	5.28
482.289	5.36
482.642	5.25
482.995	5.34
483.348	5.14
483.701	5.28
484.055	5.28
484.408	5.29
484.761	5.26
485.114	5.13
485.466	5.14
485.819	5.08
486.172	5.05
486.525	5.03
486.878	5.01
487.23	5.07
487.583	5.13
487.936	5.24
488.288	5.23
488.641	5.2
488.993	5.2
489.345	5.18
489.698	5.08
490.05	5.21
490.402	5.16
490.754	5.21
491.107	5.15
491.459	5.1
491.811	5.19
492.163	5.3
492.515	5.27
492.866	5.31
493.218	5.22
493.57	5.13
493.922	5.2
494.274	5.22
494.625	5.15
494.977	5.32
495.328	5.34
495.68	5.37
496.031	5.4
496.383	5.54
496.734	5.46
497.086	5.4
497.437	5.59
497.788	5.46
498.139	5.41
498.49	5.37
498.842	5.47
499.193	5.39
499.544	5.2
499.894	5.37
500.245	5.41
500.596	5.46
500.947	5.34
501.298	5.5
501.648	5.54
501.999	5.53
502.35	5.46
502.7	5.48
503.051	5.37
503.401	5.4
503.752	5.33
504.102	5.59
504.452	5.54
504.803	5.42
505.153	5.59
505.503	5.45
505.853	5.6
506.203	5.56
506.553	5.49
506.903	5.6
507.253	5.47
507.603	5.38
507.953	5.36
508.303	5.5
508.652	5.48
509.002	5.49
509.352	5.52
509.701	5.48
510.051	5.54
510.4	5.58
510.75	5.48
511.099	5.47
511.449	5.51
511.798	5.57
512.147	5.44
512.496	5.41
512.846	5.45
513.195	5.31
513.544	5.49
513.893	5.45
514.242	5.37
514.591	5.44
514.939	5.49
515.288	5.39
515.637	5.56
515.986	5.48
516.334	5.47
516.683	5.56
517.032	5.68
517.38	5.45
517.729	5.42
518.077	5.42
518.426	5.65
518.774	5.57
519.122	5.48
519.47	5.42
519.819	5.5
520.167	5.4
520.515	5.41
520.863	5.38
521.211	5.44
521.559	5.35
521.907	5.4
522.255	5.49
522.602	5.42
522.95	5.56
523.298	5.44
523.645	5.58
523.993	5.45
524.341	5.6
524.688	5.44
525.036	5.47
525.383	5.45
525.73	5.65
526.078	5.51
526.425	5.63
526.772	5.5
527.119	5.48
527.466	5.41
527.814	5.42
528.161	5.49
528.508	5.48
528.854	5.44
529.201	5.4
529.548	5.42
529.895	5.31
530.242	5.36
530.588	5.3
530.935	5.3
531.282	5.22
531.628	5.23
531.975	5.3
532.321	5.31
532.667	5.35
533.014	5.32
533.36	5.44
533.706	5.41
534.052	5.45
534.399	5.42
534.745	5.41
535.091	5.33
535.437	5.33
535.783	5.35
536.129	5.3
536.474	5.32
536.82	5.39
537.166	5.44
537.512	5.39
537.857	5.45
538.203	5.47
538.549	5.42
538.894	5.51
539.239	5.43
539.585	5.49
539.93	5.43
540.276	5.51
540.621	5.55
540.966	5.45
541.311	5.58
541.656	5.45
542.001	5.63
542.346	5.41
542.691	5.46
543.036	5.41
543.381	5.36
543.726	5.35
544.071	5.33
544.415	5.35
544.76	5.34
545.105	5.4
545.449	5.45
545.794	5.38
546.138	5.46
546.483	5.49
546.827	5.53
547.171	5.52
547.516	5.57
547.86	5.46
548.204	5.47
548.548	5.45
548.892	5.49
549.236	5.58
549.58	5.47
549.924	5.62
550.268	5.67
550.612	5.53
550.956	5.61
551.3	5.63
551.643	5.59
551.987	5.74
552.33	5.58
552.674	5.64
553.017	5.67
553.361	5.66
553.704	5.59
554.048	5.56
554.391	5.51
554.734	5.65
555.077	5.62
555.42	5.49
555.764	5.57
556.107	5.43
556.45	5.73
556.793	5.52
557.135	5.72
557.478	5.63
557.821	5.66
558.164	5.5
558.507	5.42
558.849	5.77
559.192	5.72
559.534	5.62
559.877	5.69
560.219	5.7
560.562	5.78
560.904	5.56
561.246	5.38
561.589	5.65
561.931	5.8
562.273	5.68
562.615	5.68
562.957	5.53
563.299	5.65
563.641	5.65
563.983	5.76
564.325	5.68
564.667	5.61
565.008	5.65
565.35	5.76
565.692	5.52
566.033	5.56
566.375	5.69
566.716	5.68
567.058	5.68
567.399	5.51
567.741	5.65
568.082	5.57
568.423	5.5
568.764	5.52
569.105	5.59
569.447	5.47
569.788	5.61
570.129	5.47
570.47	5.63
570.811	5.66
571.151	5.78
571.492	5.63
571.833	5.58
572.174	5.59
572.514	5.61
572.855	5.63
573.195	5.68
573.536	5.77
573.876	5.5
574.217	5.66
574.557	5.57
574.898	5.55
575.238	5.61
575.578	5.47
575.918	5.5
576.258	5.51
576.598	5.45
576.938	5.77
577.278	5.61
577.618	5.49
577.958	5.66
578.298	5.67
578.638	5.5
578.977	5.64
579.317	5.72
579.657	5.68
579.996	5.56
580.336	5.71
580.675	5.63
581.014	5.74
581.354	5.71
581.693	5.69
582.032	5.85
582.372	5.81
582.711	5.69
583.05	5.67
583.389	5.85
583.728	5.83
584.067	5.66
584.406	5.47
584.745	5.74
585.083	5.63
585.422	5.4
585.761	5.59
586.1	5.61
586.438	5.45
586.777	5.53
587.115	5.59
587.454	5.86
587.792	5.8
588.13	5.82
588.469	5.47
588.807	5.44
589.145	5.72
589.483	5.86
589.821	5.93
590.159	5.63
590.497	5.52
590.835	5.62
591.173	5.66
591.511	5.66
591.849	5.57
592.187	5.78
592.524	5.89
592.862	6
593.2	5.89
593.537	5.77
593.875	5.96
594.212	5.85
594.55	5.6
594.887	5.67
595.224	5.45
595.561	5.67
595.899	5.37
596.236	5.45
596.573	5.74
596.91	5.68
597.247	5.6
597.584	5.64
597.921	5.65
598.258	5.5
598.594	5.55
598.931	5.6
599.268	5.67
599.604	5.51
599.941	5.8
600.277	5.54
600.614	5.45
600.95	5.59
601.287	5.41
601.623	5.42
601.959	5.26
602.296	5.47
602.632	5.64
602.968	5.59
603.304	5.68
603.64	5.63
603.976	5.59
604.312	5.79
604.648	5.7
604.984	5.52
605.319	5.74
605.655	5.72
605.991	5.48
606.326	5.51
606.662	5.58
606.998	5.67
607.333	5.4
607.668	5.56
608.004	5.47
608.339	5.38
608.674	5.77
609.01	5.58
609.345	5.62
609.68	5.27
610.015	5.86
610.35	5.85
610.685	5.49
611.02	5.62
611.355	5.65
611.689	5.56
612.024	5.68
612.359	5.56
612.694	5.79
613.028	5.74
613.363	5.66
613.697	5.48
614.032	5.52
614.366	5.7
614.7	5.38
615.035	5.94
615.369	5.85
615.703	5.63
616.037	5.61
616.371	5.77
616.705	5.84
617.039	5.9
617.373	5.84
617.707	6.02
618.041	6.17
618.375	6.12
618.709	5.8
619.042	5.8
619.376	5.68
619.71	5.67
620.043	5.64
620.377	5.68
620.71	5.63
621.043	5.62
621.377	5.4
621.71	5.84
622.043	5.84
622.376	5.68
622.709	5.55
623.043	5.79
623.376	6
623.709	5.85
624.041	5.83
624.374	5.46
624.707	5.59
625.04	5.86
625.373	5.54
625.705	5.97
626.038	5.51
626.37	5.59
626.703	5.75
627.035	6.12
627.368	5.53
627.7	5.44
628.032	5.77
628.365	5.73
628.697	5.72
629.029	5.83
629.361	5.77
629.693	5.75
630.025	5.47
630.357	5.5
630.689	5.69
631.021	5.56
631.353	5.78
631.684	5.83
632.016	5.91
632.348	5.74
632.679	5.96
633.011	5.67
633.342	5.68
633.674	5.92
634.005	5.77
634.336	6.12
634.668	5.57
634.999	5.79
635.33	5.49
635.661	5.93
635.992	5.8
636.323	5.92
636.654	5.66
636.985	6
637.316	5.83
637.647	5.7
637.977	5.95
638.308	5.87
638.639	5.39
638.969	5.72
639.3	5.28
639.63	5.5
639.961	5.97
640.291	5.84
640.622	5.99
640.952	5.62
641.282	5.55
641.612	6.04
641.943	5.66
642.273	5.77
642.603	5.94
642.933	5.86
643.263	5.89
643.592	5.95
643.922	5.66
644.252	6.22
644.582	6.08
644.911	5.44
645.241	5.65
645.571	5.93
645.9	5.78
646.23	6.34
646.559	5.23
646.888	6.16
647.218	6.15
647.547	5.88
647.876	5.84
648.205	5.52
648.534	6.02
648.863	5.75
649.192	5.91
649.521	6.07
649.85	5.99
650.179	5.3
650.508	5.67
650.837	5.69
651.165	6.08
651.494	6.12
651.822	5.74
652.151	5.8
652.479	5.44
652.808	6.25
653.136	5.67
653.465	5.67
653.793	5.94
654.121	5.6
654.449	5.97
654.777	6.12
655.105	5.8
655.433	5.98
655.761	5.99
656.089	5.75
656.417	5.68
656.745	5.58
657.073	5.44
657.4	6.34
657.728	5.97
658.056	6.08
658.383	5.74
658.711	5.46
659.038	6.03
659.365	5.54
659.693	5.99
660.02	5.64
660.347	5.87
660.674	5.61
661.001	6.24
661.329	5.98
661.656	6.49
661.982	5.82
662.309	5.93
662.636	5.88
662.963	5.8
663.29	5.88
663.616	6.02
663.943	5.75
664.27	5.7
664.596	6.28
664.923	6.49
665.249	5.91
665.576	6.29
665.902	5.85
666.228	6.27
666.554	5.78
666.881	5.7
667.207	5.76
667.533	6.14
667.859	5.44
668.185	6.12
668.511	5.66
668.837	6.45
669.162	5.82
669.488	5.86
669.814	6.18
670.139	5.87
670.465	5.58
670.791	6.01
671.116	5.86
671.442	6.46
671.767	6.02
672.092	5.84
672.418	6.19
672.743	5.81
673.068	5.68
673.393	5.67
673.718	5.57
674.043	6.52
674.368	6.56
674.693	5.86
675.018	6.27
675.343	6.26
675.667	5.76
675.992	6.73
676.317	6.19
676.641	6.31
676.966	6.41
677.29	6.14
677.615	6.19
677.939	6.53
678.264	6
678.588	5.79
678.912	6.18
679.236	5.55
679.56	5.94
679.885	6.21
680.209	6.08
680.532	5.88
680.856	6.22
681.18	6.52
681.504	6.19
681.828	6.21
682.152	6.51
682.475	6.31
682.799	6.11
683.122	5.71
683.446	6.38
683.769	5.5
684.093	6.36
684.416	6.43
684.739	6.21
685.062	5.91
685.386	5.84
685.709	6.57
686.032	6.23
686.355	6.89
686.678	5.54
687.001	6.38
687.324	6.83
687.646	6.53
687.969	6.31
688.292	5.1
688.614	6.41
688.937	5.94
689.26	5.85
689.582	5.64
689.904	6.97
690.227	6.41
690.549	6.14
690.871	6.84
691.194	5.94
691.516	5.98
691.838	5.84
692.16	5.69
692.482	6.7
692.804	6.36
693.126	6.73
693.448	5.87
