Data from 0055_forehead_Reflection__1__119.txt Node

Date: Fri Dec 16 14:51:53 CST 2022
User: ToomeyLab
Spectrometer: FLMS14357
Trigger mode: 0
Integration Time (sec): 1.000000E-2
Scans to average: 100
Electric dark correction enabled: true
Nonlinearity correction enabled: false
Boxcar width: 0
XAxis mode: Wavelengths
Number of Pixels in Spectrum: 2048
>>>>>Begin Spectral Data<<<<<
189.047	27.61
189.435	27.61
189.823	27.61
190.211	48.8
190.599	-138.43
190.987	34.23
191.375	187.18
191.763	68.44
192.151	-23.76
192.538	65.39
192.926	60.51
193.314	117.22
193.702	-44.91
194.089	-266.53
194.477	71.68
194.864	-132.16
195.252	-2.65
195.639	268.5
196.027	222.77
196.414	67.21
196.801	-330.63
197.189	54.07
197.576	35.24
197.963	-168.6
198.351	25.68
198.738	19.27
199.125	41.04
199.512	54.64
199.899	-106.99
200.286	-1.49
200.673	36.09
201.06	38.99
201.447	52.26
201.833	-2.31
202.22	51.22
202.607	30.35
202.994	21.84
203.38	-52.43
203.767	-2.34
204.154	-57.28
204.54	36.19
204.927	62.25
205.313	36.69
205.699	1.06
206.086	-27.09
206.472	17.29
206.858	18.57
207.245	23.85
207.631	12.95
208.017	6.13
208.403	38.01
208.789	43.33
209.175	36.69
209.561	16.22
209.947	39.31
210.333	-14.44
210.719	6.51
211.105	18.82
211.491	27.43
211.876	4.38
212.262	29.81
212.648	6.49
213.034	9.76
213.419	37.51
213.805	13.68
214.19	-4.07
214.576	16.59
214.961	4.38
215.346	-42.12
215.732	-29.96
216.117	-16.19
216.502	-27.79
216.888	-3.95
217.273	10.82
217.658	7.26
218.043	42.15
218.428	0.5
218.813	-1.63
219.198	9.25
219.583	29.33
219.968	16.05
220.353	13.25
220.738	-11.98
221.122	-4.57
221.507	15.65
221.892	4.37
222.276	22.31
222.661	3.58
223.046	12.48
223.43	-4.06
223.815	13.65
224.199	11.1
224.583	1.44
224.968	6.59
225.352	1.98
225.736	9.13
226.121	6.18
226.505	3.32
226.889	12.19
227.273	8.54
227.657	5.94
228.041	6.33
228.425	4.72
228.809	4.56
229.193	4.06
229.577	5.6
229.961	5.25
230.344	5.39
230.728	5.45
231.112	5.02
231.495	3.81
231.879	6.86
232.263	4.98
232.646	5.05
233.03	3.67
233.413	4.21
233.797	8.21
234.18	4.18
234.563	6.53
234.946	5.56
235.33	5.72
235.713	5.08
236.096	4.63
236.479	5.94
236.862	7.45
237.245	5.6
237.628	6.87
238.011	5.72
238.394	6.16
238.777	5.58
239.16	4.68
239.543	3.51
239.925	5.38
240.308	4.43
240.691	3.99
241.073	4.55
241.456	4.33
241.838	4.35
242.221	6.04
242.603	5.45
242.986	5.78
243.368	5.26
243.75	4.9
244.133	5.28
244.515	5.03
244.897	5.13
245.279	4.92
245.661	4.94
246.043	5.86
246.425	5.09
246.807	5.41
247.189	4.95
247.571	5.48
247.953	4.82
248.335	5.17
248.717	5.01
249.098	5.01
249.48	4.96
249.862	5.06
250.243	4.84
250.625	4.95
251.006	5.1
251.388	4.7
251.769	5.56
252.151	5.8
252.532	5.5
252.913	5.13
253.295	5.27
253.676	4.86
254.057	4.89
254.438	4.87
254.819	5.04
255.2	4.94
255.581	5.01
255.962	5.39
256.343	6.08
256.724	5.5
257.105	4.87
257.486	5.11
257.867	3.12
258.247	4.91
258.628	5.57
259.009	5.1
259.389	5.52
259.77	5.12
260.15	5.61
260.531	5.26
260.911	4.82
261.292	4.75
261.672	4.74
262.052	4.6
262.432	4.74
262.813	5.25
263.193	4.28
263.573	4.92
263.953	5.04
264.333	5.15
264.713	4.36
265.093	4.76
265.473	5.41
265.853	5
266.233	4.96
266.612	4.48
266.992	4.33
267.372	4.66
267.752	4.67
268.131	4.71
268.511	5.1
268.89	5.35
269.27	5.11
269.649	5.16
270.029	5.08
270.408	4.58
270.787	4.71
271.167	5.1
271.546	3.68
271.925	4.65
272.304	5.24
272.683	4.43
273.062	5.24
273.441	4.78
273.82	5.02
274.199	5.04
274.578	4.3
274.957	4.42
275.336	4.84
275.715	4.91
276.093	4.85
276.472	4.75
276.851	5.02
277.229	5.06
277.608	4.59
277.986	4.87
278.365	4.42
278.743	5.07
279.122	4.32
279.5	3.65
279.878	3.83
280.257	5.1
280.635	4.32
281.013	5.09
281.391	4.42
281.769	4.4
282.147	4.72
282.525	4.27
282.903	4.97
283.281	4.71
283.659	4.9
284.037	4.87
284.415	4.53
284.792	4.82
285.17	4.81
285.548	4.67
285.925	4.7
286.303	4.28
286.68	4.68
287.058	4.67
287.435	4.26
287.813	4.69
288.19	5.11
288.567	4.85
288.945	4.81
289.322	4.42
289.699	5.07
290.076	4.87
290.453	4.38
290.83	4.69
291.207	4.74
291.584	4.78
291.961	5.2
292.338	4.95
292.715	5.18
293.092	5.06
293.469	5.14
293.845	5.28
294.222	5.07
294.599	5.31
294.975	5.27
295.352	4.7
295.728	5.35
296.105	5.15
296.481	6.18
296.858	5.17
297.234	5.31
297.61	5.05
297.986	5.14
298.363	5.01
298.739	5.19
299.115	4.83
299.491	5.12
299.867	5.2
300.243	5.25
300.619	5.42
300.995	5.64
301.371	5.7
301.746	5.64
302.122	5.62
302.498	5.98
302.874	6.01
303.249	6.29
303.625	5.78
304	5.35
304.376	6.35
304.751	6.05
305.127	5.8
305.502	6.23
305.878	5.41
306.253	5.78
306.628	6.16
307.003	6.47
307.378	6.41
307.754	6.11
308.129	6.03
308.504	5.61
308.879	6.57
309.254	6.67
309.629	6.08
310.003	6.7
310.378	6.87
310.753	6.42
311.128	6.82
311.502	6.26
311.877	6.43
312.252	6.38
312.626	6.65
313.001	6.83
313.375	6.52
313.75	6.4
314.124	7.13
314.498	6.93
314.873	6.95
315.247	6.86
315.621	7.02
315.995	7.07
316.369	7.47
316.743	7.35
317.117	7.44
317.491	7.3
317.865	6.86
318.239	7.54
318.613	7.09
318.987	7.55
319.361	7.13
319.734	7.41
320.108	7.17
320.482	7.1
320.855	7.74
321.229	8.05
321.602	7.26
321.976	7.54
322.349	7.49
322.723	6.78
323.096	7.7
323.469	7.61
323.843	7.66
324.216	7.58
324.589	8.4
324.962	8.28
325.335	8.35
325.708	8.27
326.081	8.55
326.454	8.41
326.827	8.45
327.2	8.96
327.573	8.4
327.945	8.46
328.318	8.15
328.691	8.62
329.063	8.35
329.436	8.11
329.809	8.11
330.181	8.4
330.553	8.93
330.926	8.37
331.298	8.48
331.671	8.71
332.043	8.87
332.415	9.25
332.787	9.35
333.159	9.09
333.532	9.15
333.904	9.4
334.276	8.79
334.648	9.18
335.02	8.97
335.391	9.4
335.763	9.07
336.135	9.37
336.507	9.6
336.879	9.2
337.25	9.4
337.622	8.94
337.993	9.31
338.365	9.55
338.736	9.41
339.108	9.29
339.479	9.6
339.851	9.5
340.222	9.92
340.593	9.22
340.964	10.2
341.336	9.36
341.707	9.55
342.078	9.73
342.449	10.36
342.82	9.87
343.191	9.61
343.562	9.63
343.933	9.98
344.303	10.2
344.674	9.96
345.045	10.23
345.416	9.8
345.786	9.78
346.157	10.31
346.527	9.72
346.898	9.83
347.268	10.2
347.639	9.91
348.009	10.38
348.38	10.09
348.75	10.25
349.12	10.39
349.49	10.35
349.861	10.81
350.231	10.76
350.601	10.78
350.971	10.73
351.341	11.05
351.711	10.63
352.081	10.64
352.45	10.57
352.82	10.71
353.19	10.63
353.56	10.61
353.929	10.61
354.299	10.64
354.669	10.97
355.038	11.14
355.408	11.35
355.777	10.93
356.147	11.29
356.516	11.13
356.885	10.77
357.254	11.44
357.624	11.11
357.993	10.88
358.362	11.64
358.731	10.81
359.1	11.37
359.469	11.32
359.838	11.37
360.207	11.4
360.576	11.09
360.945	11.36
361.314	11.51
361.682	11.43
362.051	11.43
362.42	11.73
362.788	11.61
363.157	11.45
363.525	11.49
363.894	11.36
364.262	11.42
364.631	12.19
364.999	11.62
365.367	11.98
365.735	11.58
366.104	11.8
366.472	11.82
366.84	12.09
367.208	11.74
367.576	11.79
367.944	12.29
368.312	11.53
368.68	12.2
369.048	12.11
369.416	11.82
369.783	11.99
370.151	12.41
370.519	11.96
370.886	12.23
371.254	12.63
371.621	12.63
371.989	12.91
372.356	12.7
372.724	12.69
373.091	12.72
373.458	12.55
373.826	12.53
374.193	13.11
374.56	12.46
374.927	12.7
375.294	13.08
375.661	12.81
376.028	12.9
376.395	12.66
376.762	12.97
377.129	13.14
377.496	13.03
377.863	12.95
378.229	13.02
378.596	13.13
378.963	13.27
379.329	13.26
379.696	13.25
380.062	13.48
380.429	13.41
380.795	13.27
381.161	13.27
381.528	12.8
381.894	13.45
382.26	13.23
382.626	13.6
382.993	13.28
383.359	13.49
383.725	13.96
384.091	13.79
384.457	13.93
384.823	13.99
385.188	13.79
385.554	13.88
385.92	13.92
386.286	14.03
386.651	13.75
387.017	13.98
387.383	14.01
387.748	13.95
388.114	14.15
388.479	14.43
388.845	14.33
389.21	14.44
389.575	14.54
389.94	14.26
390.306	14.35
390.671	14.21
391.036	14.64
391.401	14.64
391.766	14.65
392.131	14.54
392.496	14.59
392.861	14.41
393.226	14.6
393.591	14.61
393.956	14.66
394.32	14.71
394.685	14.76
395.05	14.86
395.414	14.79
395.779	14.83
396.143	15.15
396.508	14.92
396.872	15.06
397.236	14.65
397.601	15.25
397.965	15.11
398.329	15.2
398.694	15.18
399.058	15.21
399.422	15.19
399.786	15.32
400.15	15.26
400.514	15.22
400.878	15.18
401.242	15.59
401.605	15.65
401.969	15.21
402.333	15.5
402.697	15.78
403.06	15.84
403.424	15.68
403.787	16.11
404.151	15.7
404.514	15.9
404.878	15.83
405.241	16.04
405.604	15.94
405.968	16.09
406.331	15.94
406.694	16.04
407.057	16.39
407.42	16.12
407.783	16.21
408.146	16.31
408.509	16.1
408.872	16.09
409.235	16.27
409.598	16.36
409.961	16.42
410.323	16.57
410.686	16.32
411.049	16.31
411.411	16.7
411.774	16.67
412.136	16.52
412.499	16.55
412.861	16.51
413.223	16.77
413.586	16.77
413.948	16.71
414.31	16.98
414.672	16.74
415.035	17.19
415.397	17.18
415.759	16.96
416.121	17.1
416.483	17.21
416.845	17.33
417.206	17.2
417.568	17.31
417.93	17.1
418.292	17.21
418.653	17.28
419.015	17.28
419.377	17.33
419.738	17.28
420.1	17.16
420.461	17.18
420.822	17.42
421.184	17.35
421.545	17.43
421.906	17.4
422.267	17.29
422.629	17.3
422.99	17.37
423.351	17.45
423.712	17.43
424.073	17.74
424.434	17.54
424.795	17.63
425.155	17.59
425.516	17.56
425.877	17.63
426.238	17.58
426.598	17.73
426.959	17.65
427.32	17.97
427.68	18.02
428.041	18.07
428.401	17.98
428.761	18.02
429.122	18.33
429.482	18.2
429.842	18.6
430.202	18.37
430.563	18.54
430.923	18.42
431.283	18.79
431.643	18.73
432.003	18.72
432.363	18.54
432.722	18.63
433.082	18.65
433.442	18.67
433.802	18.83
434.161	18.77
434.521	18.98
434.881	18.79
435.24	18.79
435.6	19.07
435.959	19.21
436.319	19.09
436.678	19.01
437.037	19.03
437.396	19.08
437.756	19.29
438.115	19.34
438.474	19.49
438.833	19.48
439.192	19.56
439.551	19.47
439.91	19.53
440.269	19.61
440.628	19.58
440.987	19.44
441.345	19.47
441.704	19.65
442.063	19.46
442.421	19.69
442.78	19.68
443.138	19.56
443.497	19.57
443.855	19.96
444.214	19.74
444.572	19.84
444.93	20.11
445.288	20.11
445.647	20.18
446.005	20.17
446.363	20.16
446.721	19.91
447.079	20.08
447.437	20.04
447.795	20.05
448.153	20.05
448.51	20.02
448.868	20.15
449.226	20.11
449.584	20.25
449.941	20.46
450.299	20.25
450.656	20.63
451.014	20.64
451.371	20.82
451.729	20.84
452.086	20.82
452.443	20.88
452.801	20.83
453.158	20.89
453.515	20.94
453.872	21.33
454.229	20.83
454.586	20.99
454.943	21.04
455.3	21.24
455.657	21.15
456.014	21.21
456.371	21.51
456.727	21.36
457.084	21.28
457.441	21.42
457.797	21.58
458.154	21.39
458.51	21.52
458.867	21.62
459.223	21.67
459.58	21.73
459.936	21.75
460.292	21.66
460.648	21.65
461.005	21.6
461.361	21.55
461.717	21.4
462.073	21.64
462.429	21.66
462.785	21.68
463.141	21.89
463.496	22.18
463.852	22.21
464.208	22.38
464.564	22.28
464.919	22.28
465.275	22.41
465.631	22.34
465.986	22.42
466.342	22.34
466.697	22.47
467.052	22.73
467.408	22.57
467.763	22.59
468.118	22.8
468.473	22.7
468.829	22.64
469.184	22.88
469.539	22.58
469.894	22.86
470.249	22.9
470.603	22.92
470.958	23.14
471.313	23.07
471.668	23.1
472.023	23.23
472.377	23.24
472.732	23.41
473.086	23.14
473.441	23.56
473.795	23.51
474.15	23.52
474.504	23.41
474.859	23.6
475.213	23.59
475.567	23.5
475.921	23.95
476.275	23.84
476.63	23.86
476.984	23.91
477.338	23.92
477.692	23.92
478.045	23.83
478.399	24.04
478.753	23.88
479.107	23.91
479.461	23.82
479.814	24.1
480.168	24.11
480.521	23.97
480.875	24.13
481.228	24.17
481.582	24.19
481.935	24.14
482.289	24.09
482.642	24.26
482.995	24.13
483.348	24.16
483.701	24.17
484.055	24.13
484.408	24.09
484.761	23.84
485.114	23.79
485.466	23.74
485.819	23.44
486.172	23.43
486.525	23.53
486.878	23.69
487.23	24.07
487.583	24.13
487.936	24.36
488.288	24.25
488.641	24.32
488.993	24.26
489.345	24.12
489.698	24.17
490.05	24.16
490.402	24.29
490.754	24.53
491.107	24.75
491.459	24.76
491.811	25.14
492.163	25.11
492.515	25.04
492.866	24.81
493.218	24.77
493.57	24.6
493.922	24.68
494.274	24.95
494.625	25.06
494.977	25.16
495.328	25.53
495.68	25.87
496.031	25.86
496.383	26.01
496.734	26.13
497.086	25.92
497.437	26.07
497.788	26.18
498.139	26.12
498.49	26.06
498.842	26.07
499.193	26.07
499.544	26.18
499.894	26.4
500.245	26.39
500.596	26.51
500.947	26.57
501.298	26.43
501.648	26.53
501.999	26.76
502.35	26.63
502.7	26.88
503.051	26.81
503.401	26.8
503.752	27.05
504.102	27.06
504.452	26.99
504.803	27.06
505.153	27.03
505.503	27.25
505.853	26.99
506.203	27.25
506.553	26.99
506.903	27.16
507.253	27.38
507.603	27.23
507.953	27.53
508.303	27.39
508.652	27.53
509.002	27.64
509.352	27.48
509.701	27.56
510.051	27.73
510.4	27.44
510.75	27.71
511.099	27.58
511.449	27.59
511.798	27.87
512.147	27.91
512.496	27.81
512.846	27.9
513.195	28.11
513.544	28.03
513.893	28.12
514.242	28.21
514.591	28.09
514.939	28.25
515.288	28.25
515.637	28.44
515.986	28.33
516.334	28.41
516.683	28.49
517.032	28.58
517.38	28.89
517.729	28.73
518.077	28.52
518.426	28.8
518.774	28.73
519.122	28.84
519.47	28.6
519.819	28.61
520.167	28.49
520.515	28.61
520.863	28.45
521.211	28.54
521.559	28.67
521.907	29.04
522.255	28.95
522.602	29.16
522.95	29.25
523.298	29.25
523.645	29.26
523.993	29.44
524.341	29.35
524.688	29.53
525.036	29.77
525.383	29.64
525.73	29.67
526.078	29.63
526.425	29.68
526.772	29.63
527.119	29.48
527.466	29.33
527.814	29.28
528.161	29.41
528.508	29.48
528.854	29.65
529.201	29.5
529.548	29.46
529.895	29.47
530.242	29.47
530.588	29.22
530.935	29.05
531.282	29.2
531.628	29.24
531.975	29.62
532.321	29.7
532.667	29.89
533.014	30.21
533.36	30.24
533.706	30.3
534.052	30.3
534.399	30.22
534.745	30.24
535.091	29.97
535.437	30.05
535.783	30.09
536.129	30.13
536.474	30.33
536.82	30.49
537.166	30.72
537.512	30.9
537.857	30.9
538.203	30.89
538.549	30.71
538.894	30.67
539.239	30.99
539.585	31.18
539.93	31.31
540.276	31.29
540.621	31.49
540.966	31.53
541.311	31.66
541.656	31.5
542.001	31.68
542.346	31.36
542.691	31.36
543.036	31.13
543.381	31.07
543.726	31.02
544.071	30.95
544.415	31.14
544.76	31.36
545.105	31.49
545.449	31.55
545.794	31.92
546.138	31.94
546.483	31.96
546.827	32.18
547.171	32.37
547.516	32.42
547.86	32.29
548.204	32.27
548.548	32.52
548.892	32.32
549.236	32.45
549.58	32.56
549.924	32.65
550.268	32.78
550.612	32.88
550.956	32.9
551.3	33.09
551.643	33.23
551.987	33.49
552.33	33.42
552.674	33.55
553.017	33.51
553.361	33.46
553.704	33.49
554.048	33.61
554.391	33.38
554.734	33.45
555.077	33.43
555.42	33.49
555.764	33.51
556.107	33.99
556.45	33.84
556.793	34.21
557.135	33.99
557.478	34.23
557.821	34.09
558.164	34.18
558.507	34.22
558.849	34.21
559.192	34.61
559.534	34.53
559.877	34.3
560.219	34.49
560.562	34.33
560.904	34.46
561.246	34.72
561.589	34.66
561.931	34.98
562.273	34.87
562.615	34.83
562.957	34.91
563.299	34.66
563.641	35.18
563.983	34.7
564.325	34.61
564.667	34.93
565.008	34.87
565.35	35
565.692	35.12
566.033	35.07
566.375	35.17
566.716	35.42
567.058	35.31
567.399	35.3
567.741	35.37
568.082	35.17
568.423	35.33
568.764	35.07
569.105	35.26
569.447	35.5
569.788	35.67
570.129	35.59
570.47	35.77
570.811	35.9
571.151	35.84
571.492	35.95
571.833	35.93
572.174	35.72
572.514	35.68
572.855	35.95
573.195	35.9
573.536	36.02
573.876	35.77
574.217	35.82
574.557	36.16
574.898	35.85
575.238	36.13
575.578	36.26
575.918	36.36
576.258	36.52
576.598	36.32
576.938	36.68
577.278	36.48
577.618	36.43
577.958	36.74
578.298	36.62
578.638	36.91
578.977	36.85
579.317	37
579.657	36.92
579.996	37.13
580.336	37.08
580.675	37.26
581.014	37.3
581.354	37.16
581.693	37.4
582.032	37.22
582.372	37.22
582.711	37.6
583.05	37.69
583.389	37.81
583.728	37.75
584.067	37.71
584.406	37.92
584.745	37.99
585.083	37.94
585.422	37.7
585.761	37.97
586.1	38.15
586.438	38.5
586.777	37.9
587.115	37.94
587.454	38.3
587.792	38.01
588.13	38.25
588.469	38.43
588.807	38.19
589.145	38.43
589.483	38.1
589.821	38.38
590.159	38.6
590.497	38.22
590.835	38.52
591.173	38.69
591.511	38.64
591.849	38.69
592.187	38.73
592.524	38.79
592.862	38.55
593.2	38.67
593.537	38.78
593.875	38.79
594.212	38.96
594.55	39.14
594.887	39.31
595.224	39.01
595.561	39.33
595.899	39.28
596.236	39.31
596.573	38.96
596.91	39.24
597.247	39.44
597.584	39.47
597.921	39.46
598.258	39.55
598.594	39.32
598.931	38.97
599.268	39.25
599.604	39.41
599.941	39.15
600.277	39.36
600.614	39.53
600.95	39.63
601.287	39.89
601.623	39.87
601.959	39.91
602.296	40
602.632	39.77
602.968	40.56
603.304	40.73
603.64	40.54
603.976	39.98
604.312	40.18
604.648	40.48
604.984	40.81
605.319	40.01
605.655	40.24
605.991	40.36
606.326	40.18
606.662	40.25
606.998	40.09
607.333	40.14
607.668	40.4
608.004	40.48
608.339	40.55
608.674	40.66
609.01	41.04
609.345	40.76
609.68	41.08
610.015	41.24
610.35	41.16
610.685	41.07
611.02	40.82
611.355	41.05
611.689	40.82
612.024	41.01
612.359	41.1
612.694	41.23
613.028	40.77
613.363	41.23
613.697	41.64
614.032	41.27
614.366	41.6
614.7	41.9
615.035	41.31
615.369	41.47
615.703	41.98
616.037	41.5
616.371	41.69
616.705	41.79
617.039	42.25
617.373	41.89
617.707	41.93
618.041	42.31
618.375	41.71
618.709	42.07
619.042	42.34
619.376	41.76
619.71	41.95
620.043	42.09
620.377	42.2
620.71	42.39
621.043	41.74
621.377	42.85
621.71	42.35
622.043	42.58
622.376	42.16
622.709	42.54
623.043	42.66
623.376	42.85
623.709	42.71
624.041	42.83
624.374	42.89
624.707	42.38
625.04	43.17
625.373	42.57
625.705	42.75
626.038	43.07
626.37	43.49
626.703	42.53
627.035	43.02
627.368	43.17
627.7	43.39
628.032	43.35
628.365	42.89
628.697	43.04
629.029	43.19
629.361	43.29
629.693	43.62
630.025	43.73
630.357	43.01
630.689	43.41
631.021	43.49
631.353	43.89
631.684	44.06
632.016	44.16
632.348	43.68
632.679	43.7
633.011	43.67
633.342	43.64
633.674	43.9
634.005	43.65
634.336	43.55
634.668	43.91
634.999	44.12
635.33	44.29
635.661	43.99
635.992	44.39
636.323	43.92
636.654	43.91
636.985	44.32
637.316	44.12
637.647	44.01
637.977	44.09
638.308	44.76
638.639	44.34
638.969	44.48
639.3	43.92
639.63	44.25
639.961	44.04
640.291	44.9
640.622	44.46
640.952	44.49
641.282	44.33
641.612	44.44
641.943	45.03
642.273	44.69
642.603	44.99
642.933	45.02
643.263	45.31
643.592	44.44
643.922	44.98
644.252	45.63
644.582	44.57
644.911	45.27
645.241	45.47
645.571	44.47
645.9	45.43
646.23	45.1
646.559	45.54
646.888	44.69
647.218	44.9
647.547	45.58
647.876	45.43
648.205	45.49
648.534	45.17
648.863	45.88
649.192	46.1
649.521	45.7
649.85	45.59
650.179	45.65
650.508	45.36
650.837	45.69
651.165	46.01
651.494	46.24
651.822	45.88
652.151	46.16
652.479	45.64
652.808	45.24
653.136	45.64
653.465	46.64
653.793	45.99
654.121	45.84
654.449	46.15
654.777	46.2
655.105	46.53
655.433	46.77
655.761	45.98
656.089	46.22
656.417	46.2
656.745	46.8
657.073	46.7
657.4	46.17
657.728	46.04
658.056	46.21
658.383	46.65
658.711	46.54
659.038	46.89
659.365	46.55
659.693	46.5
660.02	46.19
660.347	46.88
660.674	46.32
661.001	46.67
661.329	47.07
661.656	46.73
661.982	46.74
662.309	47.29
662.636	46.7
662.963	46.91
663.29	47.19
663.616	46.9
663.943	47.51
664.27	47.3
664.596	46.86
664.923	47.04
665.249	47.57
665.576	47.64
665.902	47.23
666.228	47.03
666.554	47.78
666.881	47.76
667.207	47.45
667.533	47.65
667.859	47.29
668.185	48.09
668.511	46.9
668.837	46.71
669.162	47.17
669.488	48.31
669.814	48.15
670.139	47.78
670.465	48.29
670.791	47.74
