Data from 0055_crown_Reflection__1__114.txt Node

Date: Fri Dec 16 14:50:47 CST 2022
User: ToomeyLab
Spectrometer: FLMS14357
Trigger mode: 0
Integration Time (sec): 1.000000E-2
Scans to average: 100
Electric dark correction enabled: true
Nonlinearity correction enabled: false
Boxcar width: 0
XAxis mode: Wavelengths
Number of Pixels in Spectrum: 2048
>>>>>Begin Spectral Data<<<<<
189.047	184.39
189.435	184.39
189.823	184.39
190.211	259.5
190.599	-291.57
190.987	20.09
191.375	-0.1
191.763	130.97
192.151	-37.48
192.538	43.55
192.926	215.31
193.314	61.78
193.702	-136.94
194.089	1.78
194.477	156.37
194.864	-122.1
195.252	-116.68
195.639	144.95
196.027	-4.38
196.414	13.59
196.801	-255.05
197.189	171.45
197.576	-22.04
197.963	-624.05
198.351	-5.89
198.738	-62.01
199.125	18.49
199.512	24.21
199.899	-49.94
200.286	-69.32
200.673	4.93
201.06	5.57
201.447	22.25
201.833	-11.37
202.22	21.22
202.607	1.67
202.994	17.7
203.38	-72.99
203.767	-16.77
204.154	-68.08
204.54	42.78
204.927	2.41
205.313	10.12
205.699	18.2
206.086	-49.51
206.472	-28.83
206.858	-30.09
207.245	-4.96
207.631	8.87
208.017	-1.79
208.403	-15.66
208.789	8.32
209.175	24.35
209.561	-30.26
209.947	-30.81
210.333	-36.73
210.719	1.45
211.105	-50.14
211.491	-11.04
211.876	1.61
212.262	-39.18
212.648	-49.74
213.034	-34.99
213.419	16
213.805	-16.93
214.19	-12.27
214.576	-24.17
214.961	-12.98
215.346	-70.4
215.732	-8.92
216.117	-30.43
216.502	-43.77
216.888	-20.2
217.273	8.18
217.658	-26.28
218.043	-21.52
218.428	13.25
218.813	-8.42
219.198	-44.97
219.583	-9.94
219.968	-18.84
220.353	5.34
220.738	-22.2
221.122	-7.68
221.507	-3.18
221.892	-1.91
222.276	-2.8
222.661	-6.18
223.046	-1.47
223.43	-21.64
223.815	-0.53
224.199	1.36
224.583	-2.35
224.968	-0.26
225.352	-6.46
225.736	0.91
226.121	-7.79
226.505	-4.36
226.889	-0.07
227.273	1.12
227.657	-2.36
228.041	0.54
228.425	2.15
228.809	-1.22
229.193	-1.85
229.577	0.75
229.961	1.15
230.344	1.62
230.728	1.69
231.112	0.98
231.495	0.07
231.879	0.83
232.263	-1.7
232.646	0.6
233.03	0.51
233.413	-0.01
233.797	2.4
234.18	0.2
234.563	-0.04
234.946	0.62
235.33	1.96
235.713	1.16
236.096	0.43
236.479	0.32
236.862	-0.01
237.245	1.52
237.628	1.57
238.011	1.37
238.394	3.34
238.777	2.04
239.16	0.62
239.543	-0.82
239.925	2.52
240.308	1.7
240.691	0.07
241.073	0.59
241.456	0.8
241.838	0.14
242.221	1.3
242.603	2.04
242.986	2.52
243.368	1.54
243.75	1.2
244.133	1.43
244.515	1.46
244.897	1.26
245.279	2.07
245.661	1.35
246.043	2.43
246.425	1.68
246.807	0.87
247.189	0.76
247.571	1.22
247.953	1.63
248.335	1.77
248.717	1.71
249.098	1.68
249.48	1.13
249.862	1.75
250.243	1.66
250.625	1
251.006	1.26
251.388	1.9
251.769	1.53
252.151	0.88
252.532	1.6
252.913	1.42
253.295	1.83
253.676	2.17
254.057	1.3
254.438	0.89
254.819	1.84
255.2	2.22
255.581	0.47
255.962	2.06
256.343	2.53
256.724	0.71
257.105	2.34
257.486	0.91
257.867	-0.3
258.247	2.27
258.628	1.46
259.009	0.47
259.389	1.81
259.77	1.23
260.15	2.28
260.531	1.41
260.911	1.66
261.292	1.57
261.672	1.63
262.052	1.41
262.432	1.63
262.813	1.52
263.193	1.3
263.573	0.78
263.953	1.48
264.333	1.92
264.713	1.31
265.093	1.8
265.473	2.02
265.853	1
266.233	1.21
266.612	1.51
266.992	1.42
267.372	1.22
267.752	1.46
268.131	1.61
268.511	1.63
268.89	1.45
269.27	1.69
269.649	1.46
270.029	0.98
270.408	1.44
270.787	1.1
271.167	1.91
271.546	0.85
271.925	1.33
272.304	1.89
272.683	1.19
273.062	1.45
273.441	1.57
273.82	1.58
274.199	1.63
274.578	1.39
274.957	1.37
275.336	1.55
275.715	2.1
276.093	2.12
276.472	1.61
276.851	1.43
277.229	2.26
277.608	1.03
277.986	1.62
278.365	1.28
278.743	1.85
279.122	1.17
279.5	1.51
279.878	0.62
280.257	2.28
280.635	1.61
281.013	1.61
281.391	1.84
281.769	1.41
282.147	1.69
282.525	1.44
282.903	1.29
283.281	0.95
283.659	1.18
284.037	1.01
284.415	1.24
284.792	1.35
285.17	1.53
285.548	1.08
285.925	1.46
286.303	0.98
286.68	1.77
287.058	1.42
287.435	1.45
287.813	1.66
288.19	1.98
288.567	1.13
288.945	1.52
289.322	1.3
289.699	1.41
290.076	1.67
290.453	0.95
290.83	1.46
291.207	1.45
291.584	1.28
291.961	1.31
292.338	1.16
292.715	1.72
293.092	1.42
293.469	1.64
293.845	1.87
294.222	1.61
294.599	1.67
294.975	1.42
295.352	0.87
295.728	1.56
296.105	1.21
296.481	1.68
296.858	1.74
297.234	1.5
297.61	1.6
297.986	1.45
298.363	1.27
298.739	1.65
299.115	1.49
299.491	1.8
299.867	1.69
300.243	1.55
300.619	1.81
300.995	1.75
301.371	1.42
301.746	1.1
302.122	1.84
302.498	1.82
302.874	1.7
303.249	1.83
303.625	1.86
304	1.39
304.376	1.14
304.751	2
305.127	1.95
305.502	2.14
305.878	1.29
306.253	1.49
306.628	2.4
307.003	1.54
307.378	1.42
307.754	1.84
308.129	1.44
308.504	1.61
308.879	1.91
309.254	2.09
309.629	1.58
310.003	2.33
310.378	1.94
310.753	2.25
311.128	1.85
311.502	1.67
311.877	1.58
312.252	1.97
312.626	1.81
313.001	1.73
313.375	1.78
313.75	1.78
314.124	2.03
314.498	1.98
314.873	1.66
315.247	1.52
315.621	2.13
315.995	1.54
316.369	1.59
316.743	2.23
317.117	1.43
317.491	2.13
317.865	1.13
318.239	2.4
318.613	1.66
318.987	1.7
319.361	2.12
319.734	2.09
320.108	2.06
320.482	1.69
320.855	1.97
321.229	2.51
321.602	2.1
321.976	1.8
322.349	1.26
322.723	1.38
323.096	1.04
323.469	1.37
323.843	1.83
324.216	1.41
324.589	2.47
324.962	1.89
325.335	1.53
325.708	1.67
326.081	2.42
326.454	1.8
326.827	1.84
327.2	2.17
327.573	1.86
327.945	1.89
328.318	1.86
328.691	2.1
329.063	2.05
329.436	1.55
329.809	2.04
330.181	1.93
330.553	1.82
330.926	2.18
331.298	1.49
331.671	1.9
332.043	2.54
332.415	2.91
332.787	1.95
333.159	2.33
333.532	2.11
333.904	1.95
334.276	2.07
334.648	1.86
335.02	1.75
335.391	2.22
335.763	1.85
336.135	2.01
336.507	2.34
336.879	1.7
337.25	2.16
337.622	2.14
337.993	2.14
338.365	2.25
338.736	2.69
339.108	1.85
339.479	1.82
339.851	2.09
340.222	2.08
340.593	2.07
340.964	1.78
341.336	2.04
341.707	1.85
342.078	1.74
342.449	2.46
342.82	1.85
343.191	1.51
343.562	2.05
343.933	2.23
344.303	2.27
344.674	2.19
345.045	2.28
345.416	2.49
345.786	1.64
346.157	1.89
346.527	1.7
346.898	1.93
347.268	1.93
347.639	2.24
348.009	2.2
348.38	2.19
348.75	2.38
349.12	2.01
349.49	1.67
349.861	1.94
350.231	1.97
350.601	2.22
350.971	1.88
351.341	1.89
351.711	2.1
352.081	1.9
352.45	2.03
352.82	1.94
353.19	1.95
353.56	2.14
353.929	2.35
354.299	1.99
354.669	1.8
355.038	1.85
355.408	2.65
355.777	1.9
356.147	2.02
356.516	2.32
356.885	1.99
357.254	1.91
357.624	1.81
357.993	1.99
358.362	2.07
358.731	2.18
359.1	2.26
359.469	1.98
359.838	1.85
360.207	2.16
360.576	1.9
360.945	2.03
361.314	2.32
361.682	1.73
362.051	1.96
362.42	2.38
362.788	2.19
363.157	2.02
363.525	2.3
363.894	1.82
364.262	1.99
364.631	2.9
364.999	1.72
365.367	2.11
365.735	1.71
366.104	2.02
366.472	2.23
366.84	2.13
367.208	1.96
367.576	1.99
367.944	2.26
368.312	1.99
368.68	2.19
369.048	2.3
369.416	2.04
369.783	2.17
370.151	2.11
370.519	1.93
370.886	1.89
371.254	2.17
371.621	2.23
371.989	2.45
372.356	2.33
372.724	2.29
373.091	2.2
373.458	2.19
373.826	2.11
374.193	2.43
374.56	1.93
374.927	1.95
375.294	1.94
375.661	2.33
376.028	2.1
376.395	2.15
376.762	2.38
377.129	2.41
377.496	2.29
377.863	2.05
378.229	2.03
378.596	2.12
378.963	2.12
379.329	2.31
379.696	2.09
380.062	2.28
380.429	2.27
380.795	1.7
381.161	1.9
381.528	1.77
381.894	2.11
382.26	2.07
382.626	1.94
382.993	1.87
383.359	2.06
383.725	2.37
384.091	2.07
384.457	2.23
384.823	2.05
385.188	2.25
385.554	2.12
385.92	2.38
386.286	2.09
386.651	2.25
387.017	2.04
387.383	2.32
387.748	2.07
388.114	2.38
388.479	2.31
388.845	2.05
389.21	2.45
389.575	2.25
389.94	2.24
390.306	2.27
390.671	2.32
391.036	2.43
391.401	2.53
391.766	2.47
392.131	2.36
392.496	2.21
392.861	2.13
393.226	2.32
393.591	2.37
393.956	2.41
394.32	2.15
394.685	2.27
395.05	2.14
395.414	2.26
395.779	2.04
396.143	2.44
396.508	2.56
396.872	2.54
397.236	2.03
397.601	2.31
397.965	1.93
398.329	2.52
398.694	2.24
399.058	2.36
399.422	2.45
399.786	2.52
400.15	2.09
400.514	2.42
400.878	2.26
401.242	2.38
401.605	2.3
401.969	2.17
402.333	2.35
402.697	2.57
403.06	2.33
403.424	2.1
403.787	2.22
404.151	2.18
404.514	2.37
404.878	2.39
405.241	2.38
405.604	2.43
405.968	2.18
406.331	2.36
406.694	2.4
407.057	2.65
407.42	2.31
407.783	2.11
408.146	2.27
408.509	2.22
408.872	2.26
409.235	2.38
409.598	2.46
409.961	2.52
410.323	2.33
410.686	2.27
411.049	2.24
411.411	2.45
411.774	2.31
412.136	2.44
412.499	2.62
412.861	2.32
413.223	2.57
413.586	2.2
413.948	2.51
414.31	2.57
414.672	2.19
415.035	2.39
415.397	2.52
415.759	2.24
416.121	2.57
416.483	2.45
416.845	2.39
417.206	2.54
417.568	2.49
417.93	2.2
418.292	2.43
418.653	2.55
419.015	2.49
419.377	2.36
419.738	2.34
420.1	2.34
420.461	2.29
420.822	2.36
421.184	2.43
421.545	2.33
421.906	2.43
422.267	2.34
422.629	2.36
422.99	2.34
423.351	2.45
423.712	2.35
424.073	2.51
424.434	2.35
424.795	2.39
425.155	2.43
425.516	2.39
425.877	2.49
426.238	2.35
426.598	2.52
426.959	2.39
427.32	2.44
427.68	2.55
428.041	2.52
428.401	2.5
428.761	2.39
429.122	2.17
429.482	2.44
429.842	2.42
430.202	2.53
430.563	2.46
430.923	2.4
431.283	2.44
431.643	2.34
432.003	2.44
432.363	2.5
432.722	2.5
433.082	2.57
433.442	2.49
433.802	2.43
434.161	2.38
434.521	2.47
434.881	2.59
435.24	2.38
435.6	2.45
435.959	2.48
436.319	2.37
436.678	2.48
437.037	2.4
437.396	2.61
437.756	2.45
438.115	2.46
438.474	2.44
438.833	2.63
439.192	2.7
439.551	2.51
439.91	2.64
440.269	2.73
440.628	2.59
440.987	2.56
441.345	2.47
441.704	2.55
442.063	2.58
442.421	2.53
442.78	2.5
443.138	2.6
443.497	2.45
443.855	2.48
444.214	2.58
444.572	2.49
444.93	2.65
445.288	2.67
445.647	2.56
446.005	2.49
446.363	2.57
446.721	2.53
447.079	2.56
447.437	2.61
447.795	2.47
448.153	2.52
448.51	2.5
448.868	2.63
449.226	2.52
449.584	2.73
449.941	2.62
450.299	2.5
450.656	2.66
451.014	2.6
451.371	2.7
451.729	2.64
452.086	2.54
452.443	2.45
452.801	2.68
453.158	2.61
453.515	2.61
453.872	2.75
454.229	2.65
454.586	2.61
454.943	2.61
455.3	2.64
455.657	2.55
456.014	2.64
456.371	2.76
456.727	2.54
457.084	2.53
457.441	2.58
457.797	2.69
458.154	2.64
458.51	2.69
458.867	2.64
459.223	2.65
459.58	2.56
459.936	2.49
460.292	2.67
460.648	2.58
461.005	2.58
461.361	2.56
461.717	2.63
462.073	2.7
462.429	2.64
462.785	2.59
463.141	2.83
463.496	2.61
463.852	2.9
464.208	2.66
464.564	2.9
464.919	2.48
465.275	2.68
465.631	2.61
465.986	2.69
466.342	2.74
466.697	2.71
467.052	2.8
467.408	2.74
467.763	2.66
468.118	2.68
468.473	2.83
468.829	2.62
469.184	2.69
469.539	2.58
469.894	2.78
470.249	2.77
470.603	2.75
470.958	2.9
471.313	2.74
471.668	2.85
472.023	2.72
472.377	2.72
472.732	2.73
473.086	2.56
473.441	2.71
473.795	2.83
474.15	2.66
474.504	2.68
474.859	2.64
475.213	2.7
475.567	2.53
475.921	2.79
476.275	2.78
476.63	2.84
476.984	2.79
477.338	3
477.692	2.71
478.045	2.73
478.399	2.77
478.753	2.66
479.107	2.66
479.461	2.71
479.814	2.61
480.168	2.82
480.521	2.83
480.875	2.88
481.228	2.88
481.582	2.63
481.935	2.72
482.289	2.74
482.642	2.81
482.995	2.74
483.348	2.71
483.701	2.78
484.055	2.68
484.408	2.7
484.761	2.53
485.114	2.54
485.466	2.58
485.819	2.64
486.172	2.71
486.525	2.73
486.878	2.76
487.23	2.75
487.583	2.73
487.936	2.74
488.288	2.65
488.641	2.67
488.993	2.61
489.345	2.68
489.698	2.74
490.05	2.74
490.402	2.84
490.754	2.79
491.107	2.76
491.459	2.83
491.811	2.81
492.163	2.82
492.515	2.75
492.866	2.59
493.218	2.67
493.57	2.77
493.922	2.76
494.274	2.84
494.625	2.86
494.977	2.78
495.328	2.91
495.68	2.97
496.031	2.85
496.383	2.81
496.734	2.93
497.086	2.75
497.437	2.99
497.788	2.73
498.139	2.87
498.49	2.89
498.842	2.92
499.193	2.94
499.544	2.99
499.894	2.96
500.245	2.93
500.596	2.94
500.947	2.82
501.298	2.91
501.648	3.03
501.999	3.1
502.35	3.07
502.7	2.98
503.051	3.04
503.401	3.04
503.752	2.85
504.102	2.94
504.452	2.81
504.803	2.8
505.153	2.93
505.503	2.92
505.853	2.91
506.203	3.02
506.553	3
506.903	2.95
507.253	2.94
507.603	2.91
507.953	3.04
508.303	2.92
508.652	3.02
509.002	2.92
509.352	2.97
509.701	2.93
510.051	3.04
510.4	3.01
510.75	2.98
511.099	2.91
511.449	2.94
511.798	3.03
512.147	2.97
512.496	2.97
512.846	3.02
513.195	3
513.544	3
513.893	2.88
514.242	3.17
514.591	3.06
514.939	3.11
515.288	3.07
515.637	3.13
515.986	3
516.334	3.03
516.683	3.04
517.032	2.95
517.38	3.09
517.729	3.08
518.077	3.12
518.426	2.93
518.774	3
519.122	3.04
519.47	3.03
519.819	3.03
520.167	2.92
520.515	2.89
520.863	3.02
521.211	2.97
521.559	2.99
521.907	3.05
522.255	3.06
522.602	3.13
522.95	3.05
523.298	3.06
523.645	3
523.993	3.07
524.341	3.03
524.688	3.08
525.036	3.16
525.383	2.97
525.73	3.12
526.078	3.09
526.425	3.03
526.772	2.92
527.119	3
527.466	2.96
527.814	2.96
528.161	3.03
528.508	2.99
528.854	2.86
529.201	2.95
529.548	2.91
529.895	2.85
530.242	2.87
530.588	2.93
530.935	2.98
531.282	2.98
531.628	3.01
531.975	2.98
532.321	3.06
532.667	3.04
533.014	3.07
533.36	3.07
533.706	3.07
534.052	3.03
534.399	2.94
534.745	2.92
535.091	2.98
535.437	3.05
535.783	3.07
536.129	3.09
536.474	3.21
536.82	3.11
537.166	3.18
537.512	3.1
537.857	3.07
538.203	3.05
538.549	3.08
538.894	3.13
539.239	3.16
539.585	3.19
539.93	3.18
540.276	3.1
540.621	3.07
540.966	3.08
541.311	3.2
541.656	3.11
542.001	3.18
542.346	3.05
542.691	3.01
543.036	2.99
543.381	3.05
543.726	3.12
544.071	3.12
544.415	3.15
544.76	3
545.105	3.13
545.449	3.1
545.794	3.16
546.138	3.19
546.483	3.24
546.827	3.13
547.171	3.1
547.516	3.19
547.86	3.02
548.204	3.18
548.548	3.27
548.892	3.28
549.236	3.32
549.58	3.2
549.924	3.3
550.268	3.28
550.612	3.34
550.956	3.08
551.3	3.09
551.643	3.4
551.987	3.16
552.33	3.1
552.674	3.32
553.017	3.21
553.361	3.18
553.704	3.03
554.048	3.43
554.391	3.3
554.734	3.17
555.077	3.32
555.42	3.32
555.764	3.37
556.107	3.32
556.45	3.26
556.793	3.37
557.135	3.41
557.478	3.38
557.821	3.23
558.164	3.55
558.507	3.12
558.849	3.11
559.192	3.59
559.534	3.3
559.877	3.42
560.219	3.46
560.562	3.3
560.904	3.39
561.246	3.45
561.589	3.26
561.931	3.4
562.273	3.24
562.615	3.36
562.957	3.36
563.299	3.61
563.641	3.54
563.983	3.29
564.325	3.08
564.667	3.22
565.008	3.31
565.35	3.49
565.692	3.4
566.033	3.35
566.375	3.17
566.716	3.4
567.058	3.59
567.399	3.36
567.741	3.25
568.082	3.34
568.423	3.26
568.764	3.47
569.105	3.46
569.447	3.24
569.788	3.34
570.129	3.39
570.47	3.51
570.811	3.4
571.151	3.36
571.492	3.64
571.833	3.48
572.174	3.39
572.514	3.46
572.855	3.48
573.195	3.37
573.536	3.49
573.876	3.39
574.217	3.38
574.557	3.49
574.898	3.42
575.238	3.35
575.578	3.52
575.918	3.46
576.258	3.5
576.598	3.35
576.938	3.54
577.278	3.36
577.618	3.32
577.958	3.46
578.298	3.49
578.638	3.39
578.977	3.49
579.317	3.52
579.657	3.58
579.996	3.4
580.336	3.42
580.675	3.58
581.014	3.63
581.354	3.53
581.693	3.49
582.032	3.54
582.372	3.65
582.711	3.49
583.05	3.77
583.389	3.62
583.728	3.46
584.067	3.56
584.406	3.82
584.745	3.48
585.083	3.68
585.422	3.45
585.761	3.75
586.1	3.81
586.438	3.56
586.777	3.69
587.115	3.95
587.454	3.46
587.792	3.41
588.13	3.94
588.469	3.63
588.807	3.78
589.145	3.82
589.483	3.57
589.821	3.57
590.159	3.54
590.497	3.37
590.835	3.44
591.173	3.67
591.511	3.8
591.849	3.54
592.187	3.6
592.524	3.54
592.862	3.68
593.2	3.55
593.537	3.44
593.875	3.62
594.212	3.65
594.55	3.57
594.887	3.65
595.224	3.63
595.561	3.52
595.899	3.54
596.236	3.71
596.573	3.48
596.91	3.45
597.247	3.48
597.584	3.75
597.921	3.47
598.258	3.6
598.594	3.4
598.931	3.51
599.268	3.64
599.604	3.84
599.941	3.57
600.277	3.76
600.614	3.77
600.95	3.77
601.287	3.53
601.623	3.84
601.959	3.59
602.296	3.81
602.632	3.98
602.968	3.71
603.304	3.65
603.64	3.68
603.976	3.72
604.312	3.64
604.648	3.84
604.984	3.72
605.319	3.78
605.655	3.81
605.991	3.71
606.326	3.44
606.662	3.51
606.998	3.78
607.333	3.74
607.668	3.66
608.004	3.59
608.339	3.76
608.674	3.71
609.01	3.66
609.345	3.72
609.68	3.6
610.015	3.82
610.35	3.67
610.685	3.83
611.02	3.83
611.355	3.72
611.689	3.48
612.024	4
612.359	3.96
612.694	4.07
613.028	4.07
613.363	3.77
613.697	3.78
614.032	3.76
614.366	3.9
614.7	4.3
615.035	3.67
615.369	3.96
615.703	4.18
616.037	3.66
616.371	3.67
616.705	3.88
617.039	4.11
617.373	3.59
617.707	3.8
618.041	3.91
618.375	3.71
618.709	4.01
619.042	4.01
619.376	3.81
619.71	3.72
620.043	3.79
620.377	3.74
620.71	3.7
621.043	4.09
621.377	4.08
621.71	4.05
622.043	4.15
622.376	3.73
622.709	3.99
623.043	3.77
623.376	4.04
623.709	4.12
624.041	3.74
624.374	3.73
624.707	3.71
625.04	3.8
625.373	3.47
625.705	4.35
626.038	3.94
626.37	3.85
626.703	3.59
627.035	4.09
627.368	4.02
627.7	4.07
628.032	3.72
628.365	3.76
628.697	3.92
629.029	4.22
629.361	3.81
629.693	4.29
630.025	4.09
630.357	3.53
630.689	4.38
631.021	3.95
631.353	4.39
631.684	4.1
632.016	3.79
632.348	3.99
632.679	3.61
633.011	3.75
633.342	3.86
633.674	3.91
634.005	3.91
634.336	4.07
634.668	4.06
634.999	4.05
635.33	4.41
635.661	4.14
635.992	4.17
636.323	4.29
636.654	4.3
636.985	3.66
637.316	4.19
637.647	4.29
637.977	4.13
638.308	4.08
638.639	4.01
638.969	4.12
639.3	4.06
639.63	3.6
639.961	4.14
640.291	4.29
640.622	4.07
640.952	4.05
641.282	3.86
641.612	3.97
641.943	4.25
642.273	4.36
642.603	4.21
642.933	4.24
643.263	4.39
643.592	4.04
643.922	4.41
644.252	4.31
644.582	4.24
644.911	3.75
645.241	4.14
645.571	3.97
645.9	4.61
646.23	4.12
646.559	4.06
646.888	3.76
647.218	4.31
647.547	4.35
647.876	4.39
648.205	3.9
648.534	3.77
648.863	4.39
649.192	4.27
649.521	4.14
649.85	4.43
650.179	3.72
650.508	4.26
650.837	4.15
651.165	4.28
651.494	4.44
651.822	4.28
652.151	4.66
652.479	4.51
652.808	3.59
653.136	3.82
653.465	4.52
653.793	4.69
654.121	4.59
654.449	4.49
654.777	4.36
655.105	4.68
655.433	4.47
655.761	4.15
656.089	4.21
656.417	3.89
656.745	4.61
657.073	4.61
657.4	4.44
657.728	4.27
658.056	4.27
658.383	4.19
658.711	4.22
659.038	4.43
659.365	4.12
659.693	4.42
660.02	4.01
660.347	4.46
660.674	4.11
661.001	4.1
661.329	4.14
661.656	4.28
661.982	4.08
662.309	4.52
662.636	4.27
662.963	4.5
663.29	4.43
663.616	4.45
663.943	4.82
664.27	4.48
664.596	4.45
664.923	5.12
665.249	4.35
665.576	4.46
665.902	4.18
666.228	4.52
666.554	4.01
666.881	4.79
667.207	3.96
667.533	4.58
667.859	4.33
668.185	4.38
668.511	3.87
668.837	4.02
669.162	4.74
669.488	4.44
669.814	4.51
670.139	4.54
670.465	5.01
670.791	4.41
671.116	4.75
671.442	4.76
671.767	4.51
672.092	4.62
672.418	4.04
672.743	4.19
673.068	4.35
673.393	4.61
673.718	4.59
674.043	4.61
674.368	4.9
674.693	5.45
675.018	5.14
675.343	4.98
675.667	4.7
675.992	4.1
676.317	4.33
676.641	5.02
676.966	4.93
677.29	4.13
677.615	4.02
677.939	4.37
678.264	4.52
678.588	5.36
678.912	4.56
679.236	4.88
679.56	4.44
679.885	4.65
680.209	4.48
680.532	5.02
680.856	5.24
681.18	4.85
681.504	4.17
681.828	4.1
682.152	4.72
682.475	4.73
682.799	4.5
683.122	4.78
683.446	4.39
683.769	4.74
684.093	5.05
684.416	4.31
684.739	4.77
685.062	5.26
685.386	4.76
685.709	4.45
686.032	4.51
686.355	4.85
686.678	4.32
687.001	3.5
687.324	4.47
687.646	4.37
687.969	4.6
688.292	5.56
688.614	4.8
688.937	5.3
689.26	3.96
689.582	4.26
689.904	4.86
690.227	4.82
690.549	5.02
690.871	5.33
691.194	5.16
691.516	4.55
691.838	4.97
