Data from 0055_crown_Reflection__3__116.txt Node

Date: Fri Dec 16 14:51:06 CST 2022
User: ToomeyLab
Spectrometer: FLMS14357
Trigger mode: 0
Integration Time (sec): 1.000000E-2
Scans to average: 100
Electric dark correction enabled: true
Nonlinearity correction enabled: false
Boxcar width: 0
XAxis mode: Wavelengths
Number of Pixels in Spectrum: 2048
>>>>>Begin Spectral Data<<<<<
189.047	173.49
189.435	173.49
189.823	173.49
190.211	95.57
190.599	-173.43
190.987	-27.45
191.375	43.64
191.763	422.25
192.151	15.45
192.538	112.58
192.926	28.82
193.314	81.28
193.702	122.48
194.089	-177.6
194.477	22.66
194.864	-16.52
195.252	91.52
195.639	341.12
196.027	154.98
196.414	-18.69
196.801	-260.56
197.189	193.19
197.576	26.07
197.963	177.73
198.351	-1.41
198.738	-18.68
199.125	16.28
199.512	-14.72
199.899	-10.48
200.286	-29.1
200.673	41.91
201.06	28.89
201.447	20.91
201.833	26.83
202.22	29.37
202.607	24.89
202.994	26.19
203.38	-43.51
203.767	-17.66
204.154	-50.93
204.54	46.79
204.927	28.14
205.313	11.63
205.699	17.89
206.086	-32.93
206.472	-23.74
206.858	4.95
207.245	2.07
207.631	-4.64
208.017	-2.21
208.403	9.76
208.789	-6.66
209.175	32.97
209.561	12.22
209.947	22.23
210.333	-30.41
210.719	2.42
211.105	-41.82
211.491	14.81
211.876	19.62
212.262	-30.18
212.648	-14.86
213.034	-51.8
213.419	18.99
213.805	1.67
214.19	-19.25
214.576	-67.43
214.961	6.68
215.346	-22.45
215.732	-26.92
216.117	-18.59
216.502	-3.7
216.888	-22.81
217.273	6.91
217.658	-17.27
218.043	-10.34
218.428	1.46
218.813	-7.1
219.198	15.16
219.583	-14.57
219.968	-1.46
220.353	-11.92
220.738	-34.9
221.122	1.93
221.507	11.1
221.892	14.54
222.276	1.13
222.661	-3.15
223.046	8.88
223.43	-6.57
223.815	10.86
224.199	7.35
224.583	9.33
224.968	12.25
225.352	15.73
225.736	2.27
226.121	-0.01
226.505	3.57
226.889	3.95
227.273	1.22
227.657	1.76
228.041	6.44
228.425	6.56
228.809	6.14
229.193	2.53
229.577	4.58
229.961	4.92
230.344	5.94
230.728	5.71
231.112	4.61
231.495	4.2
231.879	5.19
232.263	4.29
232.646	3.85
233.03	2.61
233.413	3.95
233.797	6.74
234.18	2.66
234.563	2.59
234.946	5.81
235.33	6.02
235.713	4.3
236.096	3.48
236.479	4.97
236.862	6.3
237.245	4.45
237.628	5.33
238.011	5.43
238.394	7.9
238.777	5.62
239.16	2.05
239.543	3.58
239.925	5.28
240.308	5.61
240.691	5.96
241.073	4.1
241.456	4.64
241.838	5.1
242.221	5.14
242.603	4.95
242.986	5.62
243.368	5.2
243.75	4.75
244.133	4.92
244.515	4.82
244.897	4.23
245.279	4.59
245.661	3.72
246.043	4.46
246.425	4.58
246.807	4.43
247.189	4.99
247.571	4.79
247.953	5.03
248.335	4.87
248.717	4.95
249.098	5
249.48	4.59
249.862	4.76
250.243	4.94
250.625	4.73
251.006	4.25
251.388	5.32
251.769	5.19
252.151	3.7
252.532	5.1
252.913	5.44
253.295	5.01
253.676	5.2
254.057	4.29
254.438	4.67
254.819	4.35
255.2	4.06
255.581	4.27
255.962	4.72
256.343	5.31
256.724	5.94
257.105	3.6
257.486	5.01
257.867	3.21
258.247	4.87
258.628	5.46
259.009	4.26
259.389	5.2
259.77	4.47
260.15	5.32
260.531	4.86
260.911	4.65
261.292	4.61
261.672	4.79
262.052	4.28
262.432	4.12
262.813	4.69
263.193	4.35
263.573	5.08
263.953	4.16
264.333	4.86
264.713	3.97
265.093	4.39
265.473	5.26
265.853	4.84
266.233	4
266.612	4.38
266.992	4.27
267.372	5.25
267.752	4.46
268.131	4.39
268.511	4.48
268.89	5.06
269.27	4.87
269.649	4.6
270.029	4.6
270.408	4.16
270.787	4.42
271.167	4.18
271.546	3.81
271.925	4.77
272.304	4.27
272.683	4.37
273.062	4.81
273.441	4.48
273.82	4.94
274.199	4.96
274.578	4.32
274.957	4.53
275.336	4.47
275.715	4.68
276.093	4.61
276.472	4.81
276.851	4.62
277.229	4.83
277.608	4.41
277.986	4.77
278.365	4.35
278.743	4.87
279.122	3.7
279.5	3.9
279.878	3.33
280.257	4.87
280.635	4.17
281.013	4.36
281.391	4.5
281.769	4.05
282.147	4.84
282.525	4.66
282.903	4.62
283.281	4.55
283.659	4.4
284.037	4.58
284.415	4.77
284.792	4.85
285.17	4.13
285.548	4.47
285.925	4.33
286.303	4.31
286.68	4.51
287.058	4.32
287.435	4.31
287.813	4.37
288.19	4.81
288.567	4.09
288.945	4.71
289.322	4.42
289.699	4.24
290.076	4.78
290.453	4.61
290.83	4.47
291.207	4.52
291.584	4.09
291.961	4.63
292.338	4.97
292.715	4.31
293.092	4.86
293.469	4.43
293.845	4.47
294.222	4.25
294.599	4.8
294.975	4.37
295.352	4.43
295.728	5.07
296.105	4.33
296.481	5.1
296.858	4.44
297.234	4.63
297.61	4.49
297.986	4.71
298.363	4.14
298.739	4.68
299.115	4.13
299.491	4.41
299.867	4.31
300.243	4.28
300.619	4.54
300.995	4.41
301.371	4.29
301.746	4.32
302.122	4.3
302.498	4.44
302.874	4.48
303.249	4.43
303.625	4.58
304	4.29
304.376	4.4
304.751	4.75
305.127	4.45
305.502	5
305.878	4.64
306.253	4.4
306.628	4.76
307.003	4.71
307.378	3.9
307.754	4.92
308.129	3.81
308.504	4.11
308.879	3.96
309.254	4.64
309.629	4.24
310.003	4.67
310.378	4.83
310.753	4.35
311.128	4.28
311.502	4.09
311.877	4.46
312.252	4.3
312.626	4.36
313.001	4.39
313.375	4.44
313.75	4.43
314.124	4.59
314.498	4.06
314.873	4.47
315.247	4.26
315.621	4.65
315.995	4.58
316.369	4.62
316.743	4.24
317.117	4.38
317.491	4.56
317.865	3.79
318.239	4.59
318.613	4.27
318.987	4.86
319.361	4.77
319.734	4.55
320.108	4.83
320.482	4.59
320.855	4.23
321.229	5.34
321.602	4
321.976	4.21
322.349	3.99
322.723	3.55
323.096	4.09
323.469	3.79
323.843	4.36
324.216	3.73
324.589	4.59
324.962	4.54
325.335	4.55
325.708	4.35
326.081	5.03
326.454	4.81
326.827	4.47
327.2	4.74
327.573	4.76
327.945	4.44
328.318	4.54
328.691	4.52
329.063	4.66
329.436	4.04
329.809	4.07
330.181	4.14
330.553	4.68
330.926	5.07
331.298	4.55
331.671	4.49
332.043	4.56
332.415	4.86
332.787	4.94
333.159	4.22
333.532	4.83
333.904	4.51
334.276	4.4
334.648	4.38
335.02	4.37
335.391	4.25
335.763	4.7
336.135	4.36
336.507	4.76
336.879	4.58
337.25	4.86
337.622	4.58
337.993	4.51
338.365	4.69
338.736	4.21
339.108	4.32
339.479	4.38
339.851	4.61
340.222	4.62
340.593	4.5
340.964	4.16
341.336	4.11
341.707	4.5
342.078	4.2
342.449	4.74
342.82	4.16
343.191	4.35
343.562	4.51
343.933	4.69
344.303	4.47
344.674	4.56
345.045	4.35
345.416	4.67
345.786	4.44
346.157	4.41
346.527	3.99
346.898	4.42
347.268	4.04
347.639	4.3
348.009	4.76
348.38	4.45
348.75	4.5
349.12	4.47
349.49	4.01
349.861	4.94
350.231	4.25
350.601	4.43
350.971	4.12
351.341	4.46
351.711	4.18
352.081	4.43
352.45	4.78
352.82	4.56
353.19	3.88
353.56	4.29
353.929	4.74
354.299	4.33
354.669	4.43
355.038	4.37
355.408	4.43
355.777	4.39
356.147	4.73
356.516	4.45
356.885	4.74
357.254	4.67
357.624	4.31
357.993	4.27
358.362	4.51
358.731	4.31
359.1	4.73
359.469	4.53
359.838	4.19
360.207	4.34
360.576	4.53
360.945	4.25
361.314	4.37
361.682	4.3
362.051	4.23
362.42	4.28
362.788	4.53
363.157	4.19
363.525	4.27
363.894	4.21
364.262	4.24
364.631	5.23
364.999	4.1
365.367	4.77
365.735	3.96
366.104	4.17
366.472	4.56
366.84	4.31
367.208	4.24
367.576	4.32
367.944	4.44
368.312	4.07
368.68	4.56
369.048	4.44
369.416	4.37
369.783	4.58
370.151	4.45
370.519	4.31
370.886	4.36
371.254	4.31
371.621	4.27
371.989	4.7
372.356	4.32
372.724	4.44
373.091	4.42
373.458	3.97
373.826	4.43
374.193	4.81
374.56	4.37
374.927	3.84
375.294	4.81
375.661	4.27
376.028	4.31
376.395	4.45
376.762	4.46
377.129	4.63
377.496	4.48
377.863	4.35
378.229	4.54
378.596	4.12
378.963	4.22
379.329	4.4
379.696	4.38
380.062	4.61
380.429	4.64
380.795	4.31
381.161	4.37
381.528	4.09
381.894	4.54
382.26	4.26
382.626	4.24
382.993	4.56
383.359	4.15
383.725	4.73
384.091	4.18
384.457	4.62
384.823	4.6
385.188	4.47
385.554	4.63
385.92	4.55
386.286	4.32
386.651	4.35
387.017	4.63
387.383	4.4
387.748	4.28
388.114	4.43
388.479	4.53
388.845	4.57
389.21	4.47
389.575	4.63
389.94	4.52
390.306	4.33
390.671	4.37
391.036	4.77
391.401	4.91
391.766	4.58
392.131	4.24
392.496	4.59
392.861	4.17
393.226	4.55
393.591	4.46
393.956	4.72
394.32	4.42
394.685	4.5
395.05	4.38
395.414	4.48
395.779	4.31
396.143	4.42
396.508	4.55
396.872	4.47
397.236	4.26
397.601	4.71
397.965	4.09
398.329	4.59
398.694	4.36
399.058	4.33
399.422	4.65
399.786	4.67
400.15	4.33
400.514	4.63
400.878	4.43
401.242	4.73
401.605	4.39
401.969	4.42
402.333	4.54
402.697	4.76
403.06	4.47
403.424	4.52
403.787	4.65
404.151	4.58
404.514	4.45
404.878	4.52
405.241	4.55
405.604	4.55
405.968	4.52
406.331	4.39
406.694	4.41
407.057	4.8
407.42	4.85
407.783	4.63
408.146	4.39
408.509	4.36
408.872	4.48
409.235	4.6
409.598	4.68
409.961	4.6
410.323	4.48
410.686	4.45
411.049	4.34
411.411	4.64
411.774	4.45
412.136	4.63
412.499	4.55
412.861	4.34
413.223	4.7
413.586	4.32
413.948	4.58
414.31	4.84
414.672	4.54
415.035	4.72
415.397	4.46
415.759	4.6
416.121	4.7
416.483	4.63
416.845	4.67
417.206	4.55
417.568	4.63
417.93	4.49
418.292	4.66
418.653	4.69
419.015	4.64
419.377	4.65
419.738	4.51
420.1	4.72
420.461	4.51
420.822	4.63
421.184	4.52
421.545	4.53
421.906	4.59
422.267	4.4
422.629	4.52
422.99	4.53
423.351	4.58
423.712	4.57
424.073	4.6
424.434	4.52
424.795	4.48
425.155	4.47
425.516	4.5
425.877	4.56
426.238	4.5
426.598	4.56
426.959	4.55
427.32	4.63
427.68	4.75
428.041	4.61
428.401	4.59
428.761	4.69
429.122	4.6
429.482	4.54
429.842	4.68
430.202	4.61
430.563	4.87
430.923	4.85
431.283	4.75
431.643	4.65
432.003	4.86
432.363	4.69
432.722	4.57
433.082	4.56
433.442	4.68
433.802	4.84
434.161	4.72
434.521	4.6
434.881	4.94
435.24	4.69
435.6	4.59
435.959	4.7
436.319	4.65
436.678	4.84
437.037	4.78
437.396	4.76
437.756	4.77
438.115	4.62
438.474	4.77
438.833	4.79
439.192	4.91
439.551	4.87
439.91	4.89
440.269	4.82
440.628	4.84
440.987	4.6
441.345	4.73
441.704	4.71
442.063	4.8
442.421	4.76
442.78	4.75
443.138	4.68
443.497	4.62
443.855	4.9
444.214	4.86
444.572	4.72
444.93	4.9
445.288	4.95
445.647	4.84
446.005	4.65
446.363	4.89
446.721	4.73
447.079	4.82
447.437	4.72
447.795	4.69
448.153	4.74
448.51	4.69
448.868	4.88
449.226	4.75
449.584	4.81
449.941	4.91
450.299	4.82
450.656	4.83
451.014	4.88
451.371	5.01
451.729	4.79
452.086	4.83
452.443	4.86
452.801	4.89
453.158	4.95
453.515	4.85
453.872	4.88
454.229	4.79
454.586	4.84
454.943	4.86
455.3	5.01
455.657	4.85
456.014	4.98
456.371	4.94
456.727	4.92
457.084	5.02
457.441	4.84
457.797	5.02
458.154	4.88
458.51	4.89
458.867	4.72
459.223	4.92
459.58	5.1
459.936	4.94
460.292	5.03
460.648	4.85
461.005	4.86
461.361	4.83
461.717	4.91
462.073	4.87
462.429	4.96
462.785	5.01
463.141	5.07
463.496	5
463.852	5.17
464.208	5.08
464.564	4.99
464.919	4.97
465.275	5.05
465.631	5.11
465.986	4.96
466.342	5.09
466.697	4.96
467.052	5.06
467.408	4.97
467.763	5.02
468.118	5.08
468.473	5.22
468.829	5.06
469.184	5.14
469.539	4.98
469.894	5.12
470.249	5.19
470.603	5.18
470.958	5.22
471.313	5.2
471.668	5.24
472.023	5.31
472.377	5.11
472.732	5.05
473.086	4.89
473.441	5.26
473.795	5.3
474.15	5.16
474.504	5.14
474.859	5.13
475.213	5.21
475.567	5.12
475.921	5.32
476.275	5.35
476.63	4.98
476.984	5.23
477.338	5.49
477.692	5.08
478.045	5.19
478.399	5.26
478.753	5.08
479.107	5.11
479.461	5.21
479.814	5.13
480.168	5.26
480.521	5.2
480.875	5.37
481.228	5.34
481.582	5.13
481.935	5.16
482.289	5.18
482.642	5.21
482.995	5.24
483.348	5.09
483.701	5.16
484.055	5.09
484.408	5.06
484.761	4.97
485.114	4.89
485.466	4.89
485.819	4.95
486.172	5.04
486.525	5.08
486.878	5.12
487.23	5.15
487.583	5.16
487.936	5.21
488.288	5.17
488.641	5.08
488.993	5.01
489.345	5.04
489.698	5.11
490.05	5.11
490.402	5.17
490.754	5.25
491.107	5.24
491.459	5.31
491.811	5.44
492.163	5.28
492.515	5.22
492.866	5.09
493.218	5.08
493.57	5.1
493.922	5.19
494.274	5.24
494.625	5.22
494.977	5.26
495.328	5.38
495.68	5.53
496.031	5.45
496.383	5.34
496.734	5.36
497.086	5.28
497.437	5.31
497.788	5.43
498.139	5.39
498.49	5.3
498.842	5.32
499.193	5.34
499.544	5.41
499.894	5.45
500.245	5.47
500.596	5.34
500.947	5.48
501.298	5.4
501.648	5.49
501.999	5.59
502.35	5.48
502.7	5.52
503.051	5.55
503.401	5.55
503.752	5.53
504.102	5.46
504.452	5.46
504.803	5.47
505.153	5.58
505.503	5.49
505.853	5.49
506.203	5.51
506.553	5.55
506.903	5.62
507.253	5.52
507.603	5.46
507.953	5.73
508.303	5.64
508.652	5.71
509.002	5.57
509.352	5.46
509.701	5.58
510.051	5.65
510.4	5.55
510.75	5.47
511.099	5.5
511.449	5.56
511.798	5.74
512.147	5.53
512.496	5.68
512.846	5.54
513.195	5.61
513.544	5.59
513.893	5.52
514.242	5.69
514.591	5.72
514.939	5.62
515.288	5.62
515.637	5.61
515.986	5.73
516.334	5.76
516.683	5.78
517.032	5.65
517.38	5.75
517.729	5.67
518.077	5.69
518.426	5.59
518.774	5.69
519.122	5.69
519.47	5.62
519.819	5.69
520.167	5.59
520.515	5.57
520.863	5.58
521.211	5.68
521.559	5.57
521.907	5.66
522.255	5.83
522.602	5.82
522.95	5.69
523.298	5.73
523.645	5.63
523.993	5.75
524.341	5.76
524.688	5.79
525.036	5.86
525.383	5.89
525.73	5.79
526.078	5.8
526.425	5.67
526.772	5.49
527.119	5.58
527.466	5.67
527.814	5.71
528.161	5.69
528.508	5.79
528.854	5.65
529.201	5.61
529.548	5.59
529.895	5.51
530.242	5.5
530.588	5.57
530.935	5.59
531.282	5.66
531.628	5.67
531.975	5.72
532.321	5.71
532.667	5.81
533.014	5.74
533.36	5.75
533.706	5.67
534.052	5.76
534.399	5.68
534.745	5.63
535.091	5.7
535.437	5.68
535.783	5.82
536.129	5.74
536.474	5.87
536.82	5.81
537.166	5.85
537.512	5.8
537.857	5.82
538.203	5.83
538.549	5.87
538.894	5.83
539.239	5.98
539.585	5.9
539.93	5.96
540.276	5.86
540.621	5.97
540.966	5.93
541.311	5.99
541.656	5.79
542.001	5.88
542.346	5.79
542.691	5.73
543.036	5.68
543.381	5.83
543.726	5.82
544.071	5.84
544.415	5.93
544.76	5.76
545.105	5.91
545.449	5.94
545.794	5.89
546.138	6.04
546.483	6
546.827	6.08
547.171	5.94
547.516	6.08
547.86	5.92
548.204	6
548.548	6.13
548.892	6.01
549.236	6.18
549.58	5.99
549.924	6.02
550.268	6.26
550.612	6.1
550.956	5.89
551.3	6.12
551.643	6.16
551.987	6.14
552.33	6.12
552.674	6.23
553.017	6.23
553.361	6.08
553.704	6.01
554.048	6.04
554.391	6.06
554.734	6.14
555.077	6.17
555.42	6.13
555.764	6.23
556.107	6.16
556.45	6.09
556.793	6.31
557.135	6.39
557.478	6.26
557.821	6.06
558.164	6.29
558.507	6.15
558.849	6.17
559.192	6.34
559.534	6.25
559.877	6.33
560.219	6.37
560.562	6.28
560.904	6.32
561.246	6.39
561.589	6.31
561.931	6.55
562.273	6.34
562.615	6.29
562.957	6.3
563.299	6.14
563.641	6.33
563.983	6.24
564.325	6.14
564.667	6.15
565.008	6.5
565.35	6.48
565.692	6.41
566.033	6.24
566.375	6.29
566.716	6.39
567.058	6.32
567.399	6.45
567.741	6.33
568.082	6.45
568.423	6.28
568.764	6.49
569.105	6.35
569.447	6.26
569.788	6.55
570.129	6.29
570.47	6.46
570.811	6.46
571.151	6.36
571.492	6.61
571.833	6.4
572.174	6.43
572.514	6.28
572.855	6.34
573.195	6.29
573.536	6.3
573.876	6.34
574.217	6.4
574.557	6.47
574.898	6.45
575.238	6.42
575.578	6.57
575.918	6.4
576.258	6.49
576.598	6.28
576.938	6.57
577.278	6.38
577.618	6.42
577.958	6.55
578.298	6.56
578.638	6.59
578.977	6.48
579.317	6.73
579.657	6.44
579.996	6.55
580.336	6.42
580.675	6.75
581.014	6.56
581.354	6.72
581.693	6.6
582.032	6.29
582.372	6.57
582.711	6.55
583.05	6.86
583.389	6.5
583.728	6.94
584.067	6.67
584.406	6.74
584.745	6.48
585.083	6.84
585.422	6.63
585.761	6.7
586.1	6.88
586.438	6.79
586.777	6.75
587.115	6.64
587.454	6.58
587.792	6.59
588.13	6.66
588.469	6.79
588.807	6.85
589.145	6.61
589.483	6.57
589.821	6.88
590.159	6.51
590.497	6.57
590.835	6.68
591.173	6.71
591.511	6.83
591.849	6.71
592.187	6.64
592.524	6.57
592.862	6.71
593.2	6.78
593.537	6.6
593.875	6.82
594.212	6.65
594.55	6.69
594.887	6.9
595.224	6.69
595.561	6.76
595.899	6.8
596.236	6.7
596.573	6.63
596.91	6.61
597.247	6.56
597.584	6.76
597.921	6.76
598.258	6.78
598.594	6.49
598.931	6.61
599.268	6.74
599.604	6.82
599.941	6.71
600.277	6.73
600.614	6.66
600.95	6.68
601.287	6.7
601.623	6.9
601.959	6.68
602.296	6.9
602.632	6.87
602.968	6.95
603.304	6.94
603.64	6.96
603.976	6.75
604.312	6.99
604.648	6.99
604.984	6.82
605.319	6.86
605.655	6.95
605.991	6.84
606.326	6.77
606.662	6.83
606.998	6.74
607.333	6.78
607.668	6.83
608.004	7.03
608.339	7.04
608.674	6.8
609.01	7.16
609.345	7.33
609.68	6.6
610.015	7.07
610.35	7.07
610.685	6.85
611.02	7.05
611.355	6.97
611.689	6.73
612.024	7.01
612.359	7.02
612.694	7.19
613.028	7.24
613.363	6.76
613.697	7.1
614.032	7.1
614.366	6.8
614.7	7.44
615.035	6.96
615.369	7.06
615.703	7.11
616.037	6.81
616.371	6.96
616.705	7
617.039	7.49
617.373	6.73
617.707	7.06
618.041	7.18
618.375	6.76
618.709	6.95
619.042	7.35
619.376	7.12
619.71	7.03
620.043	6.96
620.377	7.08
620.71	6.87
621.043	6.97
621.377	6.96
621.71	7.12
622.043	6.95
622.376	6.69
622.709	7.27
623.043	7.02
623.376	7.31
623.709	7.23
624.041	6.98
624.374	7.06
624.707	6.83
625.04	7.6
625.373	6.92
625.705	7.23
626.038	7.21
626.37	7.17
626.703	6.86
627.035	7.17
627.368	7.2
627.7	7.41
628.032	7.12
628.365	6.88
628.697	7.1
629.029	7.29
629.361	7.06
629.693	7.38
630.025	7.21
630.357	6.99
630.689	7.22
631.021	7.42
631.353	7.5
631.684	7.56
632.016	7.21
632.348	7.37
632.679	7.32
633.011	7.3
633.342	6.93
633.674	7.35
634.005	7.44
634.336	7.32
634.668	7.02
634.999	7.1
635.33	7.42
635.661	7.56
635.992	6.99
636.323	7.52
636.654	7.23
636.985	7.14
637.316	7.3
637.647	7.29
637.977	7.3
638.308	7.11
638.639	7.08
638.969	7.39
639.3	7.34
639.63	7.51
639.961	7.11
640.291	7.66
640.622	7.39
640.952	7.48
641.282	7.19
641.612	7.35
641.943	7.56
642.273	7.56
642.603	7.39
642.933	7.45
643.263	7.68
643.592	7.54
643.922	7.77
644.252	7.52
644.582	7.23
644.911	7.26
645.241	7.64
645.571	7.13
645.9	7.65
646.23	7.42
646.559	7.67
646.888	7.13
647.218	7.77
647.547	7.42
647.876	7.75
648.205	7.2
648.534	7.16
648.863	7.89
649.192	7.49
649.521	6.98
649.85	7.55
650.179	7.04
650.508	7.36
650.837	7.48
651.165	7.86
651.494	7.67
651.822	7.49
652.151	7.87
652.479	8.04
652.808	7.83
653.136	7.47
653.465	7.7
653.793	8
654.121	7.56
654.449	7.39
654.777	7.8
655.105	7.83
655.433	7.68
655.761	7.47
656.089	7.75
656.417	7.32
656.745	8.12
657.073	7.59
657.4	7.69
657.728	8.2
658.056	7.68
658.383	7.59
658.711	7.31
659.038	7.96
659.365	8.16
659.693	7.35
660.02	7.54
660.347	7.83
660.674	7.43
661.001	7.33
661.329	7.76
661.656	7.95
661.982	7.79
662.309	8.05
662.636	7.7
662.963	8.26
663.29	8.01
663.616	7.76
663.943	7.68
664.27	7.95
664.596	7.92
664.923	7.96
665.249	7.76
665.576	7.68
665.902	7.5
666.228	7.89
666.554	7.39
666.881	7.88
667.207	7.71
667.533	8.3
667.859	7.73
668.185	8.02
668.511	7.48
668.837	6.89
669.162	7.83
669.488	7.93
669.814	8.6
670.139	8.86
670.465	8.14
670.791	8.36
671.116	8.13
671.442	8
671.767	7.71
672.092	8.5
672.418	8.15
672.743	7.66
673.068	7.58
673.393	8.29
673.718	7.94
674.043	8.27
674.368	8.46
674.693	8.19
675.018	8.02
675.343	7.93
675.667	7.94
675.992	7.92
676.317	8.08
676.641	7.88
676.966	7.93
677.29	8.26
677.615	8.4
677.939	8.13
678.264	8.14
678.588	8.13
678.912	8.93
679.236	8.15
679.56	7.61
679.885	8.29
680.209	7.8
680.532	8.6
680.856	8.74
681.18	8.46
681.504	8.02
681.828	7.56
682.152	7.89
682.475	8.16
682.799	8.46
683.122	8.28
683.446	7.57
683.769	7.67
684.093	8.86
684.416	8.2
684.739	8.77
685.062	8.14
685.386	7.98
685.709	8.15
686.032	7.93
686.355	7.73
686.678	7.86
687.001	7.57
687.324	8.45
687.646	8.31
687.969	7.6
688.292	8.9
688.614	8.56
688.937	7.97
689.26	8.41
689.582	8.24
689.904	7.83
690.227	8.43
690.549	8.12
690.871	8.32
691.194	9.06
691.516	7.79
691.838	8.54
692.16	8.91
