Data from 0055_crown_Reflection__0__113.txt Node

Date: Fri Dec 16 14:50:38 CST 2022
User: ToomeyLab
Spectrometer: FLMS14357
Trigger mode: 0
Integration Time (sec): 1.000000E-2
Scans to average: 100
Electric dark correction enabled: true
Nonlinearity correction enabled: false
Boxcar width: 0
XAxis mode: Wavelengths
Number of Pixels in Spectrum: 2048
>>>>>Begin Spectral Data<<<<<
189.047	-14.98
189.435	-14.98
189.823	-14.98
190.211	410.42
190.599	46.64
190.987	3.98
191.375	31.77
191.763	146.19
192.151	44.47
192.538	-75.49
192.926	-3.11
193.314	160.35
193.702	-25.23
194.089	-386.75
194.477	-25.81
194.864	-115.12
195.252	-14.4
195.639	428.08
196.027	15.21
196.414	-17.68
196.801	-193.54
197.189	72.24
197.576	28.27
197.963	-242.54
198.351	57.33
198.738	2.81
199.125	21.26
199.512	6.16
199.899	-117.73
200.286	-9.67
200.673	34
201.06	5.68
201.447	32.65
201.833	-44.22
202.22	-0.41
202.607	-25.92
202.994	9.85
203.38	-20.69
203.767	-4.25
204.154	-34.74
204.54	24.6
204.927	4.3
205.313	40.95
205.699	24.42
206.086	-11.56
206.472	-46.88
206.858	41.16
207.245	25.18
207.631	5.86
208.017	6.86
208.403	0.77
208.789	-31.51
209.175	38.97
209.561	0.01
209.947	-1.95
210.333	-18.34
210.719	21.88
211.105	-19.8
211.491	2.25
211.876	-31.24
212.262	-15.12
212.648	-14.97
213.034	-4.77
213.419	17.26
213.805	-16.14
214.19	2.38
214.576	-0.92
214.961	-31.5
215.346	-43.38
215.732	-24.64
216.117	-0.88
216.502	9.18
216.888	0.13
217.273	18.34
217.658	-0.97
218.043	-2.38
218.428	35.16
218.813	-6.35
219.198	-23.16
219.583	17.81
219.968	-7.61
220.353	-9.14
220.738	19.53
221.122	8
221.507	-1.1
221.892	6.52
222.276	3.59
222.661	3.53
223.046	8.63
223.43	-11.95
223.815	0.81
224.199	2.34
224.583	0.28
224.968	5.96
225.352	3.67
225.736	5.63
226.121	-9.94
226.505	4.46
226.889	3.96
227.273	1.02
227.657	1.88
228.041	8.06
228.425	1.7
228.809	3.35
229.193	2.54
229.577	3.27
229.961	3.86
230.344	4.12
230.728	3.59
231.112	4.21
231.495	3.52
231.879	4.31
232.263	2.94
232.646	2.17
233.03	2.12
233.413	1.64
233.797	6.11
234.18	3.13
234.563	4.41
234.946	2.14
235.33	3.95
235.713	2.69
236.096	3.89
236.479	4.59
236.862	4.81
237.245	4.49
237.628	4.2
238.011	3.57
238.394	5.86
238.777	3.22
239.16	1.39
239.543	2.67
239.925	3.46
240.308	3.63
240.691	3.98
241.073	4.54
241.456	4.04
241.838	3.29
242.221	3.89
242.603	3.04
242.986	4.21
243.368	3.05
243.75	3.36
244.133	4.02
244.515	3.73
244.897	3.44
245.279	2.62
245.661	3.8
246.043	3.33
246.425	3.41
246.807	3.64
247.189	3.42
247.571	3.62
247.953	3.61
248.335	3.9
248.717	3.87
249.098	3.92
249.48	3.5
249.862	3.71
250.243	3.34
250.625	3.67
251.006	4.14
251.388	4.05
251.769	3.77
252.151	4.22
252.532	3.39
252.913	3.58
253.295	3.58
253.676	3.77
254.057	3.5
254.438	3.36
254.819	4.17
255.2	2.92
255.581	2.78
255.962	2.88
256.343	3.61
256.724	3.78
257.105	3.02
257.486	3.7
257.867	2.68
258.247	3.8
258.628	3.96
259.009	3.28
259.389	3.99
259.77	3.06
260.15	3.99
260.531	3.6
260.911	3.32
261.292	3.36
261.672	3.54
262.052	3.64
262.432	3.36
262.813	3.59
263.193	3.56
263.573	3.46
263.953	3.97
264.333	3.02
264.713	3.47
265.093	2.85
265.473	3.8
265.853	3.43
266.233	2.72
266.612	3.59
266.992	3.38
267.372	3.32
267.752	3.18
268.131	3.43
268.511	3.41
268.89	3.67
269.27	3.38
269.649	4.05
270.029	3.04
270.408	3.83
270.787	2.98
271.167	3.24
271.546	2.53
271.925	3.15
272.304	3.4
272.683	3.31
273.062	3.58
273.441	3.42
273.82	3.57
274.199	3.61
274.578	3.38
274.957	3.32
275.336	2.98
275.715	3.48
276.093	3.76
276.472	3.34
276.851	3.99
277.229	3.88
277.608	3.21
277.986	3.33
278.365	3.16
278.743	3.02
279.122	2.8
279.5	2.65
279.878	3.31
280.257	3.71
280.635	2.42
281.013	3.06
281.391	2.66
281.769	2.62
282.147	3.49
282.525	2.93
282.903	3.39
283.281	3.56
283.659	3.27
284.037	3.2
284.415	3.16
284.792	3.44
285.17	2.81
285.548	3.34
285.925	3.52
286.303	3.34
286.68	3.39
287.058	3.16
287.435	2.87
287.813	3.36
288.19	3.48
288.567	3.19
288.945	3.47
289.322	2.98
289.699	3.07
290.076	3.33
290.453	3.26
290.83	3.39
291.207	3.13
291.584	3.06
291.961	3.33
292.338	3.44
292.715	3.73
293.092	3.23
293.469	3.02
293.845	3.62
294.222	3.29
294.599	3.62
294.975	3.17
295.352	2.91
295.728	2.93
296.105	3.1
296.481	3.49
296.858	2.9
297.234	3.17
297.61	3.15
297.986	3.32
298.363	2.73
298.739	3.32
299.115	3.18
299.491	3.15
299.867	3.39
300.243	3.11
300.619	3.06
300.995	3.55
301.371	3.51
301.746	3.09
302.122	3.61
302.498	3.41
302.874	3.42
303.249	3.35
303.625	3.36
304	2.65
304.376	3.43
304.751	3.63
305.127	3.3
305.502	3.54
305.878	3.56
306.253	3.24
306.628	3.81
307.003	3.64
307.378	3.23
307.754	3.77
308.129	3.57
308.504	3.4
308.879	3.48
309.254	3.46
309.629	3.36
310.003	3.3
310.378	3.8
310.753	3.59
311.128	3.05
311.502	3.31
311.877	3.28
312.252	3.12
312.626	3.23
313.001	3.1
313.375	3.34
313.75	3.41
314.124	3.95
314.498	3.31
314.873	3.16
315.247	3.22
315.621	3.41
315.995	3.56
316.369	3.59
316.743	3.68
317.117	3.12
317.491	3.03
317.865	2.79
318.239	3.93
318.613	2.96
318.987	3.49
319.361	3.19
319.734	3.61
320.108	3.72
320.482	3.45
320.855	3.46
321.229	3.43
321.602	3.61
321.976	3.64
322.349	3.18
322.723	3.25
323.096	3.31
323.469	2.9
323.843	3.59
324.216	2.69
324.589	3.68
324.962	3.77
325.335	3.46
325.708	3.43
326.081	4.08
326.454	3.8
326.827	3.95
327.2	4.18
327.573	3.87
327.945	3.34
328.318	3.85
328.691	3.44
329.063	3.27
329.436	3.37
329.809	3.14
330.181	3.64
330.553	3.67
330.926	4.13
331.298	4.03
331.671	3.49
332.043	3.73
332.415	4.15
332.787	4.13
333.159	3.21
333.532	3.44
333.904	3.51
334.276	3.42
334.648	3.42
335.02	3.58
335.391	3.81
335.763	3.67
336.135	3.68
336.507	3.64
336.879	3.61
337.25	3.87
337.622	3.78
337.993	3.81
338.365	3.7
338.736	3.56
339.108	2.85
339.479	3.38
339.851	3.99
340.222	3.79
340.593	2.96
340.964	3.35
341.336	3.32
341.707	3.93
342.078	3.48
342.449	3.72
342.82	3.62
343.191	3.24
343.562	3.65
343.933	3.78
344.303	3.68
344.674	4.07
345.045	3.83
345.416	3.4
345.786	3.09
346.157	3.59
346.527	3.35
346.898	3.44
347.268	3.45
347.639	3.5
348.009	3.79
348.38	3.67
348.75	3.53
349.12	3.68
349.49	3.83
349.861	4
350.231	3.57
350.601	3.54
350.971	4.03
351.341	4
351.711	3.49
352.081	3.48
352.45	4.17
352.82	3.41
353.19	3.75
353.56	3.9
353.929	3.63
354.299	3.84
354.669	3.42
355.038	3.49
355.408	4.09
355.777	3.5
356.147	4.24
356.516	4.11
356.885	3.74
357.254	3.51
357.624	4.06
357.993	3.65
358.362	3.74
358.731	3.85
359.1	3.8
359.469	3.62
359.838	3.41
360.207	3.63
360.576	3.95
360.945	3.63
361.314	3.78
361.682	3.65
362.051	3.77
362.42	3.97
362.788	3.69
363.157	3.53
363.525	3.76
363.894	3.29
364.262	3.62
364.631	4.48
364.999	3.42
365.367	4.19
365.735	3.44
366.104	3.65
366.472	4.07
366.84	3.91
367.208	3.55
367.576	3.65
367.944	3.64
368.312	3.61
368.68	3.95
369.048	4.06
369.416	3.45
369.783	3.88
370.151	3.76
370.519	3.73
370.886	3.72
371.254	3.92
371.621	3.85
371.989	3.8
372.356	3.67
372.724	3.83
373.091	3.78
373.458	3.82
373.826	3.51
374.193	4.15
374.56	3.54
374.927	3.57
375.294	4.12
375.661	3.82
376.028	3.98
376.395	3.87
376.762	3.94
377.129	4.05
377.496	3.85
377.863	3.93
378.229	3.72
378.596	3.87
378.963	3.72
379.329	4.03
379.696	3.97
380.062	3.91
380.429	4
380.795	3.71
381.161	3.46
381.528	3.67
381.894	3.87
382.26	3.87
382.626	3.78
382.993	3.63
383.359	3.96
383.725	4.08
384.091	3.84
384.457	3.95
384.823	3.86
385.188	4.01
385.554	4.09
385.92	3.72
386.286	3.99
386.651	3.62
387.017	4.04
387.383	4
387.748	3.68
388.114	4.06
388.479	4.13
388.845	3.73
389.21	4.02
389.575	4.08
389.94	3.69
390.306	3.91
390.671	4.06
391.036	4.27
391.401	4.3
391.766	3.73
392.131	4
392.496	3.73
392.861	3.72
393.226	3.84
393.591	3.88
393.956	3.95
394.32	3.87
394.685	4.04
395.05	3.89
395.414	3.93
395.779	3.97
396.143	3.82
396.508	4.07
396.872	3.84
397.236	3.52
397.601	4.23
397.965	3.56
398.329	3.98
398.694	3.64
399.058	3.94
399.422	3.98
399.786	4.06
400.15	3.72
400.514	4.08
400.878	3.84
401.242	4.15
401.605	3.9
401.969	4.13
402.333	3.79
402.697	4.22
403.06	4.08
403.424	3.92
403.787	4.15
404.151	3.8
404.514	4.1
404.878	4.01
405.241	3.93
405.604	3.94
405.968	4.01
406.331	3.9
406.694	3.77
407.057	4.39
407.42	4.1
407.783	3.92
408.146	3.9
408.509	3.81
408.872	4.04
409.235	4.17
409.598	4.13
409.961	4.03
410.323	4.04
410.686	4.03
411.049	3.83
411.411	4
411.774	4.16
412.136	4.15
412.499	3.89
412.861	3.87
413.223	4.18
413.586	4.04
413.948	3.99
414.31	4.26
414.672	4
415.035	4.01
415.397	4.24
415.759	4.17
416.121	4.4
416.483	4.26
416.845	4.16
417.206	4.06
417.568	4.18
417.93	3.99
418.292	4.06
418.653	4.13
419.015	4.04
419.377	4.06
419.738	3.97
420.1	3.95
420.461	3.91
420.822	4.08
421.184	3.99
421.545	3.86
421.906	3.94
422.267	3.75
422.629	3.87
422.99	3.9
423.351	4.1
423.712	3.98
424.073	4.11
424.434	3.92
424.795	4.04
425.155	3.93
425.516	3.94
425.877	3.99
426.238	3.85
426.598	4.07
426.959	3.94
427.32	4.04
427.68	4.14
428.041	4.21
428.401	4.11
428.761	3.98
429.122	4.05
429.482	4.04
429.842	4.02
430.202	4.06
430.563	4
430.923	3.96
431.283	4.14
431.643	3.98
432.003	4.1
432.363	4.22
432.722	4.04
433.082	4.19
433.442	3.98
433.802	4.14
434.161	4.1
434.521	4.14
434.881	4.38
435.24	4.17
435.6	4.07
435.959	4.01
436.319	4.16
436.678	4.12
437.037	4.12
437.396	4.17
437.756	4.2
438.115	4.22
438.474	4.26
438.833	4.19
439.192	4.28
439.551	4.18
439.91	4.19
440.269	4.32
440.628	4.13
440.987	4.07
441.345	4
441.704	4.1
442.063	4.05
442.421	4.13
442.78	4.04
443.138	4.16
443.497	4.13
443.855	4.21
444.214	4.21
444.572	4.15
444.93	4.32
445.288	4.17
445.647	4.22
446.005	3.99
446.363	4.06
446.721	3.94
447.079	4.06
447.437	4.2
447.795	4.08
448.153	4.07
448.51	4.13
448.868	4.21
449.226	4.17
449.584	4.2
449.941	4.38
450.299	4.16
450.656	4.27
451.014	4.22
451.371	4.38
451.729	4.36
452.086	4.16
452.443	4.09
452.801	4.46
453.158	4.29
453.515	4.14
453.872	4.36
454.229	4.11
454.586	4.35
454.943	4.23
455.3	4.42
455.657	4.16
456.014	4.51
456.371	4.15
456.727	4.16
457.084	4.16
457.441	4.2
457.797	4.23
458.154	4.3
458.51	4.23
458.867	4.21
459.223	4.32
459.58	4.13
459.936	4.23
460.292	4.26
460.648	4.03
461.005	4.14
461.361	4.09
461.717	4.17
462.073	4.35
462.429	4.27
462.785	4.17
463.141	4.46
463.496	4.19
463.852	4.3
464.208	4.29
464.564	4.15
464.919	4.18
465.275	4.37
465.631	4.32
465.986	4.1
466.342	4.24
466.697	4.31
467.052	4.49
467.408	4.32
467.763	4.1
468.118	4.37
468.473	4.38
468.829	4.32
469.184	4.49
469.539	4.31
469.894	4.31
470.249	4.41
470.603	4.52
470.958	4.42
471.313	4.23
471.668	4.38
472.023	4.38
472.377	4.18
472.732	4.29
473.086	4.29
473.441	4.4
473.795	4.42
474.15	4.21
474.504	4.33
474.859	4.5
475.213	4.36
475.567	4.49
475.921	4.37
476.275	4.38
476.63	4.31
476.984	4.32
477.338	4.61
477.692	4.36
478.045	4.38
478.399	4.38
478.753	4.33
479.107	4.33
479.461	4.45
479.814	4.37
480.168	4.38
480.521	4.24
480.875	4.58
481.228	4.52
481.582	4.22
481.935	4.37
482.289	4.33
482.642	4.36
482.995	4.31
483.348	4.24
483.701	4.31
484.055	4.19
484.408	4.19
484.761	3.97
485.114	3.92
485.466	4.02
485.819	4.08
486.172	4.22
486.525	4.27
486.878	4.28
487.23	4.33
487.583	4.24
487.936	4.25
488.288	4.2
488.641	4.12
488.993	4.07
489.345	4.13
489.698	4.18
490.05	4.19
490.402	4.39
490.754	4.36
491.107	4.36
491.459	4.39
491.811	4.38
492.163	4.36
492.515	4.28
492.866	4.09
493.218	4.11
493.57	4.23
493.922	4.29
494.274	4.4
494.625	4.4
494.977	4.38
495.328	4.45
495.68	4.59
496.031	4.45
496.383	4.46
496.734	4.44
497.086	4.28
497.437	4.4
497.788	4.28
498.139	4.46
498.49	4.39
498.842	4.33
499.193	4.38
499.544	4.49
499.894	4.52
500.245	4.38
500.596	4.4
500.947	4.38
501.298	4.48
501.648	4.5
501.999	4.51
502.35	4.57
502.7	4.66
503.051	4.56
503.401	4.58
503.752	4.42
504.102	4.51
504.452	4.61
504.803	4.37
505.153	4.53
505.503	4.38
505.853	4.36
506.203	4.52
506.553	4.48
506.903	4.5
507.253	4.46
507.603	4.47
507.953	4.61
508.303	4.59
508.652	4.56
509.002	4.49
509.352	4.49
509.701	4.45
510.051	4.56
510.4	4.48
510.75	4.46
511.099	4.41
511.449	4.5
511.798	4.66
512.147	4.46
512.496	4.51
512.846	4.42
513.195	4.54
513.544	4.41
513.893	4.46
514.242	4.62
514.591	4.58
514.939	4.55
515.288	4.56
515.637	4.55
515.986	4.48
516.334	4.58
516.683	4.55
517.032	4.55
517.38	4.61
517.729	4.61
518.077	4.51
518.426	4.46
518.774	4.51
519.122	4.45
519.47	4.39
519.819	4.42
520.167	4.4
520.515	4.42
520.863	4.47
521.211	4.48
521.559	4.47
521.907	4.54
522.255	4.63
522.602	4.64
522.95	4.64
523.298	4.55
523.645	4.56
523.993	4.65
524.341	4.55
524.688	4.53
525.036	4.66
525.383	4.69
525.73	4.53
526.078	4.55
526.425	4.5
526.772	4.29
527.119	4.45
527.466	4.48
527.814	4.48
528.161	4.46
528.508	4.51
528.854	4.44
529.201	4.38
529.548	4.26
529.895	4.2
530.242	4.22
530.588	4.32
530.935	4.46
531.282	4.44
531.628	4.47
531.975	4.5
532.321	4.56
532.667	4.49
533.014	4.59
533.36	4.43
533.706	4.54
534.052	4.42
534.399	4.34
534.745	4.32
535.091	4.4
535.437	4.48
535.783	4.59
536.129	4.54
536.474	4.57
536.82	4.52
537.166	4.59
537.512	4.67
537.857	4.48
538.203	4.46
538.549	4.63
538.894	4.65
539.239	4.65
539.585	4.73
539.93	4.66
540.276	4.6
540.621	4.62
540.966	4.58
541.311	4.65
541.656	4.53
542.001	4.53
542.346	4.41
542.691	4.33
543.036	4.38
543.381	4.45
543.726	4.54
544.071	4.67
544.415	4.58
544.76	4.49
545.105	4.5
545.449	4.53
545.794	4.58
546.138	4.77
546.483	4.7
546.827	4.6
547.171	4.53
547.516	4.63
547.86	4.58
548.204	4.48
548.548	4.67
548.892	4.62
549.236	4.71
549.58	4.68
549.924	4.72
550.268	4.85
550.612	4.8
550.956	4.56
551.3	4.83
551.643	4.75
551.987	4.71
552.33	4.65
552.674	4.86
553.017	4.56
553.361	4.73
553.704	4.56
554.048	4.74
554.391	4.73
554.734	4.73
555.077	4.65
555.42	4.76
555.764	4.88
556.107	4.72
556.45	4.63
556.793	4.83
557.135	4.91
557.478	4.85
557.821	4.62
558.164	4.74
558.507	4.68
558.849	4.59
559.192	4.7
559.534	4.52
559.877	4.76
560.219	4.99
560.562	4.95
560.904	4.82
561.246	4.86
561.589	4.77
561.931	5.03
562.273	4.73
562.615	4.84
562.957	4.77
563.299	4.77
563.641	4.99
563.983	4.85
564.325	4.62
564.667	4.8
565.008	4.68
565.35	4.83
565.692	4.99
566.033	4.88
566.375	4.64
566.716	4.8
567.058	4.81
567.399	4.73
567.741	4.91
568.082	4.72
568.423	4.72
568.764	4.81
569.105	4.88
569.447	4.69
569.788	5.05
570.129	4.9
570.47	5.04
570.811	4.91
571.151	4.93
571.492	4.96
571.833	4.78
572.174	4.68
572.514	4.58
572.855	4.84
573.195	4.78
573.536	4.81
573.876	4.74
574.217	4.81
574.557	4.94
574.898	4.74
575.238	4.78
575.578	5.03
575.918	4.75
576.258	4.82
576.598	4.78
576.938	5.01
577.278	4.85
577.618	4.85
577.958	4.95
578.298	5.03
578.638	4.95
578.977	4.93
579.317	4.91
579.657	4.96
579.996	4.88
580.336	4.96
580.675	5.12
581.014	5.16
581.354	4.96
581.693	4.85
582.032	4.8
582.372	5.13
582.711	4.89
583.05	5.11
583.389	4.98
583.728	5.06
584.067	5.29
584.406	5.25
584.745	5.09
585.083	5.4
585.422	5.05
585.761	5.05
586.1	5.14
586.438	4.88
586.777	4.91
587.115	4.92
587.454	4.87
587.792	4.83
588.13	5.13
588.469	5.06
588.807	5.13
589.145	5.19
589.483	4.98
589.821	5.06
590.159	5.1
590.497	4.82
590.835	4.87
591.173	4.93
591.511	5
591.849	5.05
592.187	4.98
592.524	4.83
592.862	5.03
593.2	5.21
593.537	5.04
593.875	5.13
594.212	4.93
594.55	5.03
594.887	5.2
595.224	5.11
595.561	4.97
595.899	4.92
596.236	5
596.573	4.76
596.91	4.91
597.247	4.66
597.584	5.19
597.921	4.96
598.258	4.96
598.594	4.83
598.931	4.95
599.268	4.79
599.604	5.15
599.941	4.93
600.277	4.75
600.614	4.91
600.95	4.93
601.287	4.96
601.623	5.01
601.959	5.02
602.296	5.15
602.632	5.28
602.968	5.22
603.304	4.88
603.64	4.9
603.976	4.91
604.312	5.07
604.648	5.01
604.984	5.19
605.319	4.93
605.655	5.21
605.991	4.94
606.326	4.82
606.662	5.08
606.998	5.19
607.333	4.98
607.668	5.16
608.004	4.98
608.339	5
608.674	5.14
609.01	5.04
609.345	5.29
609.68	4.92
610.015	5.12
610.35	4.92
610.685	5.09
611.02	5
611.355	5.11
611.689	5
612.024	5.24
612.359	5.21
612.694	5.24
613.028	5.27
613.363	4.86
613.697	5.09
614.032	5.07
614.366	5.11
614.7	5.7
615.035	5.09
615.369	5.56
615.703	5.67
616.037	5.23
616.371	5.31
616.705	5.38
617.039	5.43
617.373	5.25
617.707	4.91
618.041	5.35
618.375	5.33
618.709	5.27
619.042	5.14
619.376	5.1
619.71	5.3
620.043	5.21
620.377	4.97
620.71	5.18
621.043	4.99
621.377	5.28
621.71	5.4
622.043	5.5
622.376	4.99
622.709	5.46
623.043	5.22
623.376	5.58
623.709	5.76
624.041	5.4
624.374	5.08
624.707	4.88
625.04	5.4
625.373	5.5
625.705	5.2
626.038	5.11
626.37	5.4
626.703	5.24
627.035	5.28
627.368	5.28
627.7	5.38
628.032	5.17
628.365	5.01
628.697	5.13
629.029	5.41
629.361	5.23
629.693	5.47
630.025	5.06
630.357	5.23
630.689	5.39
631.021	5.32
631.353	5.2
631.684	5.1
632.016	5.18
632.348	5.44
632.679	5.41
633.011	5.21
633.342	5.56
633.674	5.03
634.005	5.73
634.336	5.15
634.668	5.21
634.999	5.25
635.33	5.19
635.661	5.37
635.992	5.25
636.323	5.43
636.654	5.18
636.985	5
637.316	5.12
637.647	5.28
637.977	5.22
638.308	5.13
638.639	5.35
638.969	5.38
639.3	5.19
639.63	4.83
639.961	5.48
640.291	5.62
640.622	5.72
640.952	5.52
641.282	5.23
641.612	4.86
641.943	5.92
642.273	5.03
642.603	5.41
642.933	5.35
643.263	6.09
643.592	5.49
643.922	5.7
644.252	5.48
644.582	5.6
644.911	5.23
645.241	4.84
645.571	5.34
645.9	5.79
646.23	5.24
646.559	5.7
646.888	5.21
647.218	5.62
647.547	5.62
647.876	5.67
648.205	5.38
648.534	5.58
648.863	5.98
649.192	5.72
649.521	4.99
649.85	5.66
650.179	5.35
650.508	5.39
650.837	5.76
651.165	5.82
651.494	5.71
651.822	5.76
652.151	5.93
652.479	5.6
652.808	5.33
653.136	5.65
653.465	5.67
653.793	5.75
654.121	5.53
654.449	6.09
654.777	5.67
655.105	5.94
655.433	5.68
655.761	5.31
656.089	5.45
656.417	5.37
656.745	6.19
657.073	5.9
657.4	5.9
657.728	5.84
658.056	5.89
658.383	6.09
658.711	5.42
659.038	6.35
659.365	5.82
659.693	5.62
660.02	5.52
660.347	5.72
660.674	5.07
661.001	4.95
661.329	5.47
661.656	5.78
661.982	5.99
662.309	5.64
662.636	5.57
662.963	5.98
663.29	5.38
663.616	5.73
663.943	5.59
664.27	6.24
664.596	5.35
664.923	5.54
665.249	5.48
665.576	5.44
665.902	5.82
666.228	5.58
666.554	5.43
666.881	5.67
667.207	5.55
667.533	5.93
667.859	5.12
668.185	5.65
668.511	5.24
668.837	5.38
669.162	4.91
669.488	5.92
669.814	6.1
670.139	6.39
670.465	5.57
670.791	5.96
671.116	5.91
671.442	5.92
671.767	5.84
672.092	6.19
672.418	6.23
672.743	5.64
673.068	5.84
673.393	6.07
673.718	5.67
674.043	6.27
674.368	6.51
674.693	6.28
675.018	6.01
675.343	6.28
675.667	5.97
675.992	4.96
676.317	6.11
676.641	5.86
676.966	6.08
677.29	5.65
677.615	5.83
677.939	5.63
678.264	6.1
678.588	6
678.912	5.99
679.236	5.78
679.56	5.17
679.885	5.52
680.209	5.82
680.532	5.81
680.856	6.22
681.18	5.96
681.504	5.38
681.828	5.55
682.152	5.85
682.475	5.6
682.799	6.12
683.122	5.53
683.446	5.91
683.769	5.71
684.093	5.8
684.416	5.41
684.739	5.95
685.062	6.22
685.386	6.69
685.709	6.22
686.032	5.83
686.355	6.11
686.678	5.78
687.001	4.65
687.324	5.43
687.646	5.43
687.969	6.02
688.292	6.26
688.614	6.79
688.937	6.05
689.26	5.74
689.582	5.6
689.904	6.18
690.227	6.06
690.549	6.53
690.871	6.17
691.194	5.91
691.516	6.46
691.838	5.97
692.16	6.18
692.482	6.54
692.804	5.4
