Data from 0055_chest_Reflection__3__111.txt Node

Date: Fri Dec 16 14:49:41 CST 2022
User: ToomeyLab
Spectrometer: FLMS14357
Trigger mode: 0
Integration Time (sec): 1.000000E-2
Scans to average: 100
Electric dark correction enabled: true
Nonlinearity correction enabled: false
Boxcar width: 0
XAxis mode: Wavelengths
Number of Pixels in Spectrum: 2048
>>>>>Begin Spectral Data<<<<<
189.047	173.33
189.435	173.33
189.823	173.33
190.211	332.93
190.599	-136.64
190.987	45.57
191.375	9.61
191.763	218.79
192.151	-162.95
192.538	-47.28
192.926	120.67
193.314	76.73
193.702	56.73
194.089	154.23
194.477	79.53
194.864	-67.08
195.252	37.48
195.639	462.17
196.027	-314
196.414	71.9
196.801	-151.29
197.189	81.52
197.576	64.71
197.963	-416
198.351	14.57
198.738	-3.95
199.125	16.26
199.512	-13.22
199.899	11.97
200.286	33.69
200.673	27.04
201.06	1.33
201.447	8.85
201.833	-0.28
202.22	2.19
202.607	8.21
202.994	-0.49
203.38	-47.34
203.767	8.6
204.154	-77.27
204.54	-13.65
204.927	25.8
205.313	22.76
205.699	22.38
206.086	22.16
206.472	-8.79
206.858	-10.59
207.245	-0.04
207.631	-18.95
208.017	6.08
208.403	18.88
208.789	12.32
209.175	25.19
209.561	-11.87
209.947	24.98
210.333	-65.52
210.719	-2.15
211.105	5.25
211.491	24
211.876	15.36
212.262	-4.44
212.648	-19.06
213.034	16.56
213.419	13.64
213.805	-3.48
214.19	6.13
214.576	-15.98
214.961	-4.59
215.346	-38.89
215.732	0.26
216.117	-6.96
216.502	-22.35
216.888	-42.39
217.273	24.21
217.658	-3.93
218.043	17.87
218.428	7.29
218.813	-12.75
219.198	-59.06
219.583	5.12
219.968	-24.06
220.353	19.99
220.738	2.89
221.122	-8.36
221.507	-4.81
221.892	5.42
222.276	2.12
222.661	-5.31
223.046	9.54
223.43	-8.63
223.815	4.35
224.199	1.19
224.583	1.94
224.968	5.79
225.352	4.84
225.736	3.37
226.121	5.7
226.505	3.41
226.889	3.44
227.273	8.34
227.657	2.81
228.041	3.47
228.425	5.23
228.809	4.68
229.193	3.17
229.577	3.52
229.961	5.36
230.344	5.42
230.728	5.04
231.112	4.99
231.495	3.57
231.879	4.16
232.263	1.89
232.646	3.87
233.03	3.33
233.413	3.32
233.797	8.21
234.18	2.26
234.563	3.93
234.946	5.08
235.33	4.83
235.713	3.46
236.096	5.21
236.479	6.26
236.862	5.29
237.245	6.11
237.628	3.77
238.011	4.45
238.394	5.92
238.777	3.43
239.16	3.41
239.543	3.56
239.925	5.4
240.308	4.66
240.691	4.83
241.073	3.14
241.456	3.31
241.838	3.62
242.221	5.95
242.603	3.74
242.986	4.72
243.368	4.15
243.75	4.24
244.133	4.39
244.515	4.56
244.897	4.7
245.279	3.98
245.661	4.99
246.043	4.69
246.425	4.81
246.807	4.49
247.189	4.44
247.571	4.75
247.953	4.61
248.335	4.43
248.717	4.4
249.098	4.44
249.48	4.17
249.862	4.44
250.243	4.56
250.625	4.69
251.006	4.49
251.388	4.41
251.769	4.86
252.151	4.39
252.532	4.16
252.913	5.2
253.295	4.1
253.676	4.35
254.057	4.55
254.438	4.17
254.819	4.58
255.2	3.96
255.581	4.39
255.962	4
256.343	3.67
256.724	3.54
257.105	4.01
257.486	3.98
257.867	2.86
258.247	3.95
258.628	4.79
259.009	3.98
259.389	4.39
259.77	4.55
260.15	5.16
260.531	4.55
260.911	4.21
261.292	4.21
261.672	4.28
262.052	4.22
262.432	4.29
262.813	4.3
263.193	4.01
263.573	4.13
263.953	4.26
264.333	4.16
264.713	3.81
265.093	3.64
265.473	4.81
265.853	3.45
266.233	3.96
266.612	4.4
266.992	3.94
267.372	5.19
267.752	4.01
268.131	4.51
268.511	4.13
268.89	4.59
269.27	3.58
269.649	4.21
270.029	3.92
270.408	4.61
270.787	4.2
271.167	4.06
271.546	3.66
271.925	4.42
272.304	3.97
272.683	3.97
273.062	4.09
273.441	4.2
273.82	4.14
274.199	4.02
274.578	3.9
274.957	4.41
275.336	4.13
275.715	4.04
276.093	4.68
276.472	4.35
276.851	4.06
277.229	4.73
277.608	3.67
277.986	3.94
278.365	4.01
278.743	3.63
279.122	3.79
279.5	3.5
279.878	3.8
280.257	4.02
280.635	3.41
281.013	4.3
281.391	3.86
281.769	3.75
282.147	4.15
282.525	4
282.903	4.42
283.281	4.04
283.659	4.2
284.037	3.98
284.415	4.05
284.792	3.95
285.17	3.94
285.548	3.59
285.925	3.87
286.303	3.84
286.68	4.14
287.058	4.03
287.435	3.74
287.813	4.15
288.19	4.28
288.567	3.88
288.945	4.02
289.322	3.65
289.699	4.1
290.076	4.06
290.453	3.94
290.83	4.48
291.207	4.24
291.584	3.85
291.961	4.17
292.338	3.79
292.715	4.31
293.092	4.22
293.469	4.15
293.845	3.52
294.222	4.11
294.599	4.16
294.975	3.85
295.352	3.83
295.728	3.96
296.105	3.49
296.481	4.24
296.858	3.9
297.234	4.12
297.61	4.09
297.986	4.12
298.363	3.8
298.739	4.2
299.115	4.03
299.491	3.67
299.867	3.87
300.243	3.58
300.619	4.17
300.995	3.96
301.371	4.13
301.746	3.95
302.122	3.78
302.498	3.78
302.874	4.64
303.249	4.5
303.625	3.99
304	3.9
304.376	4.33
304.751	3.61
305.127	4.11
305.502	4.54
305.878	4.17
306.253	3.82
306.628	4.41
307.003	3.86
307.378	4.09
307.754	4.02
308.129	3.97
308.504	4.31
308.879	4.01
309.254	4.11
309.629	4
310.003	4.63
310.378	4.11
310.753	4.05
311.128	3.95
311.502	3.73
311.877	4.25
312.252	3.78
312.626	4.31
313.001	4.12
313.375	3.9
313.75	4.1
314.124	3.92
314.498	3.89
314.873	3.8
315.247	3.6
315.621	4.34
315.995	4.03
316.369	4.43
316.743	4.38
317.117	4.33
317.491	4.06
317.865	3.72
318.239	4.29
318.613	4.04
318.987	4.08
319.361	4.54
319.734	4.11
320.108	4.2
320.482	3.73
320.855	4.07
321.229	4.55
321.602	4.53
321.976	3.88
322.349	4.08
322.723	3.55
323.096	3.68
323.469	4.04
323.843	4.36
324.216	3.72
324.589	4.39
324.962	4.6
325.335	3.68
325.708	4.23
326.081	4.43
326.454	4.15
326.827	4.23
327.2	5.34
327.573	4.52
327.945	4.26
328.318	4.28
328.691	4.22
329.063	3.88
329.436	4.14
329.809	4.04
330.181	3.93
330.553	4.21
330.926	4.69
331.298	4.11
331.671	4.21
332.043	4.28
332.415	4.44
332.787	4.38
333.159	4.82
333.532	4.4
333.904	4.04
334.276	4.05
334.648	4.24
335.02	3.71
335.391	4.48
335.763	4.13
336.135	4.61
336.507	4.89
336.879	4.4
337.25	4.53
337.622	4.33
337.993	4.03
338.365	4.48
338.736	3.9
339.108	4.52
339.479	4.52
339.851	4.18
340.222	3.88
340.593	3.95
340.964	4.31
341.336	4.15
341.707	4.42
342.078	4.1
342.449	4.57
342.82	4.21
343.191	4.08
343.562	4.41
343.933	4.08
344.303	4.48
344.674	4.39
345.045	4.52
345.416	4.43
345.786	4.12
346.157	4.25
346.527	3.87
346.898	4.23
347.268	3.98
347.639	4.25
348.009	4.52
348.38	4.13
348.75	4.27
349.12	4.02
349.49	4.14
349.861	4.06
350.231	4.42
350.601	4.59
350.971	4.37
351.341	4.4
351.711	4.37
352.081	3.88
352.45	4.78
352.82	4.32
353.19	4.43
353.56	4.2
353.929	4.17
354.299	3.97
354.669	4.81
355.038	4.01
355.408	4.6
355.777	4.25
356.147	4.76
356.516	4.72
356.885	4.39
357.254	4.33
357.624	4.48
357.993	4.12
358.362	4.39
358.731	4.32
359.1	4.4
359.469	4.25
359.838	4.33
360.207	4.3
360.576	4.24
360.945	4.34
361.314	4.54
361.682	4.24
362.051	4.34
362.42	4.74
362.788	4.53
363.157	4.2
363.525	4.12
363.894	4.09
364.262	4.21
364.631	4.89
364.999	4.09
365.367	4.43
365.735	4.21
366.104	4.11
366.472	4.36
366.84	4.42
367.208	4.12
367.576	4.32
367.944	4.51
368.312	4.18
368.68	4.74
369.048	4.58
369.416	4.26
369.783	4.36
370.151	4.34
370.519	4.49
370.886	4.36
371.254	4.03
371.621	4.51
371.989	4.81
372.356	4.38
372.724	4.22
373.091	4.62
373.458	4.23
373.826	4.17
374.193	4.86
374.56	4.17
374.927	4.18
375.294	4.46
375.661	4.4
376.028	4.55
376.395	4.38
376.762	4.48
377.129	4.56
377.496	4.17
377.863	4.32
378.229	4.21
378.596	4.4
378.963	4.32
379.329	4.28
379.696	4.51
380.062	4.44
380.429	4.64
380.795	4.23
381.161	4.65
381.528	4.12
381.894	4.72
382.26	4.3
382.626	4.54
382.993	4.34
383.359	4.08
383.725	4.26
384.091	4.39
384.457	4.36
384.823	4.4
385.188	4.69
385.554	4.46
385.92	4.8
386.286	4.69
386.651	4.61
387.017	4.69
387.383	4.65
387.748	4.26
388.114	4.6
388.479	4.49
388.845	4.43
389.21	4.81
389.575	4.74
389.94	4.35
390.306	4.49
390.671	4.44
391.036	4.6
391.401	4.56
391.766	4.54
392.131	4.52
392.496	4.49
392.861	4.35
393.226	4.68
393.591	4.6
393.956	4.57
394.32	4.58
394.685	4.73
395.05	4.28
395.414	4.55
395.779	4.48
396.143	4.58
396.508	4.71
396.872	4.55
397.236	4.35
397.601	4.69
397.965	4.44
398.329	4.76
398.694	4.35
399.058	4.51
399.422	4.64
399.786	4.79
400.15	4.67
400.514	4.46
400.878	4.53
401.242	4.77
401.605	4.54
401.969	4.72
402.333	4.49
402.697	4.87
403.06	4.54
403.424	4.76
403.787	4.65
404.151	4.51
404.514	4.6
404.878	4.62
405.241	4.85
405.604	4.85
405.968	4.54
406.331	4.79
406.694	4.67
407.057	4.82
407.42	4.69
407.783	4.55
408.146	4.54
408.509	4.32
408.872	4.43
409.235	4.82
409.598	4.59
409.961	4.79
410.323	4.7
410.686	4.5
411.049	4.59
411.411	4.72
411.774	4.72
412.136	4.65
412.499	4.65
412.861	4.58
413.223	4.82
413.586	4.56
413.948	4.8
414.31	4.89
414.672	4.52
415.035	4.9
415.397	4.92
415.759	4.59
416.121	4.95
416.483	4.76
416.845	4.89
417.206	4.88
417.568	4.75
417.93	4.78
418.292	4.78
418.653	4.75
419.015	4.8
419.377	4.68
419.738	4.59
420.1	4.71
420.461	4.62
420.822	4.74
421.184	4.63
421.545	4.65
421.906	4.77
422.267	4.64
422.629	4.65
422.99	4.66
423.351	4.72
423.712	4.68
424.073	4.7
424.434	4.66
424.795	4.62
425.155	4.69
425.516	4.71
425.877	4.73
426.238	4.63
426.598	4.64
426.959	4.75
427.32	4.68
427.68	4.93
428.041	4.73
428.401	4.81
428.761	4.73
429.122	4.75
429.482	4.64
429.842	5.06
430.202	4.78
430.563	4.81
430.923	4.83
431.283	4.83
431.643	4.89
432.003	4.78
432.363	4.9
432.722	4.81
433.082	4.95
433.442	4.84
433.802	4.81
434.161	4.73
434.521	4.99
434.881	4.86
435.24	4.86
435.6	4.83
435.959	4.74
436.319	4.87
436.678	5.02
437.037	4.86
437.396	4.98
437.756	4.82
438.115	4.79
438.474	4.9
438.833	4.97
439.192	5.05
439.551	4.95
439.91	4.97
440.269	5.01
440.628	4.95
440.987	4.81
441.345	4.79
441.704	4.86
442.063	4.85
442.421	4.97
442.78	4.82
443.138	4.85
443.497	4.98
443.855	4.86
444.214	4.92
444.572	4.84
444.93	4.94
445.288	5.1
445.647	5.06
446.005	4.81
446.363	4.91
446.721	4.83
447.079	4.98
447.437	4.94
447.795	4.81
448.153	4.92
448.51	4.92
448.868	4.94
449.226	4.93
449.584	4.89
449.941	5.07
450.299	4.9
450.656	4.92
451.014	5.01
451.371	5.02
451.729	5.23
452.086	4.82
452.443	4.96
452.801	5.14
453.158	5.07
453.515	5.01
453.872	5.09
454.229	5.1
454.586	5.02
454.943	5.06
455.3	5.21
455.657	5.08
456.014	4.99
456.371	5.03
456.727	4.99
457.084	5.08
457.441	4.98
457.797	5.11
458.154	5.05
458.51	5.09
458.867	4.99
459.223	5.05
459.58	5.04
459.936	5.03
460.292	5.1
460.648	4.93
461.005	4.91
461.361	4.98
461.717	5
462.073	4.93
462.429	5.07
462.785	5.17
463.141	5.08
463.496	5.16
463.852	5.18
464.208	5.11
464.564	5.11
464.919	4.97
465.275	5.04
465.631	5.22
465.986	5.14
466.342	5.31
466.697	5.16
467.052	5.4
467.408	4.99
467.763	5.11
468.118	5.12
468.473	5.36
468.829	5.06
469.184	5.4
469.539	4.92
469.894	5.17
470.249	5.11
470.603	5.3
470.958	5.45
471.313	5.28
471.668	5.2
472.023	5.24
472.377	5.21
472.732	5.21
473.086	5.16
473.441	5.26
473.795	5.35
474.15	5.25
474.504	5.19
474.859	5.24
475.213	5.14
475.567	5.23
475.921	5.52
476.275	5.34
476.63	5.35
476.984	5.3
477.338	5.44
477.692	5.35
478.045	5.22
478.399	5.31
478.753	5.2
479.107	5.2
479.461	5.26
479.814	5.2
480.168	5.29
480.521	5.18
480.875	5.46
481.228	5.32
481.582	5.2
481.935	5.24
482.289	5.27
482.642	5.28
482.995	5.29
483.348	5.27
483.701	5.36
484.055	5.27
484.408	5.22
484.761	5.11
485.114	5.06
485.466	5.06
485.819	5.03
486.172	5.06
486.525	5.1
486.878	5.08
487.23	5.24
487.583	5.22
487.936	5.27
488.288	5.21
488.641	5.19
488.993	5.13
489.345	5.12
489.698	5.18
490.05	5.21
490.402	5.19
490.754	5.32
491.107	5.32
491.459	5.43
491.811	5.53
492.163	5.37
492.515	5.38
492.866	5.21
493.218	5.22
493.57	5.26
493.922	5.26
494.274	5.34
494.625	5.31
494.977	5.35
495.328	5.5
495.68	5.61
496.031	5.51
496.383	5.49
496.734	5.57
497.086	5.39
497.437	5.51
497.788	5.46
498.139	5.54
498.49	5.53
498.842	5.52
499.193	5.46
499.544	5.57
499.894	5.55
500.245	5.52
500.596	5.6
500.947	5.57
501.298	5.59
501.648	5.63
501.999	5.77
502.35	5.67
502.7	5.64
503.051	5.78
503.401	5.72
503.752	5.55
504.102	5.66
504.452	5.53
504.803	5.65
505.153	5.76
505.503	5.66
505.853	5.57
506.203	5.64
506.553	5.71
506.903	5.75
507.253	5.75
507.603	5.8
507.953	5.78
508.303	5.84
508.652	5.74
509.002	5.73
509.352	5.63
509.701	5.74
510.051	5.73
510.4	5.68
510.75	5.71
511.099	5.73
511.449	5.79
511.798	5.79
512.147	5.77
512.496	5.83
512.846	5.74
513.195	5.8
513.544	5.79
513.893	5.77
514.242	5.8
514.591	5.95
514.939	5.88
515.288	6.03
515.637	6.01
515.986	5.73
516.334	5.97
516.683	5.9
517.032	5.88
517.38	5.99
517.729	5.92
518.077	6.04
518.426	5.84
518.774	5.89
519.122	5.9
519.47	5.85
519.819	5.96
520.167	5.86
520.515	5.83
520.863	5.87
521.211	5.88
521.559	5.95
521.907	6.02
522.255	6.04
522.602	6.05
522.95	6.15
523.298	5.93
523.645	6.06
523.993	6.12
524.341	6.03
524.688	6.16
525.036	6.25
525.383	6.17
525.73	6.09
526.078	6.17
526.425	6.14
526.772	5.93
527.119	6.01
527.466	6.03
527.814	6.03
528.161	6.11
528.508	6.05
528.854	6.08
529.201	6.08
529.548	6
529.895	5.98
530.242	5.98
530.588	5.98
530.935	6.01
531.282	6.01
531.628	6.05
531.975	6.13
532.321	6.19
532.667	6.24
533.014	6.2
533.36	6.19
533.706	6.31
534.052	6.26
534.399	6.15
534.745	6.14
535.091	6.18
535.437	6.22
535.783	6.26
536.129	6.29
536.474	6.34
536.82	6.38
537.166	6.38
537.512	6.4
537.857	6.39
538.203	6.41
538.549	6.43
538.894	6.42
539.239	6.53
539.585	6.55
539.93	6.48
540.276	6.41
540.621	6.51
540.966	6.61
541.311	6.59
541.656	6.44
542.001	6.63
542.346	6.55
542.691	6.35
543.036	6.42
543.381	6.42
543.726	6.47
544.071	6.54
544.415	6.57
544.76	6.47
545.105	6.64
545.449	6.53
545.794	6.64
546.138	6.71
546.483	6.69
546.827	6.79
547.171	6.69
547.516	6.8
547.86	6.77
548.204	6.71
548.548	6.85
548.892	6.85
549.236	7.01
549.58	6.78
549.924	6.98
550.268	7.01
550.612	6.92
550.956	6.92
551.3	7.1
551.643	7.05
551.987	7.04
552.33	7.07
552.674	7.21
553.017	7.14
553.361	6.99
553.704	7
554.048	7.13
554.391	7.17
554.734	7.11
555.077	7.09
555.42	7.07
555.764	7.2
556.107	7.16
556.45	7.2
556.793	7.49
557.135	7.31
557.478	7.32
557.821	7.15
558.164	7.41
558.507	7.32
558.849	7.29
559.192	7.37
559.534	7.33
559.877	7.41
560.219	7.67
560.562	7.64
560.904	7.49
561.246	7.6
561.589	7.63
561.931	7.74
562.273	7.31
562.615	7.45
562.957	7.65
563.299	7.57
563.641	7.51
563.983	7.55
564.325	7.4
564.667	7.56
565.008	7.63
565.35	7.7
565.692	7.69
566.033	7.84
566.375	7.58
566.716	7.71
567.058	7.8
567.399	7.78
567.741	7.79
568.082	7.66
568.423	7.65
568.764	7.99
569.105	7.89
569.447	7.58
569.788	7.86
570.129	7.78
570.47	7.94
570.811	7.97
571.151	7.94
571.492	8.22
571.833	8.13
572.174	7.97
572.514	8.17
572.855	8.09
573.195	8.11
573.536	7.91
573.876	8.01
574.217	8.11
574.557	8.23
574.898	7.89
575.238	8.06
575.578	8.22
575.918	8.17
576.258	8.29
576.598	8.24
576.938	8.4
577.278	8.21
577.618	8.41
577.958	8.22
578.298	8.28
578.638	8.46
578.977	8.41
579.317	8.52
579.657	8.43
579.996	8.63
580.336	8.59
580.675	8.66
581.014	8.44
581.354	8.48
581.693	8.77
582.032	8.59
582.372	8.86
582.711	8.52
583.05	8.81
583.389	8.7
583.728	8.95
584.067	8.64
584.406	9.01
584.745	8.79
585.083	9
585.422	8.92
585.761	8.82
586.1	8.92
586.438	9.15
586.777	9.21
587.115	9.09
587.454	9.21
587.792	8.66
588.13	9.3
588.469	9.29
588.807	9.18
589.145	9.11
589.483	8.71
589.821	9.25
590.159	9.31
590.497	9.07
590.835	9.15
591.173	9.31
591.511	9.29
591.849	9.25
592.187	9.46
592.524	9.28
592.862	9.57
593.2	9.19
593.537	9.4
593.875	9.4
594.212	9.39
594.55	9.48
594.887	9.59
595.224	9.32
595.561	9.8
595.899	9.56
596.236	9.57
596.573	9.32
596.91	9.6
597.247	9.56
597.584	9.79
597.921	9.8
598.258	9.62
598.594	9.54
598.931	9.54
599.268	9.55
599.604	9.88
599.941	9.73
600.277	9.55
600.614	9.74
600.95	10.09
601.287	10.04
601.623	10.08
601.959	10.11
602.296	9.94
602.632	10.04
602.968	9.95
603.304	9.77
603.64	10.04
603.976	10.21
604.312	10.39
604.648	10.37
604.984	10.1
605.319	10.14
605.655	10.18
605.991	10.18
606.326	10.05
606.662	10.08
606.998	10.21
607.333	10.28
607.668	10.4
608.004	10.2
608.339	10.44
608.674	10.58
609.01	10.53
609.345	10.4
609.68	10.41
610.015	10.56
610.35	10.36
610.685	10.52
611.02	10.85
611.355	10.9
611.689	10.52
612.024	10.56
612.359	10.64
612.694	10.84
613.028	10.97
613.363	10.75
613.697	10.71
614.032	10.85
614.366	10.67
614.7	11.13
615.035	10.56
615.369	11.13
615.703	11.33
616.037	11.09
616.371	10.82
616.705	11.12
617.039	11.36
617.373	11.11
617.707	11.12
618.041	11.7
618.375	11.27
618.709	11.25
619.042	11.11
619.376	11.26
619.71	11.28
620.043	11.29
620.377	11.46
620.71	11.65
621.043	10.85
621.377	11.36
621.71	11.58
622.043	11.92
622.376	11.69
622.709	11.87
623.043	11.78
623.376	11.85
623.709	11.85
624.041	11.74
624.374	11.66
624.707	11.55
625.04	11.94
625.373	11.68
625.705	11.8
626.038	11.61
626.37	11.93
626.703	11.75
627.035	12.19
627.368	12.01
627.7	12.17
628.032	12.04
628.365	12
628.697	12
629.029	12.22
629.361	12.11
629.693	12.36
630.025	12.14
630.357	12.09
630.689	12.42
631.021	12.78
631.353	12.56
631.684	12.46
632.016	12.27
632.348	12.51
632.679	12.43
633.011	12.75
633.342	12.24
633.674	12.29
634.005	12.66
634.336	12.76
634.668	12.85
634.999	12.77
635.33	12.81
635.661	12.86
635.992	12.88
636.323	12.93
636.654	12.63
636.985	13.01
637.316	12.82
637.647	13
637.977	13.01
638.308	12.81
638.639	12.77
638.969	13.41
639.3	13.03
639.63	12.91
639.961	13.16
640.291	13.47
640.622	13.13
640.952	13.08
641.282	12.94
641.612	13.1
641.943	13.32
642.273	13.3
642.603	13.39
642.933	13.8
643.263	13.79
643.592	13.5
643.922	13.8
644.252	13.61
644.582	13.6
644.911	13.79
645.241	13.5
645.571	13.22
645.9	14
646.23	13.51
646.559	13.67
646.888	13.25
647.218	13.82
647.547	13.9
647.876	14.23
648.205	13.84
648.534	13.69
648.863	14.04
649.192	13.71
649.521	13.5
649.85	14.23
650.179	13.46
650.508	13.92
650.837	14.1
651.165	14.14
651.494	14.29
651.822	14.14
652.151	14.42
652.479	14.86
652.808	14.26
653.136	14.35
653.465	14.41
653.793	14.75
654.121	14.64
654.449	14.71
654.777	14.75
655.105	14.68
655.433	14.76
655.761	14.9
656.089	15.27
656.417	14.61
656.745	15.07
657.073	15.2
657.4	15.06
657.728	14.88
658.056	14.64
658.383	14.78
658.711	14.34
659.038	14.97
659.365	14.98
659.693	14.82
660.02	15.2
660.347	15.36
660.674	14.93
661.001	14.62
661.329	15.28
661.656	14.94
661.982	14.93
662.309	15.54
662.636	15.13
662.963	15.75
663.29	15.31
663.616	15
663.943	15.54
664.27	15.2
664.596	15.4
664.923	16.04
665.249	15.45
665.576	15.82
665.902	15.72
666.228	15.38
666.554	15.86
666.881	16
667.207	15.97
667.533	16.3
667.859	15.63
668.185	15.75
668.511	15.1
668.837	15.8
669.162	15.5
669.488	15.65
669.814	16.49
670.139	16.44
670.465	16.51
670.791	16.49
671.116	16.34
671.442	15.77
671.767	16.15
672.092	16.41
672.418	16.22
672.743	15.45
673.068	16.63
673.393	16.65
673.718	16.46
674.043	16.63
674.368	16.68
674.693	16.89
675.018	16.8
675.343	16.97
675.667	16.2
675.992	16.52
676.317	16.53
676.641	16.78
676.966	16.62
677.29	16.28
677.615	17.21
677.939	16.78
678.264	16.77
678.588	16.83
678.912	17.26
679.236	16.9
679.56	16.94
679.885	17.25
680.209	16.38
680.532	16.88
680.856	17.04
681.18	17.05
681.504	16.63
681.828	16.76
682.152	17.65
682.475	17.37
682.799	17.91
683.122	17.41
683.446	17.31
683.769	17.27
684.093	17.59
684.416	17.02
684.739	17.47
685.062	17.57
685.386	16.95
685.709	17.53
686.032	16.87
686.355	17.38
686.678	17.53
687.001	16.97
