Data from 0055_chest_Reflection__1__109.txt Node

Date: Fri Dec 16 14:49:18 CST 2022
User: ToomeyLab
Spectrometer: FLMS14357
Trigger mode: 0
Integration Time (sec): 1.000000E-2
Scans to average: 100
Electric dark correction enabled: true
Nonlinearity correction enabled: false
Boxcar width: 0
XAxis mode: Wavelengths
Number of Pixels in Spectrum: 2048
>>>>>Begin Spectral Data<<<<<
189.047	348.07
189.435	348.07
189.823	348.07
190.211	585.7
190.599	-21.72
190.987	91.74
191.375	-79.99
191.763	13.88
192.151	118.26
192.538	63.68
192.926	148.54
193.314	155.77
193.702	336.12
194.089	-396.04
194.477	43.98
194.864	-133.01
195.252	22.31
195.639	246.88
196.027	-20.88
196.414	-38.99
196.801	-183.69
197.189	57.72
197.576	35.51
197.963	-294.19
198.351	10.22
198.738	-5.31
199.125	47.89
199.512	16.19
199.899	-23.96
200.286	8.35
200.673	65.36
201.06	33.93
201.447	49.08
201.833	0.67
202.22	28.39
202.607	23.2
202.994	8.57
203.38	-41.77
203.767	6.29
204.154	13.64
204.54	-2.86
204.927	40.78
205.313	14.47
205.699	16.09
206.086	3.93
206.472	35.02
206.858	33.92
207.245	1.88
207.631	13.71
208.017	-2.51
208.403	42.81
208.789	3.43
209.175	40.81
209.561	15.67
209.947	-19.02
210.333	-1.98
210.719	11.94
211.105	-15.01
211.491	0.88
211.876	8.98
212.262	12.92
212.648	-2.5
213.034	5.38
213.419	19.21
213.805	4.43
214.19	36.17
214.576	-19.39
214.961	6.51
215.346	-52.73
215.732	27.39
216.117	24.17
216.502	39.06
216.888	-44.22
217.273	6.24
217.658	3.43
218.043	9.43
218.428	2.56
218.813	17.92
219.198	-37.63
219.583	11.65
219.968	26.69
220.353	16.77
220.738	-4.81
221.122	3.21
221.507	18.22
221.892	0.18
222.276	8.01
222.661	-1.82
223.046	1.1
223.43	5.03
223.815	5.58
224.199	6.55
224.583	11.43
224.968	11.44
225.352	0.91
225.736	5.71
226.121	-3.74
226.505	-0.46
226.889	6.27
227.273	7.51
227.657	4.67
228.041	8.7
228.425	5.16
228.809	5.63
229.193	0.95
229.577	2.22
229.961	3.15
230.344	3.43
230.728	3.06
231.112	3.2
231.495	1.91
231.879	3.86
232.263	2.48
232.646	3.87
233.03	2.29
233.413	2.66
233.797	4.65
234.18	3.64
234.563	4.12
234.946	2.44
235.33	4.76
235.713	2.66
236.096	3.07
236.479	4.74
236.862	5.88
237.245	4.57
237.628	2.58
238.011	2.94
238.394	6.47
238.777	2.96
239.16	0.25
239.543	2.11
239.925	6.3
240.308	5.8
240.691	3.18
241.073	3
241.456	2.17
241.838	3.23
242.221	2.43
242.603	3.97
242.986	4.16
243.368	2.92
243.75	2.81
244.133	3.01
244.515	3.29
244.897	3.12
245.279	2.78
245.661	3.49
246.043	4.12
246.425	2.84
246.807	2.71
247.189	2.66
247.571	3.39
247.953	3.13
248.335	3.23
248.717	3.31
249.098	3.33
249.48	2.81
249.862	3.48
250.243	3.28
250.625	3.27
251.006	3.27
251.388	3.47
251.769	2.8
252.151	3.5
252.532	3.79
252.913	3.5
253.295	3.26
253.676	3.66
254.057	3.08
254.438	3.05
254.819	3.15
255.2	3.56
255.581	2.95
255.962	3.3
256.343	4.14
256.724	2.79
257.105	3.33
257.486	3.2
257.867	1.74
258.247	3
258.628	4.11
259.009	3.64
259.389	3.16
259.77	2.72
260.15	3.81
260.531	3.18
260.911	2.81
261.292	3.1
261.672	3.06
262.052	2.76
262.432	2.88
262.813	3.18
263.193	2.94
263.573	3.21
263.953	3.3
264.333	2.63
264.713	2.67
265.093	3.24
265.473	3.63
265.853	3.47
266.233	2.91
266.612	3.13
266.992	2.78
267.372	3.53
267.752	2.81
268.131	2.93
268.511	3.29
268.89	3.69
269.27	3.27
269.649	3.11
270.029	3.31
270.408	2.94
270.787	2.95
271.167	3.54
271.546	2.18
271.925	3.02
272.304	3.13
272.683	2.73
273.062	3.29
273.441	2.9
273.82	3.33
274.199	2.98
274.578	2.88
274.957	3.23
275.336	3.15
275.715	2.8
276.093	3.88
276.472	2.93
276.851	3.35
277.229	3.28
277.608	3.13
277.986	3.2
278.365	2.62
278.743	3.54
279.122	2.53
279.5	3.08
279.878	2.82
280.257	3.22
280.635	2.59
281.013	2.78
281.391	3.12
281.769	2.79
282.147	2.74
282.525	2.38
282.903	2.76
283.281	2.93
283.659	3.35
284.037	2.9
284.415	3.11
284.792	2.76
285.17	2.98
285.548	2.98
285.925	2.8
286.303	3.15
286.68	3.18
287.058	2.91
287.435	2.72
287.813	3.34
288.19	3.45
288.567	2.73
288.945	2.74
289.322	2.93
289.699	3.04
290.076	3.37
290.453	3.05
290.83	3.35
291.207	2.92
291.584	2.81
291.961	3.26
292.338	3.07
292.715	3.46
293.092	3.21
293.469	3.56
293.845	4.1
294.222	3.31
294.599	3.8
294.975	3.28
295.352	2.94
295.728	3.2
296.105	3.27
296.481	3.99
296.858	3.84
297.234	3.51
297.61	3.42
297.986	3.46
298.363	3.37
298.739	3.7
299.115	3.03
299.491	3.36
299.867	3.56
300.243	3.33
300.619	3.75
300.995	3.46
301.371	3.89
301.746	3.39
302.122	3.83
302.498	3.77
302.874	3.59
303.249	4.22
303.625	3.96
304	3.41
304.376	3.95
304.751	3.73
305.127	3.82
305.502	3.84
305.878	3.93
306.253	3.72
306.628	3.94
307.003	3.87
307.378	3.54
307.754	4.29
308.129	3.4
308.504	3.76
308.879	4
309.254	4.07
309.629	3.94
310.003	4
310.378	4.08
310.753	3.98
311.128	4.18
311.502	3.82
311.877	3.66
312.252	3.91
312.626	3.83
313.001	3.77
313.375	3.82
313.75	3.7
314.124	4.29
314.498	3.68
314.873	4.09
315.247	3.67
315.621	4.46
315.995	3.93
316.369	4.28
316.743	4.39
317.117	3.94
317.491	4.22
317.865	3.42
318.239	4.45
318.613	4.37
318.987	4.33
319.361	4.4
319.734	4.69
320.108	4.3
320.482	4.26
320.855	4.51
321.229	5.01
321.602	4.41
321.976	4.23
322.349	4.19
322.723	4.21
323.096	4.02
323.469	3.89
323.843	4.67
324.216	3.76
324.589	4.9
324.962	4.68
325.335	4.31
325.708	4.73
326.081	4.71
326.454	4.52
326.827	4.3
327.2	4.64
327.573	4.41
327.945	4.65
328.318	4.14
328.691	4.48
329.063	4.09
329.436	4.26
329.809	3.66
330.181	4.75
330.553	4.53
330.926	4.5
331.298	4.8
331.671	4.74
332.043	4.98
332.415	4.88
332.787	5.12
333.159	4.74
333.532	4.8
333.904	4.75
334.276	4.67
334.648	5.02
335.02	4.12
335.391	4.91
335.763	4.94
336.135	4.51
336.507	5.45
336.879	4.41
337.25	4.34
337.622	5.05
337.993	5.04
338.365	4.97
338.736	4.55
339.108	4.51
339.479	4.26
339.851	4.95
340.222	4.59
340.593	4.35
340.964	4.73
341.336	4.54
341.707	4.1
342.078	4.15
342.449	4.65
342.82	4.42
343.191	4.34
343.562	4.02
343.933	4.31
344.303	4.89
344.674	4.62
345.045	5.27
345.416	5.05
345.786	4.5
346.157	4.52
346.527	4.37
346.898	4.56
347.268	4.57
347.639	4.26
348.009	4.83
348.38	4.72
348.75	4.44
349.12	4.79
349.49	4.53
349.861	5.26
350.231	5.07
350.601	4.73
350.971	4.62
351.341	4.91
351.711	4.75
352.081	4.83
352.45	4.96
352.82	4.86
353.19	4.62
353.56	4.77
353.929	5.22
354.299	4.59
354.669	4.72
355.038	4.65
355.408	4.81
355.777	4.56
356.147	5.11
356.516	4.92
356.885	4.85
357.254	4.99
357.624	4.74
357.993	4.48
358.362	4.97
358.731	4.57
359.1	4.79
359.469	4.7
359.838	4.57
360.207	4.41
360.576	4.61
360.945	4.51
361.314	4.97
361.682	4.65
362.051	4.41
362.42	5.04
362.788	4.9
363.157	4.59
363.525	4.66
363.894	4.44
364.262	4.58
364.631	5.42
364.999	4.58
365.367	4.97
365.735	4.64
366.104	4.62
366.472	4.77
366.84	4.81
367.208	4.46
367.576	4.77
367.944	4.87
368.312	4.71
368.68	4.96
369.048	4.88
369.416	4.71
369.783	4.64
370.151	4.86
370.519	4.72
370.886	4.61
371.254	5.22
371.621	4.96
371.989	4.9
372.356	5.1
372.724	5.06
373.091	4.94
373.458	4.99
373.826	4.74
374.193	5.29
374.56	4.75
374.927	4.72
375.294	5.37
375.661	4.93
376.028	4.89
376.395	5
376.762	5.14
377.129	5.07
377.496	4.91
377.863	5.1
378.229	4.89
378.596	4.89
378.963	4.68
379.329	4.78
379.696	4.88
380.062	5.15
380.429	4.95
380.795	4.84
381.161	5
381.528	4.84
381.894	5.23
382.26	4.61
382.626	4.78
382.993	4.59
383.359	4.87
383.725	4.97
384.091	4.69
384.457	5.33
384.823	4.89
385.188	5.24
385.554	5.1
385.92	5.36
386.286	5.4
386.651	5.13
387.017	5.17
387.383	4.86
387.748	5.09
388.114	5.17
388.479	5.22
388.845	4.97
389.21	5.09
389.575	5.04
389.94	4.93
390.306	5.13
390.671	5.08
391.036	5.24
391.401	5.23
391.766	5.3
392.131	5.22
392.496	4.97
392.861	5.03
393.226	5.34
393.591	5.24
393.956	5.19
394.32	4.9
394.685	5.34
395.05	4.97
395.414	5.18
395.779	5.05
396.143	5.2
396.508	5.04
396.872	5.23
397.236	4.7
397.601	5.35
397.965	4.98
398.329	5.2
398.694	5.04
399.058	5.16
399.422	5.25
399.786	5.22
400.15	5.26
400.514	5.06
400.878	5.32
401.242	5.49
401.605	5.33
401.969	5.14
402.333	5.3
402.697	5.58
403.06	5.42
403.424	5.25
403.787	5.5
404.151	5.37
404.514	5.41
404.878	5.21
405.241	5.32
405.604	5.22
405.968	5.27
406.331	5.37
406.694	5.35
407.057	5.67
407.42	5.46
407.783	5.32
408.146	5.36
408.509	5.41
408.872	5.41
409.235	5.24
409.598	5.5
409.961	5.37
410.323	5.42
410.686	5.28
411.049	5.32
411.411	5.42
411.774	5.32
412.136	5.39
412.499	5.22
412.861	5.2
413.223	5.5
413.586	5.29
413.948	5.55
414.31	5.48
414.672	5.36
415.035	5.7
415.397	5.65
415.759	5.51
416.121	5.71
416.483	5.59
416.845	5.37
417.206	5.64
417.568	5.47
417.93	5.43
418.292	5.46
418.653	5.43
419.015	5.47
419.377	5.57
419.738	5.33
420.1	5.42
420.461	5.36
420.822	5.38
421.184	5.34
421.545	5.43
421.906	5.47
422.267	5.26
422.629	5.34
422.99	5.37
423.351	5.48
423.712	5.44
424.073	5.53
424.434	5.44
424.795	5.4
425.155	5.42
425.516	5.43
425.877	5.47
426.238	5.31
426.598	5.48
426.959	5.49
427.32	5.57
427.68	5.57
428.041	5.55
428.401	5.56
428.761	5.55
429.122	5.55
429.482	5.62
429.842	5.63
430.202	5.69
430.563	5.58
430.923	5.56
431.283	5.65
431.643	5.75
432.003	5.69
432.363	5.71
432.722	5.65
433.082	5.88
433.442	5.68
433.802	5.91
434.161	5.63
434.521	5.67
434.881	5.78
435.24	5.58
435.6	5.79
435.959	5.74
436.319	5.83
436.678	5.75
437.037	5.77
437.396	5.81
437.756	5.8
438.115	5.81
438.474	5.93
438.833	5.82
439.192	5.99
439.551	5.82
439.91	5.74
440.269	5.89
440.628	5.84
440.987	5.63
441.345	5.8
441.704	5.87
442.063	5.7
442.421	5.74
442.78	5.73
443.138	5.7
443.497	5.67
443.855	5.82
444.214	5.92
444.572	5.76
444.93	5.98
445.288	5.89
445.647	5.88
446.005	5.82
446.363	5.74
446.721	5.71
447.079	5.82
447.437	5.82
447.795	5.68
448.153	5.8
448.51	5.84
448.868	5.86
449.226	5.86
449.584	5.92
449.941	5.99
450.299	5.92
450.656	6.07
451.014	6.07
451.371	6.1
451.729	6.03
452.086	5.92
452.443	5.94
452.801	6.15
453.158	6.06
453.515	6.08
453.872	6.04
454.229	6.07
454.586	6.04
454.943	6.15
455.3	6.2
455.657	6.12
456.014	6.17
456.371	6.12
456.727	6.07
457.084	6.06
457.441	6.02
457.797	6.23
458.154	6.18
458.51	6.27
458.867	6.09
459.223	6.13
459.58	6.18
459.936	6.05
460.292	6.14
460.648	5.97
461.005	5.93
461.361	6.06
461.717	6.12
462.073	6.17
462.429	6.24
462.785	6.19
463.141	6.33
463.496	6.2
463.852	6.36
464.208	6.25
464.564	6.16
464.919	6.37
465.275	6.25
465.631	6.46
465.986	6.04
466.342	6.33
466.697	6.4
467.052	6.52
467.408	6.42
467.763	6.09
468.118	6.41
468.473	6.51
468.829	6.31
469.184	6.53
469.539	6.29
469.894	6.37
470.249	6.47
470.603	6.6
470.958	6.55
471.313	6.28
471.668	6.5
472.023	6.59
472.377	6.43
472.732	6.38
473.086	6.37
473.441	6.49
473.795	6.7
474.15	6.58
474.504	6.47
474.859	6.63
475.213	6.49
475.567	6.46
475.921	6.72
476.275	6.68
476.63	6.73
476.984	6.57
477.338	6.84
477.692	6.58
478.045	6.56
478.399	6.65
478.753	6.52
479.107	6.63
479.461	6.58
479.814	6.49
480.168	6.53
480.521	6.6
480.875	6.67
481.228	6.66
481.582	6.52
481.935	6.58
482.289	6.57
482.642	6.71
482.995	6.65
483.348	6.6
483.701	6.58
484.055	6.58
484.408	6.47
484.761	6.32
485.114	6.26
485.466	6.31
485.819	6.33
486.172	6.43
486.525	6.52
486.878	6.52
487.23	6.61
487.583	6.61
487.936	6.62
488.288	6.47
488.641	6.58
488.993	6.43
489.345	6.53
489.698	6.54
490.05	6.6
490.402	6.73
490.754	6.72
491.107	6.78
491.459	6.84
491.811	6.9
492.163	6.94
492.515	6.75
492.866	6.55
493.218	6.63
493.57	6.77
493.922	6.76
494.274	6.84
494.625	6.81
494.977	6.97
495.328	7.09
495.68	7.22
496.031	7.11
496.383	7.04
496.734	7.21
497.086	6.98
497.437	7.09
497.788	7.05
498.139	7.05
498.49	7.08
498.842	6.99
499.193	7.08
499.544	7.2
499.894	7.2
500.245	7.19
500.596	7.1
500.947	7.16
501.298	7.21
501.648	7.29
501.999	7.41
502.35	7.43
502.7	7.4
503.051	7.42
503.401	7.39
503.752	7.37
504.102	7.38
504.452	7.39
504.803	7.17
505.153	7.37
505.503	7.37
505.853	7.47
506.203	7.46
506.553	7.4
506.903	7.42
507.253	7.56
507.603	7.42
507.953	7.62
508.303	7.49
508.652	7.46
509.002	7.54
509.352	7.48
509.701	7.48
510.051	7.46
510.4	7.45
510.75	7.45
511.099	7.44
511.449	7.5
511.798	7.75
512.147	7.52
512.496	7.54
512.846	7.5
513.195	7.64
513.544	7.57
513.893	7.53
514.242	7.76
514.591	7.8
514.939	7.75
515.288	7.88
515.637	7.73
515.986	7.71
516.334	7.81
516.683	7.73
517.032	7.7
517.38	7.87
517.729	7.95
518.077	7.78
518.426	7.79
518.774	7.8
519.122	7.85
519.47	7.75
519.819	7.83
520.167	7.84
520.515	7.72
520.863	7.86
521.211	7.77
521.559	7.91
521.907	7.96
522.255	7.97
522.602	8
522.95	8.22
523.298	8.07
523.645	8.11
523.993	8.19
524.341	8.11
524.688	8.18
525.036	8.29
525.383	8.14
525.73	8.09
526.078	8.19
526.425	8.2
526.772	8.05
527.119	8.09
527.466	8.07
527.814	8.12
528.161	8.21
528.508	8.18
528.854	8.06
529.201	8.09
529.548	8.01
529.895	7.95
530.242	7.92
530.588	8.03
530.935	8.05
531.282	8.12
531.628	8.15
531.975	8.28
532.321	8.39
532.667	8.36
533.014	8.41
533.36	8.44
533.706	8.47
534.052	8.39
534.399	8.3
534.745	8.35
535.091	8.4
535.437	8.38
535.783	8.52
536.129	8.45
536.474	8.66
536.82	8.67
537.166	8.76
537.512	8.71
537.857	8.7
538.203	8.59
538.549	8.74
538.894	8.68
539.239	8.94
539.585	8.82
539.93	8.98
540.276	9.05
540.621	8.91
540.966	9.09
541.311	9.1
541.656	8.9
542.001	8.86
542.346	8.82
542.691	8.71
543.036	8.67
543.381	8.87
543.726	8.82
544.071	8.92
544.415	8.91
544.76	8.88
545.105	9.1
545.449	9.15
545.794	9.17
546.138	9.32
546.483	9.35
546.827	9.24
547.171	9.26
547.516	9.44
547.86	9.29
548.204	9.36
548.548	9.45
548.892	9.42
549.236	9.55
549.58	9.57
549.924	9.55
550.268	9.65
550.612	9.66
550.956	9.51
551.3	9.68
551.643	9.79
551.987	9.61
552.33	9.62
552.674	9.82
553.017	9.98
553.361	9.85
553.704	9.83
554.048	9.93
554.391	9.83
554.734	9.92
555.077	9.87
555.42	9.91
555.764	10.1
556.107	9.98
556.45	10.09
556.793	10.23
557.135	10.16
557.478	10.2
557.821	10.24
558.164	10.33
558.507	10.22
558.849	10.25
559.192	10.3
559.534	10.22
559.877	10.48
560.219	10.47
560.562	10.43
560.904	10.46
561.246	10.53
561.589	10.58
561.931	10.73
562.273	10.42
562.615	10.72
562.957	10.4
563.299	10.58
563.641	10.64
563.983	10.45
564.325	10.5
564.667	10.61
565.008	10.66
565.35	10.7
565.692	10.81
566.033	10.99
566.375	10.91
566.716	10.89
567.058	11.02
567.399	10.89
567.741	10.98
568.082	10.77
568.423	10.91
568.764	11.02
569.105	11.06
569.447	11.15
569.788	11.12
570.129	11.14
570.47	11.22
570.811	11.17
571.151	11.38
571.492	11.39
571.833	11.24
572.174	11.31
572.514	11.21
572.855	11.34
573.195	11.23
573.536	11.2
573.876	11.28
574.217	11.27
574.557	11.58
574.898	11.39
575.238	11.55
575.578	11.57
575.918	11.43
576.258	11.65
576.598	11.57
576.938	11.8
577.278	11.62
577.618	11.7
577.958	11.81
578.298	11.74
578.638	11.77
578.977	11.91
579.317	12.08
579.657	12.02
579.996	11.86
580.336	12.06
580.675	12.04
581.014	12.05
581.354	11.94
581.693	12.14
582.032	12.16
582.372	12.24
582.711	12.19
583.05	12.48
583.389	12.41
583.728	12.54
584.067	12.46
584.406	12.51
584.745	12.41
585.083	12.66
585.422	12.39
585.761	12.6
586.1	12.6
586.438	12.78
586.777	12.53
587.115	12.59
587.454	12.68
587.792	12.62
588.13	12.93
588.469	12.68
588.807	13.24
589.145	12.91
589.483	12.77
589.821	12.86
590.159	12.81
590.497	12.52
590.835	12.86
591.173	13.18
591.511	12.99
591.849	12.95
592.187	13.27
592.524	13.15
592.862	13.09
593.2	13.46
593.537	13.17
593.875	13.38
594.212	13.28
594.55	13.29
594.887	13.62
595.224	13.41
595.561	13.53
595.899	13.45
596.236	13.55
596.573	13.31
596.91	13.58
597.247	13.55
597.584	13.69
597.921	13.63
598.258	13.57
598.594	13.33
598.931	13.44
599.268	13.53
599.604	13.88
599.941	13.6
600.277	13.91
600.614	14.1
600.95	14.03
601.287	13.88
601.623	14.19
601.959	13.84
602.296	14.08
602.632	14.11
602.968	13.99
603.304	14.14
603.64	13.99
603.976	14.06
604.312	14.11
604.648	14.33
604.984	14.24
605.319	14.2
605.655	14.36
605.991	14.11
606.326	14.01
606.662	14.15
606.998	14.19
607.333	14.28
607.668	14.34
608.004	14.58
608.339	14.68
608.674	14.34
609.01	14.63
609.345	14.98
609.68	14.61
610.015	14.56
610.35	14.72
610.685	14.88
611.02	14.9
611.355	15.04
611.689	14.73
612.024	15
612.359	15.28
612.694	15.03
613.028	15.21
613.363	14.88
613.697	14.92
614.032	14.76
614.366	15.19
614.7	15.63
615.035	15.09
615.369	15.29
615.703	15.7
616.037	15.52
616.371	15.09
616.705	15.42
617.039	15.76
617.373	15.36
617.707	15.29
618.041	15.77
618.375	15.21
618.709	15.89
619.042	15.82
619.376	15.59
619.71	15.81
620.043	15.89
620.377	15.68
620.71	15.84
621.043	15.77
621.377	15.83
621.71	16.31
622.043	16.17
622.376	15.72
622.709	16.1
623.043	15.68
623.376	16.44
623.709	16.31
624.041	15.88
624.374	16.42
624.707	16.14
625.04	16.25
625.373	16.41
625.705	16.32
626.038	16.37
626.37	16.46
626.703	16.36
627.035	16.51
627.368	16.53
627.7	16.19
628.032	16.46
628.365	16.35
628.697	16.33
629.029	16.69
629.361	16.34
629.693	16.74
630.025	16.62
630.357	16.48
630.689	16.81
631.021	16.98
631.353	16.87
631.684	17.09
632.016	16.83
632.348	16.91
632.679	16.5
633.011	16.84
633.342	16.78
633.674	16.93
634.005	17.14
634.336	16.98
634.668	16.98
634.999	17.27
635.33	17.22
635.661	17.11
635.992	17.07
636.323	17.34
636.654	17.41
636.985	17.23
637.316	17.65
637.647	17.1
637.977	17.43
638.308	16.88
638.639	17.58
638.969	17.62
639.3	17.46
639.63	17.59
639.961	17.37
640.291	18.02
640.622	18.03
640.952	17.93
641.282	17.38
641.612	17.66
641.943	18.1
642.273	17.79
642.603	18.29
642.933	18.14
643.263	18.49
643.592	17.98
643.922	18.29
644.252	18.11
644.582	17.91
644.911	17.83
645.241	18.29
645.571	18.5
645.9	18.78
646.23	18.28
646.559	18.15
646.888	18.07
647.218	18.13
647.547	18.58
647.876	18.54
648.205	18.4
648.534	18.05
648.863	18.66
649.192	18.25
649.521	18.4
649.85	18.95
650.179	18.34
650.508	18.68
650.837	18.88
651.165	18.66
651.494	18.43
651.822	19.16
652.151	18.79
652.479	18.88
652.808	18.66
653.136	18.99
653.465	18.89
653.793	19.05
654.121	19.3
654.449	19.33
654.777	19.16
655.105	19.24
655.433	19.4
655.761	18.95
656.089	19.45
656.417	19.02
656.745	19.88
657.073	19.65
657.4	19.28
657.728	19.34
658.056	19.25
658.383	19.49
658.711	19.09
659.038	19.58
659.365	19.74
659.693	19.47
660.02	19.25
660.347	19.59
660.674	19.17
661.001	19.4
661.329	19.5
661.656	19.35
661.982	19.73
662.309	19.81
662.636	19.69
662.963	19.88
663.29	19.59
663.616	19.87
663.943	20.15
664.27	20.06
664.596	19.81
664.923	20.69
665.249	19.75
665.576	20.06
665.902	20
666.228	19.9
666.554	20.36
666.881	20.48
667.207	20.35
667.533	20.22
667.859	20.34
668.185	19.96
668.511	19.62
668.837	20.13
669.162	20.8
669.488	20.93
669.814	20.86
670.139	20.39
670.465	20.35
670.791	20.55
671.116	20.52
671.442	20.51
671.767	20.41
672.092	20.81
672.418	20.5
672.743	20.39
673.068	20.75
673.393	20.76
673.718	21.04
674.043	21.22
674.368	20.9
674.693	21.31
675.018	20.65
675.343	20.6
675.667	20.63
675.992	20.98
676.317	21.5
676.641	21.48
676.966	20.4
677.29	20.84
677.615	21.68
677.939	21.31
678.264	20.96
678.588	21.61
678.912	21.36
679.236	21.3
679.56	21.71
679.885	20.67
680.209	20.89
680.532	21.4
680.856	21.95
681.18	21.62
681.504	21.4
681.828	21.41
682.152	21.55
682.475	21.59
682.799	22.4
683.122	21.72
683.446	21.83
683.769	22.01
