Data from 0055_forehead_Reflection__3__121.txt Node

Date: Fri Dec 16 14:52:14 CST 2022
User: ToomeyLab
Spectrometer: FLMS14357
Trigger mode: 0
Integration Time (sec): 1.000000E-2
Scans to average: 100
Electric dark correction enabled: true
Nonlinearity correction enabled: false
Boxcar width: 0
XAxis mode: Wavelengths
Number of Pixels in Spectrum: 2048
>>>>>Begin Spectral Data<<<<<
189.047	244.94
189.435	244.94
189.823	244.94
190.211	-161.9
190.599	116.19
190.987	28.92
191.375	107.42
191.763	262.59
192.151	61.65
192.538	32.23
192.926	7.13
193.314	132.78
193.702	-75.59
194.089	-714.07
194.477	-4.96
194.864	-106.77
195.252	-55.67
195.639	186.78
196.027	-3.69
196.414	64.86
196.801	-426.88
197.189	99.78
197.576	19.64
197.963	-484.72
198.351	4.41
198.738	9.68
199.125	17.07
199.512	28.05
199.899	23.31
200.286	-3.81
200.673	59.44
201.06	42.22
201.447	26.94
201.833	6.52
202.22	83.9
202.607	-16.8
202.994	21.41
203.38	47.14
203.767	-14.79
204.154	-25.11
204.54	44.38
204.927	19.86
205.313	21.31
205.699	32.14
206.086	16.49
206.472	5.97
206.858	31.63
207.245	16.08
207.631	2.85
208.017	25.48
208.403	48.09
208.789	29.84
209.175	38.99
209.561	13.74
209.947	13.64
210.333	-19.6
210.719	14.99
211.105	7.38
211.491	8.8
211.876	10.41
212.262	0.15
212.648	-7.83
213.034	13.83
213.419	24.66
213.805	-10.83
214.19	21.5
214.576	24.98
214.961	-7.1
215.346	-23.3
215.732	25.19
216.117	-0.17
216.502	-28.17
216.888	-45.52
217.273	33.56
217.658	14.09
218.043	24.8
218.428	15.18
218.813	15.92
219.198	-28.58
219.583	18.82
219.968	-7.5
220.353	16.66
220.738	-12.57
221.122	14.67
221.507	-3.6
221.892	3.5
222.276	11.66
222.661	10.06
223.046	7.36
223.43	5.1
223.815	2.19
224.199	-0.36
224.583	1.41
224.968	9.95
225.352	-6.23
225.736	6.77
226.121	2.65
226.505	1.85
226.889	11.22
227.273	5.97
227.657	3.55
228.041	5.37
228.425	2.42
228.809	4.1
229.193	0.63
229.577	1.64
229.961	3.1
230.344	2.27
230.728	1.69
231.112	2.4
231.495	1.76
231.879	2.9
232.263	1.67
232.646	2.04
233.03	0.79
233.413	3.03
233.797	1.99
234.18	1.11
234.563	0.92
234.946	3.28
235.33	2.36
235.713	2.62
236.096	0.87
236.479	3.54
236.862	3.45
237.245	3.74
237.628	2.47
238.011	2.23
238.394	4.83
238.777	3.09
239.16	2.6
239.543	1.81
239.925	2.58
240.308	1.76
240.691	2.21
241.073	4
241.456	1.61
241.838	2.81
242.221	3.04
242.603	1.65
242.986	3.17
243.368	2.65
243.75	2.77
244.133	2.12
244.515	2.25
244.897	2.4
245.279	2.73
245.661	3.3
246.043	3.43
246.425	2.12
246.807	3.64
247.189	2.12
247.571	2.95
247.953	2.57
248.335	2.62
248.717	2.41
249.098	2.78
249.48	2.18
249.862	2.61
250.243	2.5
250.625	2.73
251.006	3.04
251.388	2.96
251.769	3.5
252.151	2.74
252.532	2.71
252.913	3.06
253.295	2.92
253.676	3.07
254.057	2.47
254.438	2.47
254.819	3.65
255.2	2.95
255.581	2.31
255.962	2.5
256.343	3.15
256.724	2.75
257.105	2.93
257.486	2.53
257.867	1.7
258.247	2.32
258.628	3.44
259.009	3.04
259.389	3.2
259.77	2.81
260.15	3.41
260.531	2.73
260.911	2.45
261.292	2.22
261.672	2.46
262.052	2.59
262.432	2.12
262.813	3.14
263.193	2.55
263.573	2.68
263.953	2.9
264.333	3.16
264.713	2.32
265.093	2.37
265.473	3.8
265.853	2.74
266.233	2.62
266.612	2.34
266.992	1.98
267.372	2.51
267.752	1.82
268.131	2.63
268.511	2.87
268.89	2.77
269.27	2.91
269.649	2.3
270.029	2.86
270.408	2.3
270.787	2.66
271.167	2.79
271.546	2.37
271.925	2.49
272.304	2.93
272.683	2.37
273.062	2.29
273.441	2.73
273.82	2.61
274.199	2.6
274.578	2.68
274.957	2.42
275.336	2.76
275.715	2.99
276.093	2.91
276.472	2.47
276.851	2.98
277.229	2.79
277.608	2.1
277.986	2.54
278.365	2.09
278.743	2.95
279.122	2.88
279.5	2.67
279.878	2.09
280.257	2.66
280.635	2.41
281.013	3.17
281.391	2.46
281.769	2.53
282.147	2.98
282.525	2.26
282.903	2.74
283.281	2.02
283.659	2.75
284.037	2.4
284.415	2.64
284.792	2.57
285.17	2.46
285.548	2.59
285.925	2.68
286.303	2.3
286.68	2.87
287.058	2.16
287.435	2.32
287.813	2.43
288.19	2.84
288.567	2.77
288.945	2.92
289.322	2.58
289.699	2.45
290.076	2.75
290.453	2.83
290.83	2.76
291.207	2.37
291.584	2.49
291.961	2.46
292.338	2.6
292.715	2.91
293.092	2.81
293.469	3.05
293.845	2.95
294.222	2.72
294.599	3.11
294.975	3.22
295.352	2.81
295.728	3.52
296.105	3.11
296.481	3.76
296.858	3.33
297.234	3.28
297.61	3
297.986	3.23
298.363	3.02
298.739	3.38
299.115	2.85
299.491	3.2
299.867	3.18
300.243	3.12
300.619	3.04
300.995	3.31
301.371	3.54
301.746	3.17
302.122	3.76
302.498	3.29
302.874	3.84
303.249	4.03
303.625	3.27
304	3.47
304.376	3.53
304.751	4.11
305.127	3.85
305.502	4.1
305.878	3.7
306.253	3.4
306.628	4.32
307.003	3.61
307.378	3.76
307.754	4.08
308.129	3.63
308.504	3.49
308.879	3.92
309.254	4.16
309.629	3.8
310.003	4.67
310.378	4.46
310.753	4.25
311.128	4.35
311.502	4.28
311.877	4.08
312.252	4.21
312.626	4.16
313.001	4.3
313.375	4.26
313.75	4.56
314.124	4.86
314.498	4.45
314.873	4.61
315.247	4.64
315.621	5.18
315.995	4.97
316.369	4.88
316.743	5.61
317.117	4.8
317.491	5.21
317.865	4.76
318.239	5.88
318.613	5.18
318.987	5.49
319.361	4.92
319.734	5.83
320.108	5.39
320.482	5.41
320.855	5.16
321.229	6.25
321.602	5.27
321.976	5.38
322.349	5.55
322.723	4.7
323.096	6.06
323.469	5.37
323.843	6.08
324.216	5.42
324.589	5.89
324.962	5.99
325.335	5.5
325.708	5.37
326.081	6.47
326.454	6.32
326.827	6.14
327.2	6.26
327.573	5.9
327.945	6.18
328.318	6.18
328.691	6.53
329.063	6.4
329.436	5.99
329.809	5.89
330.181	5.89
330.553	6.38
330.926	6.45
331.298	6.58
331.671	6.6
332.043	6.1
332.415	6.85
332.787	7.25
333.159	6.86
333.532	6.38
333.904	6.73
334.276	6.79
334.648	7.01
335.02	6.58
335.391	7.22
335.763	6.75
336.135	7.08
336.507	7.2
336.879	7.25
337.25	6.95
337.622	6.98
337.993	7.48
338.365	7.53
338.736	7.35
339.108	6.64
339.479	7.1
339.851	7.79
340.222	7.57
340.593	6.98
340.964	7.22
341.336	6.95
341.707	7.56
342.078	7.67
342.449	7.41
342.82	6.88
343.191	7.12
343.562	7.56
343.933	7.3
344.303	7.83
344.674	7.49
345.045	8.03
345.416	7.33
345.786	7.44
346.157	7.95
346.527	7.63
346.898	7.92
347.268	7.77
347.639	7.4
348.009	7.89
348.38	7.98
348.75	8.24
349.12	8.12
349.49	8.03
349.861	8.51
350.231	8.03
350.601	8.08
350.971	8.06
351.341	8.36
351.711	8.14
352.081	7.86
352.45	8.55
352.82	8.23
353.19	8.31
353.56	8.37
353.929	8.52
354.299	8.48
354.669	8.56
355.038	8.43
355.408	8.99
355.777	8.41
356.147	9.14
356.516	8.96
356.885	8.59
357.254	8.61
357.624	8.64
357.993	8.38
358.362	8.68
358.731	8.92
359.1	8.71
359.469	8.94
359.838	8.81
360.207	8.56
360.576	8.84
360.945	8.79
361.314	8.49
361.682	8.81
362.051	8.76
362.42	9.04
362.788	8.83
363.157	8.81
363.525	8.75
363.894	8.83
364.262	8.91
364.631	9.59
364.999	9.17
365.367	9.78
365.735	9.3
366.104	9.05
366.472	9.32
366.84	9.6
367.208	9.36
367.576	9.53
367.944	9.75
368.312	9.59
368.68	9.7
369.048	10.34
369.416	9.8
369.783	9.61
370.151	9.81
370.519	9.55
370.886	9.78
371.254	9.44
371.621	9.64
371.989	9.92
372.356	10.15
372.724	10.1
373.091	10.11
373.458	10.08
373.826	10.17
374.193	10.48
374.56	10.01
374.927	10.4
375.294	10.41
375.661	10.27
376.028	10.48
376.395	9.83
376.762	10.43
377.129	10.49
377.496	10.48
377.863	10.76
378.229	10.74
378.596	10.12
378.963	10.41
379.329	10.4
379.696	10.51
380.062	10.8
380.429	10.8
380.795	10.48
381.161	10.62
381.528	10.72
381.894	11
382.26	10.63
382.626	10.93
382.993	10.76
383.359	10.73
383.725	11.37
384.091	11.1
384.457	11.24
384.823	10.9
385.188	11.36
385.554	11.15
385.92	11.11
386.286	11.33
386.651	11.13
387.017	11.47
387.383	11.39
387.748	11.38
388.114	11.77
388.479	11.46
388.845	11.59
389.21	11.72
389.575	11.86
389.94	11.94
390.306	11.59
390.671	11.58
391.036	11.95
391.401	12.26
391.766	11.6
392.131	11.7
392.496	11.71
392.861	11.68
393.226	11.81
393.591	11.79
393.956	12.03
394.32	12
394.685	12.15
395.05	12.07
395.414	12.3
395.779	12.06
396.143	12.04
396.508	12.2
396.872	12.25
397.236	11.82
397.601	12.68
397.965	12.18
398.329	12.33
398.694	12.31
399.058	12.54
399.422	12.82
399.786	12.61
400.15	12.3
400.514	12.59
400.878	12.62
401.242	12.87
401.605	12.99
401.969	12.97
402.333	12.85
402.697	12.97
403.06	12.72
403.424	12.88
403.787	13.31
404.151	12.93
404.514	12.88
404.878	13.02
405.241	13.14
405.604	13.17
405.968	13.06
406.331	13.18
406.694	13.12
407.057	13.48
407.42	13.08
407.783	13.23
408.146	13.1
408.509	13.14
408.872	13.25
409.235	13.38
409.598	13.59
409.961	13.61
410.323	13.48
410.686	13.41
411.049	13.53
411.411	13.52
411.774	13.47
412.136	13.78
412.499	13.82
412.861	13.59
413.223	13.62
413.586	13.8
413.948	14.11
414.31	13.98
414.672	14.13
415.035	14.07
415.397	14.09
415.759	13.99
416.121	14.26
416.483	14.3
416.845	14.05
417.206	14.15
417.568	14.08
417.93	14.2
418.292	14.1
418.653	14.16
419.015	14.08
419.377	14.11
419.738	14.08
420.1	14.23
420.461	14.13
420.822	14.21
421.184	14.12
421.545	14.2
421.906	14.31
422.267	14.09
422.629	14.25
422.99	14.3
423.351	14.35
423.712	14.49
424.073	14.53
424.434	14.49
424.795	14.55
425.155	14.52
425.516	14.43
425.877	14.59
426.238	14.56
426.598	14.73
426.959	14.8
427.32	14.92
427.68	15.03
428.041	15.08
428.401	14.97
428.761	15.16
429.122	15.14
429.482	15.13
429.842	15.28
430.202	15.28
430.563	15.56
430.923	15.23
431.283	15.52
431.643	15.42
432.003	15.59
432.363	15.72
432.722	15.8
433.082	15.59
433.442	15.56
433.802	15.64
434.161	15.65
434.521	15.57
434.881	15.76
435.24	15.76
435.6	15.59
435.959	15.81
436.319	15.82
436.678	16
437.037	16.01
437.396	15.88
437.756	15.96
438.115	16.26
438.474	16.32
438.833	16.32
439.192	16.18
439.551	16.05
439.91	16.24
440.269	16.29
440.628	16.32
440.987	16.15
441.345	16.11
441.704	16.3
442.063	16.28
442.421	16.28
442.78	16.27
443.138	16.48
443.497	16.45
443.855	16.65
444.214	16.75
444.572	16.67
444.93	16.75
445.288	16.7
445.647	16.74
446.005	16.71
446.363	16.74
446.721	16.8
447.079	16.7
447.437	16.6
447.795	16.56
448.153	16.61
448.51	16.64
448.868	16.82
449.226	16.95
449.584	17.03
449.941	17.08
450.299	17.13
450.656	17.3
451.014	17.35
451.371	17.33
451.729	17.4
452.086	17.2
452.443	17.37
452.801	17.7
453.158	17.54
453.515	17.48
453.872	17.7
454.229	17.67
454.586	17.7
454.943	17.77
455.3	17.97
455.657	17.82
456.014	17.87
456.371	17.91
456.727	17.79
457.084	18.03
457.441	17.91
457.797	18.14
458.154	18.27
458.51	18.11
458.867	17.97
459.223	18.12
459.58	18.2
459.936	18.05
460.292	18.35
460.648	17.97
461.005	17.91
461.361	18.06
461.717	18.01
462.073	18.21
462.429	18.18
462.785	18.47
463.141	18.54
463.496	18.59
463.852	18.85
464.208	18.7
464.564	18.7
464.919	18.63
465.275	19
465.631	18.85
465.986	18.85
466.342	18.82
466.697	18.95
467.052	19.03
467.408	18.91
467.763	18.88
468.118	19.19
468.473	19.18
468.829	19.15
469.184	19.14
469.539	18.94
469.894	19.28
470.249	19.3
470.603	19.46
470.958	19.59
471.313	19.42
471.668	19.41
472.023	19.59
472.377	19.44
472.732	19.6
473.086	19.41
473.441	19.78
473.795	19.83
474.15	19.7
474.504	19.67
474.859	19.77
475.213	19.86
475.567	20.02
475.921	19.94
476.275	19.99
476.63	20.01
476.984	20.09
477.338	20.3
477.692	20.13
478.045	20.06
478.399	20.04
478.753	19.96
479.107	19.94
479.461	20.19
479.814	20.05
480.168	20.37
480.521	20.15
480.875	20.36
481.228	20.38
481.582	20.3
481.935	20.29
482.289	20.44
482.642	20.35
482.995	20.31
483.348	20.23
483.701	20.16
484.055	19.92
484.408	19.81
484.761	19.37
485.114	19.28
485.466	19.37
485.819	19.63
486.172	19.85
486.525	20.01
486.878	20.12
487.23	20.33
487.583	20.33
487.936	20.3
488.288	20.06
488.641	19.89
488.993	19.93
489.345	20.01
489.698	20.15
490.05	20.38
490.402	20.58
490.754	20.82
491.107	20.86
491.459	20.99
491.811	21.03
492.163	21.01
492.515	20.57
492.866	20.29
493.218	20.43
493.57	20.68
493.922	20.94
494.274	21.17
494.625	21.3
494.977	21.46
495.328	21.64
495.68	21.8
496.031	21.81
496.383	21.82
496.734	21.88
497.086	21.87
497.437	21.83
497.788	21.73
498.139	21.69
498.49	21.73
498.842	21.75
499.193	21.86
499.544	21.92
499.894	22.05
500.245	22.13
500.596	22.1
500.947	22.26
501.298	22.23
501.648	22.45
501.999	22.41
502.35	22.44
502.7	22.54
503.051	22.76
503.401	22.72
503.752	22.62
504.102	22.61
504.452	22.63
504.803	22.72
505.153	22.83
505.503	22.68
505.853	22.68
506.203	22.87
506.553	22.78
506.903	22.93
507.253	23.03
507.603	23.1
507.953	23.13
508.303	22.97
508.652	22.95
509.002	23.07
509.352	22.99
509.701	23
510.051	23.11
510.4	22.97
510.75	23.1
511.099	23.01
511.449	23.13
511.798	23.44
512.147	23.24
512.496	23.24
512.846	23.47
513.195	23.43
513.544	23.35
513.893	23.33
514.242	23.54
514.591	23.77
514.939	23.71
515.288	23.72
515.637	23.86
515.986	23.71
516.334	23.92
516.683	23.78
517.032	23.96
517.38	23.86
517.729	23.85
518.077	23.98
518.426	23.82
518.774	23.92
519.122	23.82
519.47	23.63
519.819	23.62
520.167	23.65
520.515	23.63
520.863	23.87
521.211	23.91
521.559	24
521.907	24.33
522.255	24.32
522.602	24.41
522.95	24.49
523.298	24.53
523.645	24.58
523.993	24.63
524.341	24.59
524.688	24.74
525.036	24.71
525.383	24.77
525.73	24.57
526.078	24.73
526.425	24.53
526.772	24.27
527.119	24.2
527.466	24.29
527.814	24.42
528.161	24.5
528.508	24.45
528.854	24.38
529.201	24.32
529.548	23.96
529.895	23.75
530.242	23.85
530.588	24.11
530.935	24.28
531.282	24.51
531.628	24.57
531.975	24.87
532.321	24.84
532.667	24.93
533.014	25.06
533.36	25.07
533.706	25.16
534.052	24.82
534.399	24.6
534.745	24.57
535.091	24.68
535.437	24.95
535.783	25.1
536.129	25.37
536.474	25.52
536.82	25.62
537.166	25.63
537.512	25.55
537.857	25.37
538.203	25.43
538.549	25.68
538.894	25.58
539.239	25.94
539.585	25.99
539.93	26.14
540.276	26.09
540.621	26.28
540.966	26.06
541.311	26.26
541.656	25.88
542.001	25.89
542.346	25.42
542.691	25.18
543.036	25.3
543.381	25.54
543.726	25.75
544.071	25.89
544.415	25.97
544.76	25.89
545.105	26.22
545.449	26.25
545.794	26.46
546.138	26.59
546.483	26.71
546.827	26.77
547.171	26.57
547.516	26.79
547.86	26.59
548.204	26.6
548.548	26.71
548.892	26.79
549.236	27.09
549.58	27.17
549.924	27.34
550.268	27.36
550.612	27.52
550.956	27.5
551.3	27.65
551.643	27.63
551.987	27.69
552.33	27.8
552.674	27.87
553.017	27.79
553.361	27.86
553.704	27.71
554.048	27.79
554.391	27.64
554.734	27.9
555.077	27.91
555.42	27.94
555.764	27.99
556.107	27.94
556.45	28.11
556.793	28.4
557.135	28.16
557.478	28.28
557.821	28.1
558.164	28.27
558.507	28.4
558.849	28.21
559.192	28.81
559.534	28.63
559.877	28.84
560.219	28.96
560.562	28.59
560.904	28.64
561.246	28.86
561.589	28.81
561.931	28.93
562.273	28.97
562.615	28.58
562.957	28.73
563.299	28.92
563.641	28.91
563.983	28.9
564.325	28.74
564.667	29.04
565.008	28.87
565.35	29.22
565.692	29.32
566.033	29.07
566.375	28.83
566.716	29.24
567.058	28.99
567.399	29.03
567.741	29.15
568.082	29.2
568.423	29.23
568.764	29.27
569.105	29.4
569.447	29.43
569.788	29.54
570.129	29.39
570.47	29.55
570.811	29.43
571.151	29.58
571.492	29.87
571.833	29.72
572.174	29.72
572.514	29.66
572.855	29.76
573.195	29.35
573.536	29.5
573.876	29.66
574.217	29.75
574.557	29.93
574.898	29.83
575.238	30.07
575.578	30.06
575.918	29.71
576.258	30.08
576.598	29.83
576.938	30.08
577.278	30.05
577.618	30.21
577.958	30.22
578.298	30.2
578.638	30.39
578.977	30.4
579.317	30.48
579.657	30.37
579.996	30.64
580.336	30.73
580.675	30.96
581.014	30.85
581.354	31.12
581.693	31.03
582.032	30.81
582.372	30.92
582.711	30.96
583.05	31.23
583.389	31.28
583.728	31.25
584.067	31.3
584.406	31.4
584.745	31.2
585.083	31.44
585.422	31.1
585.761	31.55
586.1	31.59
586.438	31.66
586.777	31.24
587.115	31.51
587.454	31.61
587.792	31.46
588.13	31.67
588.469	31.58
588.807	31.97
589.145	32.09
589.483	31.63
589.821	31.71
590.159	31.55
590.497	31.47
590.835	31.73
591.173	31.48
591.511	31.32
591.849	31.55
592.187	31.97
592.524	31.78
592.862	31.92
593.2	31.85
593.537	31.96
593.875	32.22
594.212	32.17
594.55	32.1
594.887	32.36
595.224	32.09
595.561	31.89
595.899	32.57
596.236	32.23
596.573	32.35
596.91	32.39
597.247	32.45
597.584	32.35
597.921	31.95
598.258	32.01
598.594	31.79
598.931	32.06
599.268	32.13
599.604	32.67
599.941	32.63
600.277	32.85
600.614	32.82
600.95	33
601.287	32.94
601.623	32.74
601.959	32.82
602.296	32.87
602.632	32.75
602.968	33.11
603.304	33.13
603.64	33.06
603.976	32.95
604.312	33.18
604.648	32.84
604.984	33.01
605.319	33.13
605.655	32.96
605.991	32.93
606.326	32.69
606.662	32.9
606.998	32.9
607.333	33
607.668	33.36
608.004	33.27
608.339	33.35
608.674	33.47
609.01	33.64
609.345	33.75
609.68	33.46
610.015	33.27
610.35	33.31
610.685	33.12
611.02	33.3
611.355	33.3
611.689	33.23
612.024	33.59
612.359	33.86
612.694	34.14
613.028	33.94
613.363	33.81
613.697	33.9
614.032	33.76
614.366	34.08
614.7	34.3
615.035	33.98
615.369	34.44
615.703	34.53
616.037	34.06
616.371	34.47
616.705	34.43
617.039	34.67
617.373	34.18
617.707	34.39
618.041	35.02
618.375	34.12
618.709	34.43
619.042	34.76
619.376	34.5
619.71	34.51
620.043	34.55
620.377	34.76
620.71	34.79
621.043	34.24
621.377	34.75
621.71	34.99
622.043	34.93
622.376	34.51
622.709	34.99
623.043	34.45
623.376	34.82
623.709	35.04
624.041	34.9
624.374	35.22
624.707	34.72
625.04	35.32
625.373	35.21
625.705	35.06
626.038	35.28
626.37	35.18
626.703	35.17
627.035	34.92
627.368	35.09
627.7	35.22
628.032	35.02
628.365	34.87
628.697	34.98
629.029	35.14
629.361	35.14
629.693	35.58
630.025	35.47
630.357	35.36
630.689	35.49
631.021	35.26
631.353	35.85
631.684	35.94
632.016	35.75
632.348	35.95
632.679	35.35
633.011	35.98
633.342	35.78
633.674	35.98
634.005	36.02
634.336	35.94
634.668	35.45
634.999	35.77
635.33	36.07
635.661	35.83
635.992	35.76
636.323	36.13
636.654	35.88
636.985	36.15
637.316	36.17
637.647	36.1
637.977	35.71
638.308	35.87
638.639	36.36
638.969	36.64
639.3	36.29
639.63	35.87
639.961	36.13
640.291	36.64
640.622	36.75
640.952	35.98
641.282	36.3
641.612	36.35
641.943	36.63
642.273	36.7
642.603	36.45
642.933	37.4
643.263	37.21
643.592	36.39
643.922	37.02
644.252	36.94
644.582	36.8
644.911	37.18
645.241	37.33
645.571	36.73
645.9	37.16
646.23	37.3
646.559	36.86
646.888	36.79
647.218	36.87
647.547	36.7
647.876	37.18
648.205	37.14
648.534	37.06
648.863	37.85
649.192	37.12
649.521	37.29
649.85	37.75
650.179	37.31
650.508	37.5
650.837	37.47
651.165	38.19
651.494	37.23
651.822	37.73
652.151	37.95
652.479	37.49
652.808	37.94
653.136	37.41
653.465	37.43
653.793	37.86
654.121	37.54
654.449	37.59
654.777	37.57
655.105	37.86
655.433	37.88
655.761	37.73
656.089	38.1
656.417	38.43
656.745	38.44
657.073	38.1
657.4	38.07
657.728	38.2
658.056	38.06
658.383	37.88
658.711	37.86
659.038	37.74
659.365	38.31
659.693	37.87
660.02	38.04
660.347	38.26
660.674	37.7
661.001	37.55
661.329	38.32
661.656	37.84
661.982	38.23
662.309	38.19
662.636	37.96
662.963	38.3
663.29	38.1
663.616	38.13
663.943	38.63
664.27	38.54
664.596	38.97
664.923	38.25
665.249	37.98
665.576	38.57
665.902	39.15
666.228	38.22
666.554	38.61
666.881	39.05
667.207	38.42
667.533	39.55
667.859	38.42
668.185	39
668.511	38.83
668.837	37.53
669.162	39.05
669.488	39.16
669.814	39.42
670.139	39.44
670.465	39.61
670.791	39.11
671.116	39.13
671.442	39.51
671.767	39.03
672.092	39.25
672.418	39.24
672.743	39.13
673.068	39.4
