Data from 0055_forehead_Reflection__0__118.txt Node

Date: Fri Dec 16 14:51:43 CST 2022
User: ToomeyLab
Spectrometer: FLMS14357
Trigger mode: 0
Integration Time (sec): 1.000000E-2
Scans to average: 100
Electric dark correction enabled: true
Nonlinearity correction enabled: false
Boxcar width: 0
XAxis mode: Wavelengths
Number of Pixels in Spectrum: 2048
>>>>>Begin Spectral Data<<<<<
189.047	211.33
189.435	211.33
189.823	211.33
190.211	-66.33
190.599	-88.28
190.987	21.26
191.375	96.89
191.763	47.83
192.151	19.75
192.538	88.03
192.926	-44.69
193.314	239.7
193.702	-107.67
194.089	-37.02
194.477	-4.05
194.864	-93.99
195.252	142.86
195.639	408.39
196.027	170.53
196.414	-2.28
196.801	-768.19
197.189	103.83
197.576	12.58
197.963	-432.11
198.351	20.73
198.738	-5.74
199.125	35.82
199.512	-12.11
199.899	80.71
200.286	-3.86
200.673	15.9
201.06	38.9
201.447	27.34
201.833	-13.19
202.22	56.43
202.607	-47.69
202.994	20.4
203.38	-2.06
203.767	34.53
204.154	-66.58
204.54	23.77
204.927	22.96
205.313	45.91
205.699	-10.24
206.086	21.78
206.472	-6.24
206.858	14.7
207.245	5.71
207.631	18.01
208.017	25.97
208.403	15.9
208.789	8.07
209.175	24.08
209.561	1.58
209.947	19
210.333	-8.6
210.719	-21.22
211.105	21.48
211.491	14.28
211.876	25.94
212.262	11.21
212.648	-11.26
213.034	30.3
213.419	17.99
213.805	8.32
214.19	-1.57
214.576	-4.24
214.961	7.56
215.346	5.22
215.732	6.55
216.117	-4.24
216.502	10.31
216.888	21.3
217.273	24.76
217.658	4.16
218.043	14.45
218.428	20.31
218.813	9.64
219.198	-16.83
219.583	-11.51
219.968	-2.06
220.353	17.5
220.738	-10.56
221.122	-7.19
221.507	13.26
221.892	17.73
222.276	11.95
222.661	-3.28
223.046	11.29
223.43	14.32
223.815	15.05
224.199	8.26
224.583	8.25
224.968	7.12
225.352	-3.46
225.736	13.07
226.121	2.73
226.505	10.22
226.889	11.13
227.273	4.02
227.657	6.62
228.041	7.18
228.425	8.2
228.809	6.6
229.193	2.47
229.577	3.89
229.961	4.67
230.344	4.05
230.728	4.28
231.112	3.81
231.495	4.39
231.879	4.68
232.263	3.76
232.646	2.42
233.03	2.22
233.413	4.28
233.797	7.95
234.18	5.54
234.563	5.39
234.946	5.41
235.33	2.9
235.713	3.79
236.096	4.63
236.479	6.37
236.862	6.29
237.245	5.27
237.628	4.82
238.011	4.21
238.394	5.32
238.777	6.16
239.16	3.6
239.543	4.82
239.925	5.6
240.308	4.26
240.691	3.4
241.073	4.7
241.456	4.02
241.838	4.04
242.221	4.52
242.603	4.92
242.986	5.05
243.368	4.74
243.75	4.56
244.133	4.87
244.515	4.78
244.897	4.45
245.279	4.13
245.661	4.82
246.043	4.81
246.425	4.4
246.807	4.28
247.189	4.25
247.571	4.86
247.953	4.58
248.335	4.8
248.717	4.71
249.098	4.58
249.48	4.63
249.862	4.67
250.243	5.03
250.625	4.96
251.006	4.8
251.388	5.42
251.769	4.95
252.151	5.07
252.532	5.17
252.913	5.06
253.295	4.81
253.676	4.7
254.057	4.46
254.438	4.45
254.819	5.32
255.2	4.59
255.581	5.1
255.962	5.65
256.343	4.77
256.724	5.52
257.105	4.96
257.486	5.08
257.867	3.23
258.247	5.17
258.628	5.87
259.009	4.92
259.389	5.28
259.77	4.58
260.15	5.21
260.531	4.66
260.911	4.57
261.292	4.56
261.672	4.57
262.052	4.65
262.432	4.84
262.813	4.92
263.193	4.09
263.573	4.71
263.953	4.86
264.333	5.08
264.713	4.23
265.093	4
265.473	6.22
265.853	5.31
266.233	4.87
266.612	4.54
266.992	4.31
267.372	5.05
267.752	4.37
268.131	4.42
268.511	4.4
268.89	4.78
269.27	4.92
269.649	4.8
270.029	3.9
270.408	4.76
270.787	4.39
271.167	4.85
271.546	3.98
271.925	4.61
272.304	4.71
272.683	4.4
273.062	5.09
273.441	4.66
273.82	4.76
274.199	4.64
274.578	4.41
274.957	4.52
275.336	4.2
275.715	4.67
276.093	4.77
276.472	4.59
276.851	4.7
277.229	5.22
277.608	4.65
277.986	4.67
278.365	4.26
278.743	4.67
279.122	3.81
279.5	4.23
279.878	3.86
280.257	4.2
280.635	4.73
281.013	4.7
281.391	4.72
281.769	4.29
282.147	4.61
282.525	4.27
282.903	4.69
283.281	4.57
283.659	4.82
284.037	4.57
284.415	4.68
284.792	4.36
285.17	4.17
285.548	4.17
285.925	4.32
286.303	4.18
286.68	4.57
287.058	4.69
287.435	4.27
287.813	4.55
288.19	5.18
288.567	4.29
288.945	4.75
289.322	5.22
289.699	5.49
290.076	4.95
290.453	4.91
290.83	4.89
291.207	4.88
291.584	4.81
291.961	4.94
292.338	4.96
292.715	4.91
293.092	4.85
293.469	5.46
293.845	5.34
294.222	4.83
294.599	5.76
294.975	5.16
295.352	4.87
295.728	5.55
296.105	5.33
296.481	5.98
296.858	5.71
297.234	5.57
297.61	5.76
297.986	5.37
298.363	5.29
298.739	5.65
299.115	5.26
299.491	5.73
299.867	5.77
300.243	6.09
300.619	5.99
300.995	6.01
301.371	6.31
301.746	5.76
302.122	5.78
302.498	6.45
302.874	6.48
303.249	6.47
303.625	6.47
304	6.22
304.376	6.29
304.751	6.13
305.127	6.74
305.502	6.51
305.878	6.13
306.253	6.13
306.628	6.91
307.003	6.73
307.378	6.65
307.754	6.86
308.129	6.07
308.504	6.69
308.879	7.35
309.254	7.33
309.629	6.84
310.003	7.23
310.378	7.53
310.753	7.76
311.128	6.86
311.502	6.95
311.877	6.85
312.252	7.11
312.626	7.23
313.001	6.7
313.375	7.33
313.75	7.29
314.124	8.09
314.498	7.49
314.873	7.78
315.247	7.7
315.621	8.16
315.995	8.09
316.369	7.72
316.743	8.23
317.117	7.89
317.491	7.99
317.865	7.57
318.239	8.38
318.613	8.19
318.987	8.29
319.361	8.28
319.734	8.06
320.108	8.47
320.482	8.44
320.855	8.89
321.229	8.93
321.602	8.59
321.976	8.62
322.349	8.3
322.723	8.54
323.096	8.53
323.469	8.17
323.843	8.91
324.216	8.4
324.589	9.29
324.962	8.53
325.335	9.02
325.708	8.98
326.081	9.48
326.454	8.91
326.827	9.66
327.2	9.25
327.573	9.35
327.945	8.71
328.318	9.18
328.691	9.39
329.063	9.13
329.436	9.36
329.809	8.48
330.181	9.29
330.553	9.39
330.926	9.78
331.298	9.2
331.671	9.73
332.043	9.53
332.415	9.43
332.787	10.56
333.159	9.77
333.532	10.13
333.904	9.69
334.276	10
334.648	10.14
335.02	10.08
335.391	9.83
335.763	10.04
336.135	10.1
336.507	10.26
336.879	10.39
337.25	10.14
337.622	10.33
337.993	10.09
338.365	10.39
338.736	10.17
339.108	10.05
339.479	10.1
339.851	10.33
340.222	10.66
340.593	9.98
340.964	9.92
341.336	10.07
341.707	10.02
342.078	10.41
342.449	10.6
342.82	10.39
343.191	10.39
343.562	10.54
343.933	10.5
344.303	10.69
344.674	11
345.045	11.08
345.416	10.46
345.786	10.5
346.157	10.81
346.527	10.71
346.898	10.55
347.268	10.97
347.639	10.82
348.009	11.22
348.38	11.2
348.75	11.3
349.12	10.78
349.49	11.12
349.861	11.86
350.231	11.52
350.601	11.4
350.971	11.37
351.341	11.42
351.711	11.4
352.081	11.37
352.45	11.73
352.82	11.81
353.19	11.48
353.56	11.38
353.929	11.43
354.299	11.64
354.669	11.81
355.038	11.47
355.408	11.88
355.777	11.59
356.147	12.04
356.516	11.77
356.885	12.01
357.254	11.76
357.624	11.72
357.993	11.6
358.362	11.98
358.731	11.99
359.1	12.11
359.469	11.96
359.838	12.05
360.207	12.16
360.576	12.04
360.945	12.05
361.314	12.18
361.682	12.15
362.051	11.99
362.42	12.1
362.788	12.3
363.157	12.28
363.525	12.2
363.894	12.23
364.262	12.01
364.631	12.89
364.999	12.3
365.367	12.83
365.735	12.15
366.104	12.45
366.472	12.7
366.84	12.69
367.208	12.12
367.576	12.59
367.944	12.91
368.312	12.5
368.68	13.01
369.048	13.02
369.416	12.9
369.783	12.88
370.151	13.4
370.519	12.56
370.886	12.85
371.254	12.74
371.621	12.67
371.989	13.09
372.356	13.19
372.724	13.17
373.091	13.15
373.458	13.14
373.826	13.26
374.193	13.65
374.56	13.24
374.927	13.29
375.294	13.9
375.661	13.58
376.028	13.69
376.395	13.45
376.762	13.7
377.129	13.51
377.496	13.6
377.863	13.84
378.229	13.37
378.596	13.76
378.963	13.43
379.329	13.61
379.696	13.67
380.062	14.3
380.429	13.85
380.795	13.79
381.161	13.99
381.528	13.57
381.894	14.24
382.26	13.78
382.626	13.75
382.993	13.75
383.359	14.23
383.725	14.1
384.091	14.26
384.457	14.31
384.823	14.37
385.188	14.14
385.554	14.24
385.92	14.37
386.286	14.49
386.651	14.27
387.017	14.43
387.383	14.29
387.748	14.42
388.114	14.65
388.479	14.47
388.845	14.78
389.21	14.76
389.575	14.53
389.94	14.7
390.306	14.53
390.671	14.7
391.036	14.84
391.401	15.28
391.766	14.7
392.131	14.73
392.496	15.1
392.861	14.75
393.226	14.72
393.591	14.9
393.956	15.03
394.32	14.52
394.685	15.33
395.05	14.78
395.414	15.06
395.779	14.92
396.143	15.18
396.508	15.52
396.872	15.48
397.236	14.94
397.601	15.67
397.965	15.18
398.329	15.49
398.694	15.43
399.058	15.37
399.422	15.63
399.786	15.52
400.15	15.71
400.514	15.65
400.878	15.43
401.242	15.97
401.605	15.63
401.969	15.82
402.333	15.66
402.697	16.06
403.06	16.1
403.424	16.26
403.787	16.03
404.151	15.84
404.514	15.9
404.878	15.98
405.241	16.16
405.604	16.03
405.968	15.85
406.331	15.96
406.694	16.28
407.057	16.48
407.42	16.34
407.783	16.46
408.146	16.56
408.509	16.24
408.872	16.48
409.235	16.56
409.598	16.68
409.961	16.72
410.323	16.47
410.686	16.48
411.049	16.5
411.411	16.66
411.774	16.49
412.136	16.59
412.499	16.77
412.861	16.59
413.223	17.03
413.586	16.78
413.948	16.87
414.31	17.06
414.672	17.03
415.035	17.04
415.397	17.11
415.759	16.82
416.121	16.94
416.483	17.34
416.845	17.11
417.206	17.14
417.568	17.04
417.93	16.99
418.292	17.21
418.653	17.18
419.015	17.1
419.377	17.23
419.738	16.98
420.1	17.16
420.461	17.07
420.822	17.13
421.184	16.99
421.545	17.08
421.906	17.15
422.267	16.9
422.629	17.15
422.99	17.12
423.351	17.29
423.712	17.31
424.073	17.46
424.434	17.44
424.795	17.29
425.155	17.21
425.516	17.28
425.877	17.41
426.238	17.33
426.598	17.72
426.959	17.65
427.32	17.77
427.68	18.06
428.041	18.01
428.401	18.04
428.761	18.15
429.122	18.08
429.482	17.98
429.842	18.23
430.202	18.23
430.563	18.23
430.923	18.3
431.283	18.26
431.643	18.39
432.003	18.39
432.363	18.56
432.722	18.51
433.082	18.61
433.442	18.64
433.802	18.64
434.161	18.31
434.521	18.65
434.881	18.48
435.24	18.39
435.6	18.63
435.959	18.65
436.319	18.58
436.678	18.84
437.037	18.87
437.396	18.87
437.756	18.97
438.115	18.87
438.474	18.95
438.833	19.01
439.192	19.01
439.551	18.92
439.91	19.09
440.269	19.17
440.628	18.95
440.987	18.95
441.345	18.85
441.704	19.12
442.063	19.03
442.421	19.01
442.78	19.21
443.138	19.17
443.497	19.18
443.855	19.4
444.214	19.42
444.572	19.56
444.93	19.42
445.288	19.45
445.647	19.55
446.005	19.52
446.363	19.36
446.721	19.3
447.079	19.44
447.437	19.22
447.795	19.29
448.153	19.37
448.51	19.43
448.868	19.57
449.226	19.67
449.584	19.71
449.941	19.94
450.299	19.87
450.656	20.18
451.014	20.03
451.371	20.12
451.729	20.18
452.086	20.15
452.443	20.09
452.801	20.29
453.158	20.35
453.515	20.18
453.872	20.38
454.229	20.31
454.586	20.41
454.943	20.45
455.3	20.64
455.657	20.4
456.014	20.53
456.371	20.65
456.727	20.63
457.084	20.73
457.441	20.51
457.797	20.92
458.154	20.72
458.51	20.72
458.867	20.58
459.223	20.73
459.58	20.78
459.936	20.94
460.292	20.83
460.648	20.51
461.005	20.42
461.361	20.48
461.717	20.63
462.073	20.86
462.429	21.1
462.785	21.09
463.141	21.33
463.496	21.23
463.852	21.59
464.208	21.4
464.564	21.42
464.919	21.2
465.275	21.47
465.631	21.67
465.986	21.55
466.342	21.65
466.697	21.69
467.052	21.73
467.408	21.48
467.763	21.45
468.118	21.58
468.473	21.72
468.829	21.69
469.184	21.84
469.539	21.64
469.894	21.84
470.249	21.94
470.603	22.03
470.958	21.85
471.313	21.89
471.668	22.02
472.023	22.24
472.377	22.09
472.732	22.33
473.086	22.02
473.441	22.29
473.795	22.36
474.15	22.12
474.504	22.1
474.859	22.3
475.213	22.3
475.567	22.43
475.921	22.63
476.275	22.6
476.63	22.38
476.984	22.47
477.338	22.78
477.692	22.31
478.045	22.6
478.399	22.44
478.753	22.63
479.107	22.58
479.461	22.79
479.814	22.71
480.168	22.74
480.521	22.84
480.875	23.03
481.228	22.84
481.582	22.62
481.935	22.8
482.289	22.79
482.642	22.8
482.995	22.72
483.348	22.67
483.701	22.72
484.055	22.44
484.408	22.27
484.761	21.73
485.114	21.59
485.466	21.85
485.819	22.2
486.172	22.54
486.525	22.77
486.878	22.83
487.23	22.99
487.583	22.9
487.936	22.83
488.288	22.51
488.641	22.47
488.993	22.36
489.345	22.51
489.698	22.74
490.05	22.89
490.402	23.2
490.754	23.31
491.107	23.48
491.459	23.61
491.811	23.56
492.163	23.44
492.515	23.05
492.866	22.63
493.218	22.82
493.57	23.17
493.922	23.54
494.274	23.73
494.625	23.93
494.977	24.03
495.328	24.18
495.68	24.18
496.031	24.38
496.383	24.33
496.734	24.41
497.086	24.02
497.437	24.4
497.788	24.27
498.139	24.17
498.49	24.16
498.842	24.26
499.193	24.37
499.544	24.47
499.894	24.63
500.245	24.51
500.596	24.67
500.947	24.73
501.298	24.76
501.648	24.87
501.999	25
502.35	24.95
502.7	25.02
503.051	25.07
503.401	25.13
503.752	25.02
504.102	25.15
504.452	25.05
504.803	25.1
505.153	25.31
505.503	24.98
505.853	25.12
506.203	25.32
506.553	25.36
506.903	25.38
507.253	25.43
507.603	25.38
507.953	25.64
508.303	25.56
508.652	25.49
509.002	25.61
509.352	25.35
509.701	25.47
510.051	25.42
510.4	25.46
510.75	25.58
511.099	25.5
511.449	25.68
511.798	25.71
512.147	25.89
512.496	25.81
512.846	25.81
513.195	25.85
513.544	25.96
513.893	25.77
514.242	25.99
514.591	25.99
514.939	26.13
515.288	26.26
515.637	26.24
515.986	26.19
516.334	26.39
516.683	26.35
517.032	26.3
517.38	26.53
517.729	26.4
518.077	26.3
518.426	26.29
518.774	26.34
519.122	26.33
519.47	26.1
519.819	25.86
520.167	26.03
520.515	26.09
520.863	26.46
521.211	26.38
521.559	26.53
521.907	26.76
522.255	26.84
522.602	26.85
522.95	26.89
523.298	26.94
523.645	26.96
523.993	27.06
524.341	27.06
524.688	27.31
525.036	27.28
525.383	27.2
525.73	27.04
526.078	26.91
526.425	26.85
526.772	26.5
527.119	26.62
527.466	26.6
527.814	26.91
528.161	27.08
528.508	26.91
528.854	26.9
529.201	26.6
529.548	26.33
529.895	25.94
530.242	26.23
530.588	26.61
530.935	26.91
531.282	27.06
531.628	27.2
531.975	27.4
532.321	27.42
532.667	27.44
533.014	27.63
533.36	27.52
533.706	27.46
534.052	27.39
534.399	26.93
534.745	26.87
535.091	27.09
535.437	27.5
535.783	27.82
536.129	27.9
536.474	28.04
536.82	28
537.166	28.04
537.512	28
537.857	27.78
538.203	27.72
538.549	28.01
538.894	28.12
539.239	28.49
539.585	28.64
539.93	28.66
540.276	28.64
540.621	28.75
540.966	28.64
541.311	28.61
541.656	28.37
542.001	28.22
542.346	27.79
542.691	27.48
543.036	27.72
543.381	28.13
543.726	28.33
544.071	28.59
544.415	28.43
544.76	28.46
545.105	28.66
545.449	28.86
545.794	28.95
546.138	29.05
546.483	29.1
546.827	29.14
547.171	29.1
547.516	29.25
547.86	28.95
548.204	28.82
548.548	29.2
548.892	29.37
549.236	29.55
549.58	29.78
549.924	29.76
550.268	30.07
550.612	29.82
550.956	29.88
551.3	30.12
551.643	30.09
551.987	29.93
552.33	30.09
552.674	30.16
553.017	30.23
553.361	30.03
553.704	29.97
554.048	30.17
554.391	30.04
554.734	30.19
555.077	30.3
555.42	30.36
555.764	30.34
556.107	30.7
556.45	30.55
556.793	30.69
557.135	30.87
557.478	30.78
557.821	30.57
558.164	30.59
558.507	30.85
558.849	30.7
559.192	31.21
559.534	30.75
559.877	30.83
560.219	31.16
560.562	31.08
560.904	31.18
561.246	31.16
561.589	31.15
561.931	31.49
562.273	31.23
562.615	31.26
562.957	31.25
563.299	31.37
563.641	31.33
563.983	31.29
564.325	31.19
564.667	31.43
565.008	31.29
565.35	31.55
565.692	31.75
566.033	31.38
566.375	31.19
566.716	31.43
567.058	31.38
567.399	31.46
567.741	31.26
568.082	31.4
568.423	31.43
568.764	31.76
569.105	31.81
569.447	31.81
569.788	32.05
570.129	31.93
570.47	31.73
570.811	31.89
571.151	31.85
571.492	32.2
571.833	32.22
572.174	32.1
572.514	31.88
572.855	32
573.195	31.85
573.536	31.89
573.876	31.98
574.217	32.14
574.557	32.2
574.898	32.1
575.238	32.28
575.578	32.44
575.918	32.32
576.258	32.23
576.598	32.37
576.938	32.52
577.278	32.43
577.618	32.56
577.958	32.77
578.298	32.91
578.638	32.66
578.977	32.84
579.317	33.13
579.657	32.9
579.996	33.16
580.336	33.04
580.675	33.03
581.014	33.29
581.354	33.4
581.693	33.43
582.032	33.18
582.372	33.23
582.711	33.53
583.05	33.49
583.389	33.66
583.728	33.21
584.067	33.6
584.406	33.56
584.745	33.53
585.083	33.56
585.422	33.52
585.761	33.86
586.1	34.02
586.438	33.77
586.777	33.5
587.115	33.83
587.454	33.93
587.792	33.93
588.13	34.19
588.469	33.99
588.807	34.22
589.145	34.48
589.483	33.8
589.821	34.26
590.159	34.01
590.497	33.99
590.835	33.94
591.173	34.36
591.511	34.04
591.849	34.26
592.187	34.44
592.524	34.52
592.862	34.45
593.2	34.56
593.537	34.47
593.875	34.59
594.212	34.5
594.55	34.59
594.887	34.54
595.224	34.37
595.561	34.52
595.899	34.48
596.236	34.51
596.573	34.57
596.91	34.59
597.247	34.69
597.584	34.66
597.921	34.5
598.258	34.49
598.594	34.3
598.931	34.35
599.268	34.71
599.604	35.18
599.941	35
600.277	35.26
600.614	35.18
600.95	35.08
601.287	35.3
601.623	35.33
601.959	35.2
602.296	35.16
602.632	35.51
602.968	35.31
603.304	35.13
603.64	35.63
603.976	35.33
604.312	35.57
604.648	35.17
604.984	35.27
605.319	35.17
605.655	35.25
605.991	35.03
606.326	34.96
606.662	35.26
606.998	35.35
607.333	35.51
607.668	35.68
608.004	35.88
608.339	35.83
608.674	35.92
609.01	36.07
609.345	36.12
609.68	36.1
610.015	36.01
610.35	35.99
610.685	35.59
611.02	35.43
611.355	35.89
611.689	35.43
612.024	36.17
612.359	36.14
612.694	36.7
613.028	36.57
613.363	36.57
613.697	36.42
614.032	36.33
614.366	36.29
614.7	36.42
615.035	36.12
615.369	36.68
615.703	36.78
616.037	36.34
616.371	36.44
616.705	36.95
617.039	36.96
617.373	36.85
617.707	36.94
618.041	37.02
618.375	36.66
618.709	37.45
619.042	36.99
619.376	36.6
619.71	37.02
620.043	36.91
620.377	37.2
620.71	37.09
621.043	36.7
621.377	37.2
621.71	37.29
622.043	37.36
622.376	37.23
622.709	37.44
623.043	37.41
623.376	37.47
623.709	37.53
624.041	37.36
624.374	37.7
624.707	36.95
625.04	37.23
625.373	37.13
625.705	37.41
626.038	37.42
626.37	37.37
626.703	37.57
627.035	37.68
627.368	37.3
627.7	37.78
628.032	37.5
628.365	37.82
628.697	37.39
629.029	37.83
629.361	37.86
629.693	38.46
630.025	38.39
630.357	38.1
630.689	37.9
631.021	37.77
631.353	38.52
631.684	37.99
632.016	37.87
632.348	38.49
632.679	37.97
633.011	38.19
633.342	38.47
633.674	37.82
634.005	38.5
634.336	38.57
634.668	38.19
634.999	38.21
635.33	38.36
635.661	37.95
635.992	38.11
636.323	38.77
636.654	38.24
636.985	38.15
637.316	38.6
637.647	38.52
637.977	38.2
638.308	38.67
638.639	38.59
638.969	38.52
639.3	38.88
639.63	38.5
639.961	38.45
640.291	39.07
640.622	38.71
640.952	38.65
641.282	38.81
641.612	38.71
641.943	39.18
642.273	38.83
642.603	38.45
642.933	39.19
643.263	39.79
643.592	38.92
643.922	38.97
644.252	39.41
644.582	39.15
644.911	39.25
645.241	39.04
645.571	39.67
645.9	39.71
646.23	38.91
646.559	39.63
646.888	38.79
647.218	39.41
647.547	39.17
647.876	39.53
648.205	39.69
648.534	39.13
648.863	40.08
649.192	39.11
649.521	39.6
649.85	39.79
650.179	39.63
650.508	39.94
650.837	39.52
651.165	39.88
651.494	39.52
651.822	39.82
652.151	40.15
652.479	39.94
652.808	39.45
653.136	39.51
653.465	40.43
653.793	39.84
654.121	39.61
654.449	39.94
654.777	40.34
655.105	40.17
655.433	40.42
655.761	39.95
656.089	40.06
656.417	40.07
656.745	40.71
657.073	40.68
657.4	40.57
657.728	40.57
658.056	40.61
658.383	40.64
658.711	39.91
659.038	40.49
659.365	40.43
659.693	40.45
660.02	39.76
660.347	40.09
660.674	39.97
661.001	40.17
661.329	40.4
661.656	40.4
661.982	40.76
662.309	41.05
662.636	40.41
662.963	40.89
663.29	41.06
663.616	40.39
663.943	41.51
664.27	41.21
664.596	40.93
664.923	40.88
665.249	41.54
665.576	40.76
665.902	40.57
666.228	40.77
666.554	41.88
666.881	41.63
667.207	41.29
667.533	41.31
667.859	41.47
668.185	41.16
668.511	40.95
668.837	41.16
669.162	41.19
669.488	41.79
669.814	41.75
670.139	41.65
670.465	41.12
