Data from 0055_crown_Reflection__4__117.txt Node

Date: Fri Dec 16 14:51:15 CST 2022
User: ToomeyLab
Spectrometer: FLMS14357
Trigger mode: 0
Integration Time (sec): 1.000000E-2
Scans to average: 100
Electric dark correction enabled: true
Nonlinearity correction enabled: false
Boxcar width: 0
XAxis mode: Wavelengths
Number of Pixels in Spectrum: 2048
>>>>>Begin Spectral Data<<<<<
189.047	106.78
189.435	106.78
189.823	106.78
190.211	16.05
190.599	-108.81
190.987	-6.17
191.375	23.46
191.763	243.44
192.151	-116.63
192.538	78.03
192.926	-97.72
193.314	204.22
193.702	-175.29
194.089	-384.97
194.477	23.01
194.864	-37.56
195.252	-101.71
195.639	241.21
196.027	-114.26
196.414	-59.67
196.801	120.42
197.189	35.19
197.576	-20.62
197.963	-394.55
198.351	21.63
198.738	-33.42
199.125	24.26
199.512	-59.09
199.899	-66.54
200.286	-48.44
200.673	11.32
201.06	39.52
201.447	16.36
201.833	-6.96
202.22	25.87
202.607	31.53
202.994	15.11
203.38	-27.62
203.767	-47.03
204.154	-16.88
204.54	27.18
204.927	15.86
205.313	16.51
205.699	7.51
206.086	-44.78
206.472	-23.39
206.858	22.29
207.245	-7.61
207.631	-40.63
208.017	34.06
208.403	15.36
208.789	2.57
209.175	36.68
209.561	-2.52
209.947	-21.63
210.333	-33.31
210.719	-5.87
211.105	2.31
211.491	-15.64
211.876	2.44
212.262	-44.25
212.648	-57.6
213.034	-4.79
213.419	6.35
213.805	2.46
214.19	-19.5
214.576	-30.66
214.961	-18.47
215.346	-28.9
215.732	-20.26
216.117	-27.76
216.502	-7.5
216.888	-24.65
217.273	-7.36
217.658	-33.53
218.043	-23.36
218.428	-1
218.813	-6.57
219.198	-39.78
219.583	-16.83
219.968	-9.51
220.353	7.56
220.738	-13.77
221.122	-0.81
221.507	-0.65
221.892	-8.62
222.276	0.19
222.661	-2.46
223.046	11.68
223.43	-9.11
223.815	11.14
224.199	5.58
224.583	-5.6
224.968	3.51
225.352	-1.04
225.736	-0.12
226.121	-4.94
226.505	1.46
226.889	2.5
227.273	3.61
227.657	2.32
228.041	1.7
228.425	5.83
228.809	2.95
229.193	3.05
229.577	2.36
229.961	2.93
230.344	2.93
230.728	2.77
231.112	2.96
231.495	2.75
231.879	1.65
232.263	1.02
232.646	2.53
233.03	0.14
233.413	1.86
233.797	4.3
234.18	1.74
234.563	3.41
234.946	-0.54
235.33	3.33
235.713	2.55
236.096	3.16
236.479	4.23
236.862	2.23
237.245	4.38
237.628	2.86
238.011	2.16
238.394	2.85
238.777	4.25
239.16	2.11
239.543	2.03
239.925	1.71
240.308	3.72
240.691	1.49
241.073	3.11
241.456	2.15
241.838	4.58
242.221	2.96
242.603	2.93
242.986	4.47
243.368	2.92
243.75	2.83
244.133	3
244.515	2.9
244.897	3.09
245.279	2.76
245.661	2.58
246.043	3.84
246.425	2.04
246.807	2.59
247.189	2.58
247.571	2.77
247.953	2.95
248.335	3.09
248.717	3.26
249.098	3.18
249.48	2.66
249.862	3.14
250.243	2.86
250.625	3.09
251.006	3.03
251.388	4.11
251.769	2.94
252.151	3.01
252.532	2.96
252.913	3.1
253.295	2.89
253.676	3.34
254.057	2.55
254.438	2.71
254.819	3.02
255.2	2.39
255.581	2.58
255.962	2.03
256.343	3.46
256.724	2.31
257.105	2.28
257.486	2.72
257.867	1.79
258.247	2.8
258.628	3.5
259.009	2.91
259.389	2.63
259.77	2.72
260.15	3.32
260.531	2.95
260.911	2.87
261.292	2.9
261.672	2.74
262.052	2.75
262.432	2.67
262.813	3.22
263.193	2.74
263.573	2.98
263.953	2.78
264.333	2.68
264.713	2.52
265.093	2.49
265.473	2.68
265.853	2.95
266.233	2.53
266.612	2.81
266.992	2.63
267.372	2.98
267.752	2.53
268.131	2.82
268.511	3.22
268.89	2.85
269.27	2.98
269.649	2.79
270.029	2.92
270.408	2.58
270.787	2.15
271.167	3.1
271.546	2.32
271.925	3.01
272.304	3.08
272.683	2.72
273.062	3.18
273.441	2.88
273.82	2.89
274.199	2.89
274.578	2.19
274.957	2.91
275.336	2.36
275.715	3.03
276.093	3.22
276.472	2.23
276.851	3.18
277.229	2.96
277.608	2.37
277.986	2.69
278.365	2.17
278.743	2.9
279.122	2.02
279.5	2.45
279.878	2.14
280.257	2.37
280.635	2.47
281.013	3.02
281.391	2.43
281.769	2.77
282.147	2.8
282.525	2.49
282.903	2.95
283.281	2.69
283.659	2.53
284.037	2.83
284.415	2.78
284.792	2.79
285.17	2.62
285.548	2.74
285.925	2.47
286.303	2.76
286.68	2.76
287.058	2.19
287.435	2.35
287.813	2.51
288.19	2.94
288.567	2.34
288.945	3.02
289.322	2.52
289.699	2.79
290.076	3.08
290.453	2.48
290.83	3.1
291.207	2.78
291.584	2.16
291.961	2.69
292.338	2.52
292.715	2.48
293.092	2.53
293.469	2.66
293.845	2.97
294.222	2.46
294.599	2.88
294.975	2.64
295.352	2.41
295.728	2.91
296.105	2.81
296.481	2.67
296.858	2.83
297.234	2.54
297.61	2.6
297.986	3.01
298.363	2.28
298.739	2.92
299.115	2.34
299.491	2.67
299.867	2.99
300.243	2.56
300.619	2.16
300.995	2.88
301.371	3.04
301.746	2.79
302.122	2.85
302.498	2.67
302.874	2.78
303.249	2.85
303.625	2.66
304	2.56
304.376	2.72
304.751	2.76
305.127	2.95
305.502	3.32
305.878	2.71
306.253	2.62
306.628	3.16
307.003	2.98
307.378	2.22
307.754	3.05
308.129	2.35
308.504	2.53
308.879	2.45
309.254	2.85
309.629	2.71
310.003	3.17
310.378	2.91
310.753	2.63
311.128	3.07
311.502	2.45
311.877	2.68
312.252	2.79
312.626	2.77
313.001	2.62
313.375	2.81
313.75	2.67
314.124	2.98
314.498	2.51
314.873	2.63
315.247	2.94
315.621	2.96
315.995	2.77
316.369	2.82
316.743	2.9
317.117	3.23
317.491	2.92
317.865	2.38
318.239	2.98
318.613	2.82
318.987	3.39
319.361	2.79
319.734	2.32
320.108	3.33
320.482	2.49
320.855	2.67
321.229	3.1
321.602	3.19
321.976	2.43
322.349	2.21
322.723	2.43
323.096	2.09
323.469	2.7
323.843	3.1
324.216	2.59
324.589	2.95
324.962	3.19
325.335	2.91
325.708	3.06
326.081	3.22
326.454	2.96
326.827	3.3
327.2	2.96
327.573	2.86
327.945	2.89
328.318	3.28
328.691	3.47
329.063	2.25
329.436	2.55
329.809	2.57
330.181	2.52
330.553	2.79
330.926	3.07
331.298	2.74
331.671	2.51
332.043	3.03
332.415	2.66
332.787	2.94
333.159	2.82
333.532	2.85
333.904	3.3
334.276	3.5
334.648	3.38
335.02	3.01
335.391	3.13
335.763	2.48
336.135	3.02
336.507	3.29
336.879	2.69
337.25	3.01
337.622	3.32
337.993	3.37
338.365	2.9
338.736	2.51
339.108	2.85
339.479	2.95
339.851	3.44
340.222	3.28
340.593	3.18
340.964	2.79
341.336	2.88
341.707	2.78
342.078	2.77
342.449	3.35
342.82	2.89
343.191	2.77
343.562	2.99
343.933	2.92
344.303	3.33
344.674	3.31
345.045	2.95
345.416	3.47
345.786	2.74
346.157	3.49
346.527	2.37
346.898	3.09
347.268	2.92
347.639	2.57
348.009	3.51
348.38	3.18
348.75	2.88
349.12	3.43
349.49	2.81
349.861	3.31
350.231	3.08
350.601	3.06
350.971	3.22
351.341	3.35
351.711	3.14
352.081	2.77
352.45	3.18
352.82	2.82
353.19	3.04
353.56	3.43
353.929	3.32
354.299	2.79
354.669	2.89
355.038	2.87
355.408	3.18
355.777	2.78
356.147	3.34
356.516	3.18
356.885	2.91
357.254	3.16
357.624	3.24
357.993	3.21
358.362	3.33
358.731	3.1
359.1	3.13
359.469	3.06
359.838	2.9
360.207	2.95
360.576	3.13
360.945	3.02
361.314	3.18
361.682	2.72
362.051	2.89
362.42	3.25
362.788	3.25
363.157	2.86
363.525	3.04
363.894	3.03
364.262	2.94
364.631	3.45
364.999	2.85
365.367	3.34
365.735	2.45
366.104	2.9
366.472	2.98
366.84	3.12
367.208	2.47
367.576	2.97
367.944	3.07
368.312	2.5
368.68	3.3
369.048	3.33
369.416	3.11
369.783	3.07
370.151	3.38
370.519	3.03
370.886	3.12
371.254	3.19
371.621	3.2
371.989	3.13
372.356	2.96
372.724	3.09
373.091	3.05
373.458	3.07
373.826	3.02
374.193	3.42
374.56	3.11
374.927	2.99
375.294	3.17
375.661	3.36
376.028	3.21
376.395	3
376.762	3.23
377.129	3.29
377.496	3.31
377.863	3.06
378.229	3.02
378.596	2.96
378.963	2.96
379.329	3.24
379.696	2.91
380.062	3.24
380.429	2.9
380.795	2.92
381.161	3.06
381.528	2.92
381.894	3.47
382.26	3.03
382.626	2.69
382.993	2.88
383.359	3
383.725	3.23
384.091	3.23
384.457	3.2
384.823	3.14
385.188	3.54
385.554	3.29
385.92	3.13
386.286	3.32
386.651	2.99
387.017	3.59
387.383	3.3
387.748	3.03
388.114	3.09
388.479	3.32
388.845	3.31
389.21	3.31
389.575	3.32
389.94	3.28
390.306	3.05
390.671	3.02
391.036	3.26
391.401	3.56
391.766	3.07
392.131	3.25
392.496	3.17
392.861	3.12
393.226	3.28
393.591	3.11
393.956	3.15
394.32	3.16
394.685	3.45
395.05	3.04
395.414	3.23
395.779	3.02
396.143	3.3
396.508	3.37
396.872	3.24
397.236	3.1
397.601	3.17
397.965	2.67
398.329	3.38
398.694	2.83
399.058	3.51
399.422	3.14
399.786	3.14
400.15	3.12
400.514	3.17
400.878	3.33
401.242	3.51
401.605	3.17
401.969	3.28
402.333	3.36
402.697	3.28
403.06	3.53
403.424	3.21
403.787	3.24
404.151	3.1
404.514	3.39
404.878	3.38
405.241	3.44
405.604	3.32
405.968	3.23
406.331	3.16
406.694	3.31
407.057	3.8
407.42	3.33
407.783	3.16
408.146	3.32
408.509	3.2
408.872	2.92
409.235	3.09
409.598	3.36
409.961	3.39
410.323	3.3
410.686	3.09
411.049	3.24
411.411	3.3
411.774	3.31
412.136	3.5
412.499	3.51
412.861	3.06
413.223	3.3
413.586	3.39
413.948	3.28
414.31	3.4
414.672	3.4
415.035	3.4
415.397	3.43
415.759	3.23
416.121	3.43
416.483	3.56
416.845	3.38
417.206	3.37
417.568	3.51
417.93	3.36
418.292	3.36
418.653	3.39
419.015	3.41
419.377	3.39
419.738	3.31
420.1	3.28
420.461	3.3
420.822	3.37
421.184	3.24
421.545	3.26
421.906	3.32
422.267	3.11
422.629	3.27
422.99	3.32
423.351	3.45
423.712	3.28
424.073	3.38
424.434	3.33
424.795	3.25
425.155	3.39
425.516	3.19
425.877	3.32
426.238	3.18
426.598	3.37
426.959	3.28
427.32	3.41
427.68	3.4
428.041	3.47
428.401	3.4
428.761	3.31
429.122	3.38
429.482	3.45
429.842	3.45
430.202	3.38
430.563	3.34
430.923	3.38
431.283	3.33
431.643	3.4
432.003	3.53
432.363	3.49
432.722	3.28
433.082	3.41
433.442	3.31
433.802	3.49
434.161	3.36
434.521	3.41
434.881	3.48
435.24	3.17
435.6	3.49
435.959	3.32
436.319	3.43
436.678	3.38
437.037	3.45
437.396	3.44
437.756	3.55
438.115	3.49
438.474	3.52
438.833	3.56
439.192	3.53
439.551	3.58
439.91	3.56
440.269	3.54
440.628	3.36
440.987	3.36
441.345	3.3
441.704	3.33
442.063	3.45
442.421	3.54
442.78	3.43
443.138	3.45
443.497	3.38
443.855	3.43
444.214	3.43
444.572	3.33
444.93	3.52
445.288	3.57
445.647	3.5
446.005	3.35
446.363	3.35
446.721	3.18
447.079	3.41
447.437	3.44
447.795	3.4
448.153	3.35
448.51	3.37
448.868	3.39
449.226	3.49
449.584	3.46
449.941	3.46
450.299	3.47
450.656	3.51
451.014	3.4
451.371	3.55
451.729	3.55
452.086	3.39
452.443	3.42
452.801	3.63
453.158	3.37
453.515	3.33
453.872	3.6
454.229	3.5
454.586	3.59
454.943	3.4
455.3	3.65
455.657	3.46
456.014	3.65
456.371	3.62
456.727	3.5
457.084	3.48
457.441	3.4
457.797	3.45
458.154	3.5
458.51	3.56
458.867	3.46
459.223	3.54
459.58	3.44
459.936	3.51
460.292	3.57
460.648	3.36
461.005	3.35
461.361	3.43
461.717	3.48
462.073	3.53
462.429	3.67
462.785	3.6
463.141	3.58
463.496	3.5
463.852	3.7
464.208	3.52
464.564	3.41
464.919	3.69
465.275	3.73
465.631	3.52
465.986	3.4
466.342	3.54
466.697	3.46
467.052	3.67
467.408	3.43
467.763	3.51
468.118	3.61
468.473	3.76
468.829	3.58
469.184	3.65
469.539	3.39
469.894	3.5
470.249	3.76
470.603	3.62
470.958	3.77
471.313	3.56
471.668	3.68
472.023	3.73
472.377	3.57
472.732	3.64
473.086	3.53
473.441	3.78
473.795	3.65
474.15	3.44
474.504	3.53
474.859	3.54
475.213	3.49
475.567	3.62
475.921	3.62
476.275	3.71
476.63	3.74
476.984	3.6
477.338	3.87
477.692	3.61
478.045	3.66
478.399	3.77
478.753	3.52
479.107	3.66
479.461	3.61
479.814	3.66
480.168	3.69
480.521	3.66
480.875	3.85
481.228	3.78
481.582	3.59
481.935	3.59
482.289	3.54
482.642	3.71
482.995	3.61
483.348	3.55
483.701	3.6
484.055	3.56
484.408	3.53
484.761	3.4
485.114	3.32
485.466	3.34
485.819	3.41
486.172	3.52
486.525	3.64
486.878	3.6
487.23	3.62
487.583	3.59
487.936	3.51
488.288	3.5
488.641	3.5
488.993	3.39
489.345	3.47
489.698	3.52
490.05	3.57
490.402	3.62
490.754	3.66
491.107	3.68
491.459	3.73
491.811	3.72
492.163	3.72
492.515	3.58
492.866	3.41
493.218	3.51
493.57	3.58
493.922	3.6
494.274	3.72
494.625	3.65
494.977	3.65
495.328	3.79
495.68	3.92
496.031	3.81
496.383	3.72
496.734	3.8
497.086	3.66
497.437	3.78
497.788	3.67
498.139	3.72
498.49	3.71
498.842	3.69
499.193	3.73
499.544	3.79
499.894	3.77
500.245	3.8
500.596	3.73
500.947	3.8
501.298	3.7
501.648	3.81
501.999	3.85
502.35	3.85
502.7	3.77
503.051	3.76
503.401	3.89
503.752	3.68
504.102	3.73
504.452	3.67
504.803	3.71
505.153	3.79
505.503	3.81
505.853	3.7
506.203	3.76
506.553	3.89
506.903	3.75
507.253	3.68
507.603	3.77
507.953	3.97
508.303	3.85
508.652	3.69
509.002	3.73
509.352	3.74
509.701	3.84
510.051	3.7
510.4	3.66
510.75	3.79
511.099	3.73
511.449	3.73
511.798	3.93
512.147	3.81
512.496	3.85
512.846	3.77
513.195	3.86
513.544	3.72
513.893	3.59
514.242	3.82
514.591	3.84
514.939	3.79
515.288	3.7
515.637	3.87
515.986	3.75
516.334	3.93
516.683	3.93
517.032	3.79
517.38	3.89
517.729	3.72
518.077	3.83
518.426	3.71
518.774	3.74
519.122	3.74
519.47	3.77
519.819	3.78
520.167	3.75
520.515	3.69
520.863	3.79
521.211	3.84
521.559	3.79
521.907	3.75
522.255	3.81
522.602	3.86
522.95	3.85
523.298	3.8
523.645	3.8
523.993	3.86
524.341	3.75
524.688	3.89
525.036	3.86
525.383	3.84
525.73	3.82
526.078	3.93
526.425	3.75
526.772	3.59
527.119	3.71
527.466	3.74
527.814	3.7
528.161	3.85
528.508	3.73
528.854	3.7
529.201	3.73
529.548	3.64
529.895	3.57
530.242	3.56
530.588	3.69
530.935	3.71
531.282	3.8
531.628	3.81
531.975	3.78
532.321	3.79
532.667	3.82
533.014	3.78
533.36	3.79
533.706	3.72
534.052	3.74
534.399	3.69
534.745	3.64
535.091	3.66
535.437	3.76
535.783	3.88
536.129	3.89
536.474	3.91
536.82	3.8
537.166	3.76
537.512	3.83
537.857	3.72
538.203	3.78
538.549	3.86
538.894	3.84
539.239	3.94
539.585	3.96
539.93	3.93
540.276	3.87
540.621	3.98
540.966	3.78
541.311	3.89
541.656	3.78
542.001	3.86
542.346	3.8
542.691	3.65
543.036	3.67
543.381	3.77
543.726	3.77
544.071	3.89
544.415	3.82
544.76	3.72
545.105	3.84
545.449	3.77
545.794	3.86
546.138	3.99
546.483	3.87
546.827	3.96
547.171	3.84
547.516	4.01
547.86	3.86
548.204	3.88
548.548	4.01
548.892	3.86
549.236	3.93
549.58	4.08
549.924	3.99
550.268	4.15
550.612	4.03
550.956	3.89
551.3	3.95
551.643	3.99
551.987	3.9
552.33	3.94
552.674	4.01
553.017	4.03
553.361	4.1
553.704	3.95
554.048	4.06
554.391	3.93
554.734	4.03
555.077	3.94
555.42	3.88
555.764	3.97
556.107	3.95
556.45	3.9
556.793	4.17
557.135	4.03
557.478	4.12
557.821	3.88
558.164	3.98
558.507	3.98
558.849	3.7
559.192	4.23
559.534	3.86
559.877	4.12
560.219	4.2
560.562	4.09
560.904	4.03
561.246	4.02
561.589	3.99
561.931	4.1
562.273	3.93
562.615	4.12
562.957	4.15
563.299	4.16
563.641	4.11
563.983	3.98
564.325	4
564.667	4
565.008	3.93
565.35	4.19
565.692	4.15
566.033	3.89
566.375	3.83
566.716	3.98
567.058	4.09
567.399	3.95
567.741	4.06
568.082	3.95
568.423	3.98
568.764	4.12
569.105	4.15
569.447	4.28
569.788	4.06
570.129	3.97
570.47	4.24
570.811	4.11
571.151	3.96
571.492	4.25
571.833	4.03
572.174	3.93
572.514	4
572.855	4.17
573.195	4
573.536	4.02
573.876	3.99
574.217	4.1
574.557	4.09
574.898	3.98
575.238	3.99
575.578	4.21
575.918	3.96
576.258	4.11
576.598	3.92
576.938	4.12
577.278	4.06
577.618	4.01
577.958	4.07
578.298	4.17
578.638	4.14
578.977	4.2
579.317	4.18
579.657	4.15
579.996	4.19
580.336	4.03
580.675	4.25
581.014	4.17
581.354	4.18
581.693	4.08
582.032	3.97
582.372	4.02
582.711	4.31
583.05	4.25
583.389	4.4
583.728	4.23
584.067	4.33
584.406	4.16
584.745	4.12
585.083	4.35
585.422	4.25
585.761	4.31
586.1	4.41
586.438	4.01
586.777	4.15
587.115	4.02
587.454	4.23
587.792	4.02
588.13	4.36
588.469	4.17
588.807	4.31
589.145	4.27
589.483	4.01
589.821	4.25
590.159	3.92
590.497	3.99
590.835	3.96
591.173	4.29
591.511	4.32
591.849	4.28
592.187	4.23
592.524	4.02
592.862	4.07
593.2	4.11
593.537	4.37
593.875	4.07
594.212	4.19
594.55	4.34
594.887	4.43
595.224	4.09
595.561	4.05
595.899	4.22
596.236	4.19
596.573	4.02
596.91	4.41
597.247	4.1
597.584	4.39
597.921	4.32
598.258	4.27
598.594	3.89
598.931	4.03
599.268	4.12
599.604	4.33
599.941	4.27
600.277	4.25
600.614	4.3
600.95	4.24
601.287	4.26
601.623	4.29
601.959	4.28
602.296	4.31
602.632	4.54
602.968	4.05
603.304	4.26
603.64	4.15
603.976	4.1
604.312	4.4
604.648	4.5
604.984	4.29
605.319	4.19
605.655	4.33
605.991	4.28
606.326	4.11
606.662	4.18
606.998	4.17
607.333	4.11
607.668	4.16
608.004	4.33
608.339	4.07
608.674	4.29
609.01	4.26
609.345	4.33
609.68	4.12
610.015	4.38
610.35	4.26
610.685	4.34
611.02	4.4
611.355	4.27
611.689	4.23
612.024	4.37
612.359	4.42
612.694	4.61
613.028	4.54
613.363	4.08
613.697	4.42
614.032	4.49
614.366	4.01
614.7	4.64
615.035	4.24
615.369	4.28
615.703	4.64
616.037	4.59
616.371	4.39
616.705	4.32
617.039	4.64
617.373	4.37
617.707	4.18
618.041	4.84
618.375	4.19
618.709	4.27
619.042	4.32
619.376	4.34
619.71	4.42
620.043	4.42
620.377	4.12
620.71	4.39
621.043	4.27
621.377	4.38
621.71	4.35
622.043	4.21
622.376	4.42
622.709	4.75
623.043	4.21
623.376	4.36
623.709	4.29
624.041	4.39
624.374	4.43
624.707	4.6
625.04	4.52
625.373	4.26
625.705	4.5
626.038	4.26
626.37	4.53
626.703	4.36
627.035	4.15
627.368	4.51
627.7	4.41
628.032	4.47
628.365	4.27
628.697	4.36
629.029	4.66
629.361	4.26
629.693	4.56
630.025	4.37
630.357	4.59
630.689	4.67
631.021	4.2
631.353	4.67
631.684	4.55
632.016	4.32
632.348	4.8
632.679	4.55
633.011	4.25
633.342	4.33
633.674	4.07
634.005	4.59
634.336	4.33
634.668	4.45
634.999	4.83
635.33	4.38
635.661	4.86
635.992	4.35
636.323	4.71
636.654	4.5
636.985	4.35
637.316	4.68
637.647	4.78
637.977	4.44
638.308	4.49
638.639	4.16
638.969	4.44
639.3	4.79
639.63	4.4
639.961	4.22
640.291	4.93
640.622	4.26
640.952	4.84
641.282	4.42
641.612	4.12
641.943	4.88
642.273	4.66
642.603	4.59
642.933	4.96
643.263	4.95
643.592	4.66
643.922	4.86
644.252	4.58
644.582	4.93
644.911	4.38
645.241	4.28
645.571	4.68
645.9	4.89
646.23	4.89
646.559	4.83
646.888	4.41
647.218	4.3
647.547	5.11
647.876	4.55
648.205	4.16
648.534	4.82
648.863	5.09
649.192	4.56
649.521	4.42
649.85	4.9
650.179	4.74
650.508	4.31
650.837	4.54
651.165	4.65
651.494	4.41
651.822	4.5
652.151	4.43
652.479	5.18
652.808	4.51
653.136	4.26
653.465	5.09
653.793	4.7
654.121	4.76
654.449	4.3
654.777	4.25
655.105	5.02
655.433	4.94
655.761	4.5
656.089	4.73
656.417	4.3
656.745	5.35
657.073	5.25
657.4	5.35
657.728	4.52
658.056	4.61
658.383	4.91
658.711	4.86
659.038	5.19
659.365	4.71
659.693	4.7
660.02	4.44
660.347	4.81
660.674	4.64
661.001	4.6
661.329	4.67
661.656	4.47
661.982	5.05
662.309	4.85
662.636	4.75
662.963	4.94
663.29	4.56
663.616	5.4
663.943	5.23
664.27	4.85
664.596	4.93
664.923	4.85
665.249	5.37
665.576	4.62
665.902	4.65
666.228	4.63
666.554	4.19
666.881	4.84
667.207	4.72
667.533	5.35
667.859	4.47
668.185	4.92
668.511	4.35
668.837	3.82
669.162	4.76
669.488	4.61
669.814	5.19
670.139	5.68
670.465	5.05
670.791	5.16
671.116	4.44
671.442	4.73
671.767	4.92
672.092	5.3
672.418	5.03
672.743	4.81
673.068	5.14
673.393	5.31
673.718	4.42
674.043	5.45
674.368	5.37
674.693	5.13
675.018	4.42
675.343	5.13
675.667	5.2
675.992	4.37
676.317	5.43
676.641	5.52
676.966	5.07
677.29	4.96
677.615	4.56
677.939	4.89
678.264	5.22
678.588	5.11
678.912	5.27
679.236	4.97
679.56	4.8
679.885	5.41
680.209	4.45
680.532	4.56
680.856	5.25
681.18	4.68
681.504	4.46
681.828	4.42
682.152	4.77
682.475	4.97
682.799	5.38
683.122	5.1
683.446	4.78
683.769	4.5
684.093	4.95
684.416	4.68
684.739	5.26
685.062	4.98
685.386	5.1
685.709	4.91
686.032	4.89
686.355	4.45
686.678	5.42
687.001	4.65
687.324	4.83
687.646	4.98
687.969	5.39
688.292	5.26
688.614	6.04
688.937	5.07
689.26	4.56
689.582	4.75
689.904	5.37
690.227	5.49
690.549	5.49
690.871	5.14
691.194	5.42
691.516	4.67
691.838	4.76
