Data from 0055_chest_Reflection__0__108.txt Node

Date: Fri Dec 16 14:49:09 CST 2022
User: ToomeyLab
Spectrometer: FLMS14357
Trigger mode: 0
Integration Time (sec): 1.000000E-2
Scans to average: 100
Electric dark correction enabled: true
Nonlinearity correction enabled: false
Boxcar width: 0
XAxis mode: Wavelengths
Number of Pixels in Spectrum: 2048
>>>>>Begin Spectral Data<<<<<
189.047	42.85
189.435	42.85
189.823	42.85
190.211	475.74
190.599	245.15
190.987	39
191.375	58.17
191.763	274.77
192.151	-110.91
192.538	102.31
192.926	177.2
193.314	36.75
193.702	463.06
194.089	-685.66
194.477	5.92
194.864	-116.31
195.252	-113.09
195.639	580.45
196.027	-76.55
196.414	54.34
196.801	-71.95
197.189	67.4
197.576	19.29
197.963	-217.42
198.351	-10.67
198.738	-6.79
199.125	50.68
199.512	2.44
199.899	-16.17
200.286	-49.64
200.673	-3.22
201.06	21.44
201.447	19.38
201.833	0.85
202.22	24.81
202.607	10.84
202.994	-18.22
203.38	-8.23
203.767	-41.97
204.154	-44.74
204.54	22.5
204.927	-22.33
205.313	22.02
205.699	12.7
206.086	-6.8
206.472	9.92
206.858	-19.77
207.245	8.58
207.631	-18.98
208.017	42.62
208.403	27.24
208.789	29.26
209.175	58.58
209.561	-13.99
209.947	-7.64
210.333	-41.04
210.719	-6.56
211.105	-47.22
211.491	17.79
211.876	23.38
212.262	-26.88
212.648	-21.41
213.034	-17.09
213.419	-3.49
213.805	-4.91
214.19	18.34
214.576	-73.33
214.961	-14.74
215.346	-62.12
215.732	-1.2
216.117	-29.59
216.502	21.49
216.888	-9.74
217.273	22.24
217.658	-18.1
218.043	-21.8
218.428	15.18
218.813	-2.02
219.198	-18.45
219.583	8.96
219.968	-6.25
220.353	4.36
220.738	-4.41
221.122	-5.76
221.507	-6.51
221.892	-0.74
222.276	13.76
222.661	-8.36
223.046	0.01
223.43	7.11
223.815	2.19
224.199	11.51
224.583	-8.14
224.968	4.81
225.352	4.21
225.736	14.77
226.121	2.59
226.505	-3.54
226.889	6.34
227.273	-1.03
227.657	-0.41
228.041	-2.66
228.425	5.01
228.809	2.48
229.193	-0.76
229.577	0.37
229.961	2.68
230.344	1.74
230.728	1.36
231.112	1.46
231.495	1.17
231.879	1.73
232.263	1.76
232.646	1.06
233.03	1.92
233.413	-0.11
233.797	4.56
234.18	-0.41
234.563	2.07
234.946	0.72
235.33	1.65
235.713	1.58
236.096	2.49
236.479	3.5
236.862	4.53
237.245	2.75
237.628	3.24
238.011	2.81
238.394	2.49
238.777	0.17
239.16	-1
239.543	-0.52
239.925	1
240.308	3.51
240.691	2.42
241.073	2.37
241.456	2.08
241.838	1.76
242.221	2.79
242.603	2.09
242.986	2.55
243.368	1.99
243.75	1.8
244.133	2.15
244.515	2.7
244.897	1.91
245.279	1.69
245.661	1.49
246.043	2.68
246.425	1.64
246.807	2.18
247.189	2.29
247.571	2.05
247.953	2.18
248.335	2.52
248.717	2.49
249.098	2.39
249.48	2.35
249.862	2.33
250.243	2.04
250.625	2.82
251.006	2.69
251.388	2.73
251.769	2.54
252.151	1.55
252.532	2.63
252.913	2.09
253.295	1.68
253.676	2.4
254.057	2.5
254.438	2.34
254.819	1.61
255.2	2.16
255.581	1.98
255.962	1.53
256.343	2.74
256.724	1.03
257.105	2.52
257.486	1.61
257.867	1.38
258.247	2.82
258.628	2.79
259.009	2.44
259.389	2.51
259.77	2.08
260.15	3.01
260.531	2.49
260.911	2.08
261.292	2.36
261.672	2.23
262.052	2.04
262.432	1.74
262.813	2.95
263.193	2.4
263.573	2.97
263.953	1.8
264.333	2.35
264.713	2.57
265.093	2.29
265.473	2.58
265.853	1.84
266.233	1.56
266.612	2.29
266.992	2.23
267.372	2.41
267.752	2.24
268.131	1.93
268.511	2.19
268.89	2.12
269.27	2.25
269.649	1.99
270.029	1.92
270.408	2.2
270.787	2.43
271.167	2.44
271.546	1.01
271.925	1.8
272.304	2.19
272.683	1.91
273.062	2.46
273.441	2.4
273.82	2.07
274.199	2.56
274.578	1.9
274.957	2.17
275.336	1.77
275.715	2.18
276.093	2.55
276.472	2.55
276.851	1.95
277.229	2.6
277.608	1.62
277.986	2.34
278.365	1.53
278.743	2.55
279.122	1.94
279.5	2.03
279.878	1.61
280.257	1.9
280.635	1.75
281.013	2.85
281.391	2.6
281.769	2.07
282.147	2.03
282.525	2.11
282.903	2.1
283.281	1.75
283.659	2
284.037	1.94
284.415	2.51
284.792	2.31
285.17	1.68
285.548	2.29
285.925	2.08
286.303	1.81
286.68	2.38
287.058	2.46
287.435	1.75
287.813	1.85
288.19	2.84
288.567	2.22
288.945	2.34
289.322	1.68
289.699	2.07
290.076	2.35
290.453	1.86
290.83	2.01
291.207	2.18
291.584	1.74
291.961	2.3
292.338	2.3
292.715	2.5
293.092	2.07
293.469	2.63
293.845	2.12
294.222	2.22
294.599	2.3
294.975	2.89
295.352	1.89
295.728	1.97
296.105	1.82
296.481	2.96
296.858	2.34
297.234	2.33
297.61	2.49
297.986	2.52
298.363	1.8
298.739	2.64
299.115	1.92
299.491	2.41
299.867	2.35
300.243	2.35
300.619	2.69
300.995	2.31
301.371	2.94
301.746	2.26
302.122	2.61
302.498	2.52
302.874	2.4
303.249	2.6
303.625	2.17
304	1.74
304.376	2.22
304.751	2.46
305.127	2.37
305.502	3.07
305.878	2.51
306.253	2.6
306.628	2.7
307.003	2.54
307.378	2.43
307.754	2.36
308.129	1.89
308.504	2.31
308.879	2.42
309.254	3.23
309.629	2.74
310.003	2.84
310.378	2.78
310.753	2.5
311.128	2.4
311.502	2.26
311.877	2.91
312.252	2.56
312.626	2.56
313.001	2.69
313.375	2.84
313.75	2.93
314.124	3.03
314.498	2.45
314.873	3.01
315.247	2.1
315.621	2.9
315.995	2.06
316.369	2.56
316.743	3.1
317.117	2.61
317.491	2.65
317.865	2.32
318.239	3.34
318.613	2.85
318.987	2.53
319.361	2.66
319.734	3.33
320.108	2.78
320.482	2.62
320.855	3.02
321.229	3.35
321.602	2.94
321.976	2.78
322.349	2.11
322.723	2.14
323.096	2.13
323.469	2.38
323.843	3.12
324.216	2.52
324.589	3.46
324.962	2.93
325.335	3
325.708	2.86
326.081	3.4
326.454	2.48
326.827	2.69
327.2	3.24
327.573	2.79
327.945	3.06
328.318	2.94
328.691	2.79
329.063	2.98
329.436	3.11
329.809	2.69
330.181	2.98
330.553	3.21
330.926	3.7
331.298	2.39
331.671	3.12
332.043	2.71
332.415	3.29
332.787	3.61
333.159	3.04
333.532	2.96
333.904	2.84
334.276	3.01
334.648	2.63
335.02	2.63
335.391	3.42
335.763	2.86
336.135	3.01
336.507	3.32
336.879	2.9
337.25	2.9
337.622	2.91
337.993	2.75
338.365	2.89
338.736	3.31
339.108	2.83
339.479	2.74
339.851	3.22
340.222	3.19
340.593	2.9
340.964	2.98
341.336	2.54
341.707	2.9
342.078	2.26
342.449	3.49
342.82	2.82
343.191	2.6
343.562	2.74
343.933	3.23
344.303	2.74
344.674	3.02
345.045	3.04
345.416	2.95
345.786	2.65
346.157	2.79
346.527	2.54
346.898	2.91
347.268	2.75
347.639	2.93
348.009	3.2
348.38	3.12
348.75	3.12
349.12	3.06
349.49	2.46
349.861	3.24
350.231	3.53
350.601	2.86
350.971	3.15
351.341	2.95
351.711	2.95
352.081	3.09
352.45	3.25
352.82	3.17
353.19	2.78
353.56	3.21
353.929	3.15
354.299	2.98
354.669	3.19
355.038	3.24
355.408	3.21
355.777	3.01
356.147	3.71
356.516	3.19
356.885	2.83
357.254	3.4
357.624	3.28
357.993	2.94
358.362	3.38
358.731	2.85
359.1	3.55
359.469	3.05
359.838	2.76
360.207	3.09
360.576	3.09
360.945	3.01
361.314	3.2
361.682	2.96
362.051	3.01
362.42	3.34
362.788	3.41
363.157	2.7
363.525	3.05
363.894	2.88
364.262	2.94
364.631	3.48
364.999	2.67
365.367	3.19
365.735	2.89
366.104	2.88
366.472	3.28
366.84	3.09
367.208	2.86
367.576	2.92
367.944	3.05
368.312	2.61
368.68	3.27
369.048	3.36
369.416	3.16
369.783	2.78
370.151	3.42
370.519	2.98
370.886	3.27
371.254	3.04
371.621	3.09
371.989	3.11
372.356	3.17
372.724	3.03
373.091	3.05
373.458	2.94
373.826	3.02
374.193	3.22
374.56	3.1
374.927	3.23
375.294	3.18
375.661	3.22
376.028	2.99
376.395	3.13
376.762	3.36
377.129	3.39
377.496	3.25
377.863	3.35
378.229	3.31
378.596	3.24
378.963	3.02
379.329	3.32
379.696	3.3
380.062	3.46
380.429	3.35
380.795	2.76
381.161	3.36
381.528	2.8
381.894	3.59
382.26	2.91
382.626	3.03
382.993	2.81
383.359	3.03
383.725	3.59
384.091	3.34
384.457	3.48
384.823	3.09
385.188	3.47
385.554	3.03
385.92	3.41
386.286	3.36
386.651	3.29
387.017	3.28
387.383	3.12
387.748	3.1
388.114	3.24
388.479	3.35
388.845	3.05
389.21	3.27
389.575	3.41
389.94	3.47
390.306	3.43
390.671	3.41
391.036	3.37
391.401	3.52
391.766	3.41
392.131	3.2
392.496	3.17
392.861	3
393.226	3.52
393.591	3.37
393.956	3.42
394.32	3.47
394.685	3.36
395.05	3.33
395.414	3.35
395.779	3.41
396.143	3.53
396.508	3.28
396.872	3.49
397.236	3.16
397.601	3.31
397.965	2.86
398.329	3.44
398.694	3.07
399.058	3.58
399.422	3.43
399.786	3.33
400.15	3.49
400.514	3.41
400.878	3.15
401.242	3.39
401.605	3.38
401.969	3.23
402.333	3.11
402.697	3.46
403.06	3.49
403.424	3.28
403.787	3.55
404.151	3.28
404.514	3.24
404.878	3.5
405.241	3.56
405.604	3.5
405.968	3.37
406.331	3.51
406.694	3.39
407.057	3.6
407.42	3.56
407.783	3.41
408.146	3.22
408.509	3.18
408.872	3.43
409.235	3.56
409.598	3.56
409.961	3.46
410.323	3.5
410.686	3.39
411.049	3.28
411.411	3.59
411.774	3.59
412.136	3.53
412.499	3.37
412.861	3.21
413.223	3.55
413.586	3.42
413.948	3.51
414.31	3.6
414.672	3.61
415.035	3.7
415.397	3.37
415.759	3.34
416.121	3.5
416.483	3.56
416.845	3.5
417.206	3.54
417.568	3.49
417.93	3.53
418.292	3.53
418.653	3.67
419.015	3.67
419.377	3.57
419.738	3.31
420.1	3.41
420.461	3.43
420.822	3.57
421.184	3.5
421.545	3.44
421.906	3.49
422.267	3.44
422.629	3.41
422.99	3.45
423.351	3.59
423.712	3.53
424.073	3.55
424.434	3.52
424.795	3.49
425.155	3.45
425.516	3.42
425.877	3.53
426.238	3.39
426.598	3.54
426.959	3.41
427.32	3.5
427.68	3.58
428.041	3.62
428.401	3.51
428.761	3.33
429.122	3.41
429.482	3.48
429.842	3.74
430.202	3.56
430.563	3.54
430.923	3.39
431.283	3.69
431.643	3.66
432.003	3.61
432.363	3.62
432.722	3.72
433.082	3.45
433.442	3.58
433.802	3.46
434.161	3.51
434.521	3.62
434.881	3.66
435.24	3.55
435.6	3.65
435.959	3.54
436.319	3.54
436.678	3.49
437.037	3.59
437.396	3.63
437.756	3.58
438.115	3.78
438.474	3.68
438.833	3.74
439.192	3.88
439.551	3.76
439.91	3.77
440.269	3.89
440.628	3.63
440.987	3.55
441.345	3.56
441.704	3.64
442.063	3.55
442.421	3.7
442.78	3.64
443.138	3.58
443.497	3.47
443.855	3.61
444.214	3.65
444.572	3.73
444.93	3.84
445.288	3.69
445.647	3.82
446.005	3.67
446.363	3.58
446.721	3.55
447.079	3.62
447.437	3.73
447.795	3.61
448.153	3.63
448.51	3.61
448.868	3.74
449.226	3.7
449.584	3.73
449.941	3.74
450.299	3.71
450.656	3.77
451.014	3.77
451.371	3.78
451.729	3.65
452.086	3.63
452.443	3.82
452.801	3.87
453.158	3.73
453.515	3.63
453.872	3.9
454.229	3.71
454.586	3.71
454.943	3.78
455.3	3.9
455.657	3.83
456.014	3.84
456.371	3.81
456.727	3.74
457.084	3.7
457.441	3.8
457.797	3.74
458.154	3.87
458.51	3.84
458.867	3.63
459.223	3.86
459.58	3.74
459.936	3.76
460.292	3.79
460.648	3.72
461.005	3.72
461.361	3.6
461.717	3.75
462.073	3.78
462.429	3.87
462.785	3.86
463.141	3.87
463.496	3.79
463.852	3.91
464.208	3.96
464.564	3.74
464.919	3.83
465.275	3.88
465.631	3.91
465.986	3.67
466.342	3.98
466.697	3.82
467.052	3.95
467.408	4.07
467.763	3.7
468.118	3.91
468.473	4
468.829	3.96
469.184	3.98
469.539	3.68
469.894	3.96
470.249	3.82
470.603	3.86
470.958	4.05
471.313	3.86
471.668	3.97
472.023	4.03
472.377	3.89
472.732	3.94
473.086	3.81
473.441	4.05
473.795	4.05
474.15	4.05
474.504	3.85
474.859	4.02
475.213	3.78
475.567	3.86
475.921	4.03
476.275	4.13
476.63	3.96
476.984	4.03
477.338	4.08
477.692	3.98
478.045	3.88
478.399	4.05
478.753	3.92
479.107	3.8
479.461	4.02
479.814	3.92
480.168	4.05
480.521	3.96
480.875	4.17
481.228	4.1
481.582	3.94
481.935	3.96
482.289	3.99
482.642	3.94
482.995	4.1
483.348	4.05
483.701	4
484.055	3.94
484.408	3.92
484.761	3.73
485.114	3.74
485.466	3.74
485.819	3.78
486.172	3.88
486.525	3.95
486.878	3.98
487.23	3.98
487.583	3.95
487.936	4.03
488.288	3.87
488.641	3.92
488.993	3.85
489.345	3.92
489.698	3.92
490.05	3.91
490.402	4.04
490.754	4.1
491.107	4.07
491.459	4.15
491.811	4.15
492.163	4.11
492.515	4.05
492.866	3.89
493.218	3.92
493.57	4
493.922	4.01
494.274	4.12
494.625	4.1
494.977	4.13
495.328	4.24
495.68	4.37
496.031	4.27
496.383	4.24
496.734	4.22
497.086	4.1
497.437	4.28
497.788	4.22
498.139	4.17
498.49	4.09
498.842	4.16
499.193	4.23
499.544	4.25
499.894	4.29
500.245	4.17
500.596	4.22
500.947	4.23
501.298	4.2
501.648	4.34
501.999	4.42
502.35	4.47
502.7	4.4
503.051	4.5
503.401	4.45
503.752	4.27
504.102	4.33
504.452	4.19
504.803	4.25
505.153	4.41
505.503	4.32
505.853	4.28
506.203	4.25
506.553	4.41
506.903	4.32
507.253	4.31
507.603	4.27
507.953	4.5
508.303	4.3
508.652	4.32
509.002	4.44
509.352	4.35
509.701	4.4
510.051	4.43
510.4	4.36
510.75	4.42
511.099	4.4
511.449	4.44
511.798	4.56
512.147	4.4
512.496	4.53
512.846	4.38
513.195	4.5
513.544	4.4
513.893	4.33
514.242	4.53
514.591	4.5
514.939	4.37
515.288	4.54
515.637	4.64
515.986	4.37
516.334	4.56
516.683	4.56
517.032	4.49
517.38	4.76
517.729	4.58
518.077	4.57
518.426	4.52
518.774	4.52
519.122	4.51
519.47	4.59
519.819	4.57
520.167	4.54
520.515	4.48
520.863	4.49
521.211	4.57
521.559	4.63
521.907	4.63
522.255	4.66
522.602	4.71
522.95	4.75
523.298	4.64
523.645	4.64
523.993	4.9
524.341	4.71
524.688	4.71
525.036	4.79
525.383	4.83
525.73	4.76
526.078	4.74
526.425	4.67
526.772	4.64
527.119	4.61
527.466	4.65
527.814	4.64
528.161	4.72
528.508	4.72
528.854	4.64
529.201	4.68
529.548	4.65
529.895	4.52
530.242	4.5
530.588	4.6
530.935	4.65
531.282	4.75
531.628	4.71
531.975	4.83
532.321	4.82
532.667	4.88
533.014	4.88
533.36	4.92
533.706	4.93
534.052	4.88
534.399	4.75
534.745	4.76
535.091	4.82
535.437	4.88
535.783	4.94
536.129	4.97
536.474	5.01
536.82	5
537.166	5.05
537.512	4.96
537.857	4.96
538.203	5.02
538.549	4.98
538.894	5.03
539.239	5.09
539.585	5.23
539.93	5.3
540.276	5.13
540.621	5.15
540.966	5.16
541.311	5.22
541.656	5.14
542.001	5.14
542.346	5.05
542.691	5.01
543.036	5.02
543.381	5.08
543.726	5.1
544.071	5.16
544.415	5.18
544.76	5.12
545.105	5.22
545.449	5.23
545.794	5.33
546.138	5.38
546.483	5.36
546.827	5.46
547.171	5.32
547.516	5.39
547.86	5.37
548.204	5.34
548.548	5.51
548.892	5.57
549.236	5.5
549.58	5.55
549.924	5.58
550.268	5.69
550.612	5.57
550.956	5.52
551.3	5.68
551.643	5.77
551.987	5.61
552.33	5.42
552.674	5.87
553.017	5.67
553.361	5.73
553.704	5.53
554.048	5.77
554.391	5.75
554.734	5.73
555.077	5.71
555.42	5.79
555.764	5.96
556.107	5.78
556.45	5.87
556.793	6.03
557.135	6.06
557.478	6.05
557.821	5.91
558.164	5.97
558.507	6.06
558.849	5.97
559.192	6.07
559.534	5.89
559.877	6.05
560.219	6.26
560.562	6.1
560.904	6.04
561.246	6.3
561.589	6.31
561.931	6.28
562.273	6.05
562.615	6.13
562.957	6.25
563.299	6.3
563.641	6.26
563.983	6.25
564.325	6.09
564.667	6.4
565.008	6.33
565.35	6.46
565.692	6.42
566.033	6.44
566.375	6.27
566.716	6.5
567.058	6.32
567.399	6.43
567.741	6.45
568.082	6.38
568.423	6.41
568.764	6.45
569.105	6.78
569.447	6.62
569.788	6.39
570.129	6.63
570.47	6.8
570.811	6.52
571.151	6.7
571.492	6.88
571.833	6.63
572.174	6.58
572.514	6.59
572.855	6.83
573.195	6.75
573.536	6.57
573.876	6.82
574.217	6.8
574.557	6.96
574.898	6.84
575.238	6.79
575.578	7.11
575.918	6.78
576.258	7.07
576.598	6.88
576.938	7.06
577.278	7.1
577.618	7.03
577.958	7.19
578.298	7.19
578.638	7.2
578.977	7.11
579.317	7.29
579.657	7.11
579.996	7.29
580.336	7.21
580.675	7.19
581.014	7.16
581.354	7.39
581.693	7.37
582.032	7.11
582.372	7.33
582.711	7.52
583.05	7.61
583.389	7.49
583.728	7.49
584.067	7.42
584.406	7.75
584.745	7.65
585.083	7.99
585.422	7.71
585.761	7.82
586.1	7.78
586.438	7.7
586.777	7.53
587.115	7.72
587.454	7.83
587.792	7.82
588.13	8.24
588.469	7.94
588.807	8.12
589.145	8.06
589.483	7.78
589.821	8.01
590.159	8.23
590.497	7.95
590.835	7.98
591.173	8.27
591.511	8.16
591.849	8.17
592.187	8.21
592.524	8
592.862	8.35
593.2	8.01
593.537	8.39
593.875	8.35
594.212	8.32
594.55	8.37
594.887	8.48
595.224	8.23
595.561	8.24
595.899	8.23
596.236	8.67
596.573	8.38
596.91	8.42
597.247	8.6
597.584	8.5
597.921	8.47
598.258	8.45
598.594	8.35
598.931	8.36
599.268	8.62
599.604	8.73
599.941	8.71
600.277	8.72
600.614	8.77
600.95	9.09
601.287	9.05
601.623	9.06
601.959	8.98
602.296	8.98
602.632	9.42
602.968	9.25
603.304	8.73
603.64	8.9
603.976	8.94
604.312	9.17
604.648	9.17
604.984	9.15
605.319	8.91
605.655	9.25
605.991	9.19
606.326	9.02
606.662	9.02
606.998	9.24
607.333	9.13
607.668	9.27
608.004	9.37
608.339	9.4
608.674	9.18
609.01	9.42
609.345	9.66
609.68	9.49
610.015	9.64
610.35	9.68
610.685	9.61
611.02	9.7
611.355	9.59
611.689	9.38
612.024	9.81
612.359	9.8
612.694	10.05
613.028	9.97
613.363	9.75
613.697	10.29
614.032	10.05
614.366	9.93
614.7	10.15
615.035	9.89
615.369	10.15
615.703	10.35
616.037	9.88
616.371	10.23
616.705	10.33
617.039	10.44
617.373	10.37
617.707	10.27
618.041	10.54
618.375	10.11
618.709	10.46
619.042	10.72
619.376	10.21
619.71	10.43
620.043	10.05
620.377	10.59
620.71	10.26
621.043	10.07
621.377	10.74
621.71	10.46
622.043	10.98
622.376	10.74
622.709	10.77
623.043	10.45
623.376	10.75
623.709	11.03
624.041	10.83
624.374	10.63
624.707	10.7
625.04	11.08
625.373	10.83
625.705	10.91
626.038	11.21
626.37	11.4
626.703	10.96
627.035	11
627.368	11.28
627.7	11.17
628.032	11
628.365	11.09
628.697	11.12
629.029	11.21
629.361	11.14
629.693	11.7
630.025	11.26
630.357	10.82
630.689	11.51
631.021	11.63
631.353	11.58
631.684	11.57
632.016	11.57
632.348	11.67
632.679	11.34
633.011	11.6
633.342	11.57
633.674	11.82
634.005	11.98
634.336	11.67
634.668	11.63
634.999	12.1
635.33	11.74
635.661	11.71
635.992	11.6
636.323	12.13
636.654	11.99
636.985	12.04
637.316	12.08
637.647	12.34
637.977	12.11
638.308	12.05
638.639	11.71
638.969	12.11
639.3	12.45
639.63	11.61
639.961	12.33
640.291	12.76
640.622	12.67
640.952	12.49
641.282	11.91
641.612	12.31
641.943	12.71
642.273	12.66
642.603	12.54
642.933	12.59
643.263	12.91
643.592	12.72
643.922	13.04
644.252	12.82
644.582	12.84
644.911	12.96
645.241	12.95
645.571	12.48
645.9	13.28
646.23	12.79
646.559	12.98
646.888	12.62
647.218	12.9
647.547	13.34
647.876	13.11
648.205	13.14
648.534	13.04
648.863	13.25
649.192	12.58
649.521	13.11
649.85	13.39
650.179	12.85
650.508	13.16
650.837	13.53
651.165	13.48
651.494	13.64
651.822	13.85
652.151	13.75
652.479	13.7
652.808	13.23
653.136	13.26
653.465	13.92
653.793	13.75
654.121	13.88
654.449	13.95
654.777	13.85
655.105	14.57
655.433	14.08
655.761	13.74
656.089	13.63
656.417	13.58
656.745	14.29
657.073	14.04
657.4	14.27
657.728	13.72
658.056	13.85
658.383	14.49
658.711	14.38
659.038	14.47
659.365	14.27
659.693	14.28
660.02	13.93
660.347	14.48
660.674	13.84
661.001	14.09
661.329	14.61
661.656	14.32
661.982	14.31
662.309	14.57
662.636	14.89
662.963	15.08
663.29	14.81
663.616	14.59
663.943	14.9
664.27	14.78
664.596	14.48
664.923	15.06
665.249	14.82
665.576	14.85
665.902	15.28
666.228	14.81
666.554	14.51
666.881	15.08
667.207	14.67
667.533	15.67
667.859	14.81
668.185	14.8
668.511	14.96
668.837	14.68
669.162	15.68
669.488	15.04
669.814	15.56
670.139	15.04
670.465	15.91
670.791	15.4
671.116	15.7
671.442	15.9
671.767	15.55
672.092	15.34
672.418	15.65
672.743	15.48
673.068	15.22
673.393	15.78
673.718	15.46
674.043	15.73
674.368	16.25
674.693	15.89
675.018	15.85
675.343	16.01
675.667	16
675.992	15.72
676.317	15.58
676.641	15.62
676.966	15.96
677.29	16.18
677.615	16.64
677.939	15.95
678.264	16.52
678.588	16.26
678.912	16.06
679.236	15.89
679.56	15.65
679.885	16.34
680.209	16.1
680.532	16.66
680.856	17.14
681.18	16.34
681.504	16.1
681.828	16.38
682.152	16.93
682.475	16.61
682.799	17.07
683.122	16.39
683.446	15.8
683.769	16.52
684.093	17.34
684.416	16.71
684.739	17.31
685.062	17
685.386	17.04
685.709	16.35
686.032	17.04
686.355	17.37
686.678	16.76
687.001	16.98
687.324	16.58
