Data from 0055_chest_Reflection__4__112.txt Node

Date: Fri Dec 16 14:49:51 CST 2022
User: ToomeyLab
Spectrometer: FLMS14357
Trigger mode: 0
Integration Time (sec): 1.000000E-2
Scans to average: 100
Electric dark correction enabled: true
Nonlinearity correction enabled: false
Boxcar width: 0
XAxis mode: Wavelengths
Number of Pixels in Spectrum: 2048
>>>>>Begin Spectral Data<<<<<
189.047	129.7
189.435	129.7
189.823	129.7
190.211	373.89
190.599	-135.75
190.987	16.31
191.375	-92.31
191.763	145.49
192.151	-44.16
192.538	34.39
192.926	-70.35
193.314	144.58
193.702	-13.76
194.089	-320.63
194.477	108.23
194.864	-23.64
195.252	-15.86
195.639	143.89
196.027	306.96
196.414	-3.87
196.801	-267.25
197.189	75.3
197.576	67.41
197.963	40.4
198.351	48.96
198.738	-22.48
199.125	58.47
199.512	29.76
199.899	-5.09
200.286	-48.56
200.673	5.12
201.06	27.12
201.447	45.22
201.833	17.05
202.22	52.38
202.607	-0.41
202.994	18.01
203.38	18.17
203.767	19.14
204.154	-27.73
204.54	39.17
204.927	14.29
205.313	39.15
205.699	30.93
206.086	2.79
206.472	15.52
206.858	22.07
207.245	3.35
207.631	-0.19
208.017	41.58
208.403	3.22
208.789	39.05
209.175	27.95
209.561	30.79
209.947	51.63
210.333	-18.3
210.719	-6.24
211.105	-17.43
211.491	-10.64
211.876	-5.96
212.262	-7.01
212.648	2.67
213.034	6.78
213.419	17.86
213.805	15.95
214.19	5.44
214.576	11.45
214.961	-23.76
215.346	-0.74
215.732	0.44
216.117	8.82
216.502	-9.27
216.888	-4.79
217.273	24.86
217.658	7.9
218.043	2.21
218.428	18.95
218.813	9.67
219.198	-38.71
219.583	9.95
219.968	2.45
220.353	9.33
220.738	-15.68
221.122	-18.6
221.507	5.19
221.892	9.64
222.276	4
222.661	-2.58
223.046	0.32
223.43	-5.25
223.815	1.52
224.199	4.72
224.583	-1
224.968	7.41
225.352	6.58
225.736	4.22
226.121	-1.89
226.505	7.31
226.889	13.6
227.273	8.19
227.657	6.43
228.041	6.26
228.425	7.88
228.809	4.17
229.193	3.63
229.577	4.39
229.961	3.82
230.344	4.52
230.728	4.5
231.112	3.04
231.495	3.12
231.879	5.39
232.263	2.47
232.646	3.81
233.03	3.24
233.413	2.73
233.797	4.73
234.18	4.28
234.563	3.31
234.946	3.84
235.33	4.48
235.713	5.6
236.096	4.6
236.479	5.57
236.862	3.57
237.245	4.31
237.628	5.42
238.011	3.19
238.394	6.3
238.777	4.63
239.16	0.93
239.543	2.7
239.925	4.41
240.308	3.46
240.691	4.13
241.073	5.22
241.456	4.17
241.838	4.19
242.221	4.09
242.603	4.52
242.986	5.37
243.368	4.61
243.75	3.96
244.133	4.39
244.515	4.21
244.897	3.92
245.279	3.19
245.661	4.41
246.043	4.54
246.425	3.49
246.807	4.17
247.189	3.84
247.571	4.58
247.953	4.2
248.335	4.3
248.717	4.05
249.098	4.12
249.48	3.83
249.862	4.25
250.243	3.97
250.625	3.97
251.006	4.65
251.388	4.17
251.769	4.81
252.151	4.23
252.532	4.27
252.913	4.57
253.295	4.4
253.676	4.69
254.057	3.9
254.438	3.74
254.819	5.02
255.2	4.44
255.581	3.99
255.962	3.92
256.343	4.63
256.724	4.27
257.105	4.09
257.486	4.41
257.867	2.96
258.247	3.68
258.628	4.86
259.009	4.1
259.389	4.31
259.77	3.74
260.15	4.79
260.531	4
260.911	3.91
261.292	4.06
261.672	3.72
262.052	3.93
262.432	3.61
262.813	4.04
263.193	3.74
263.573	4.2
263.953	3.97
264.333	3.85
264.713	3.56
265.093	3.15
265.473	4.96
265.853	3.77
266.233	3.7
266.612	4.44
266.992	3.39
267.372	3.91
267.752	3.09
268.131	3.81
268.511	4.2
268.89	4.25
269.27	4.22
269.649	4.23
270.029	3.99
270.408	3.73
270.787	3.37
271.167	4.03
271.546	3.28
271.925	3.67
272.304	3.84
272.683	3.69
273.062	4.18
273.441	3.8
273.82	4.15
274.199	3.88
274.578	3.52
274.957	3.94
275.336	3.71
275.715	3.84
276.093	4.18
276.472	3.66
276.851	4.01
277.229	4.36
277.608	3.69
277.986	4.34
278.365	3.6
278.743	3.78
279.122	3.63
279.5	3.24
279.878	3.31
280.257	4.54
280.635	3.19
281.013	4.47
281.391	3.9
281.769	3.62
282.147	3.99
282.525	3.85
282.903	3.53
283.281	3.85
283.659	3.87
284.037	4.16
284.415	3.74
284.792	3.89
285.17	3.5
285.548	3.53
285.925	3.89
286.303	3.72
286.68	3.83
287.058	3.78
287.435	3.75
287.813	3.94
288.19	4.05
288.567	3.7
288.945	4
289.322	3.37
289.699	4.09
290.076	4
290.453	3.69
290.83	3.92
291.207	3.99
291.584	3.55
291.961	4.08
292.338	4.16
292.715	3.61
293.092	3.45
293.469	4
293.845	4.08
294.222	3.96
294.599	4.25
294.975	4.37
295.352	4.31
295.728	3.96
296.105	3.78
296.481	4.56
296.858	4.28
297.234	3.96
297.61	4.23
297.986	4.11
298.363	3.66
298.739	4.52
299.115	3.73
299.491	3.86
299.867	4.25
300.243	3.78
300.619	3.92
300.995	4
301.371	4.05
301.746	3.95
302.122	4.18
302.498	4.26
302.874	4.46
303.249	4.71
303.625	4.62
304	4.05
304.376	4.45
304.751	3.94
305.127	4.24
305.502	4.6
305.878	4.01
306.253	4.44
306.628	4.21
307.003	4.37
307.378	3.78
307.754	4.75
308.129	4.12
308.504	4.38
308.879	4.5
309.254	4.38
309.629	4.15
310.003	4.55
310.378	4.31
310.753	4.65
311.128	4.65
311.502	4.56
311.877	4.37
312.252	4.75
312.626	4.46
313.001	4.15
313.375	4.28
313.75	4.54
314.124	4.51
314.498	4.08
314.873	4.11
315.247	3.95
315.621	4.44
315.995	4.28
316.369	4.71
316.743	5.16
317.117	4.3
317.491	4.59
317.865	4.19
318.239	4.51
318.613	4.26
318.987	4.81
319.361	4.68
319.734	4.73
320.108	4.98
320.482	4.46
320.855	4.37
321.229	5.14
321.602	4.65
321.976	4.41
322.349	4.38
322.723	4.29
323.096	4.48
323.469	4.4
323.843	4.32
324.216	4.37
324.589	5.24
324.962	4.83
325.335	4.9
325.708	4.6
326.081	5.17
326.454	4.47
326.827	4.57
327.2	5.19
327.573	4.79
327.945	4.97
328.318	4.77
328.691	4.82
329.063	4.28
329.436	4.93
329.809	4.31
330.181	4.58
330.553	5.17
330.926	5.31
331.298	4.87
331.671	4.85
332.043	4.6
332.415	5.16
332.787	5.16
333.159	5.15
333.532	5.11
333.904	4.86
334.276	4.9
334.648	5.17
335.02	4.72
335.391	5.01
335.763	4.47
336.135	5.08
336.507	5.37
336.879	4.95
337.25	5.2
337.622	4.74
337.993	5.12
338.365	5.23
338.736	4.92
339.108	4.64
339.479	4.61
339.851	5.04
340.222	5.21
340.593	5.03
340.964	4.94
341.336	4.67
341.707	4.96
342.078	4.61
342.449	5.01
342.82	4.94
343.191	4.43
343.562	4.95
343.933	5.22
344.303	4.86
344.674	4.89
345.045	5.23
345.416	4.93
345.786	4.78
346.157	5.18
346.527	4.7
346.898	4.94
347.268	4.54
347.639	4.93
348.009	5.01
348.38	4.73
348.75	4.82
349.12	5.32
349.49	4.9
349.861	5.44
350.231	4.81
350.601	5.29
350.971	4.73
351.341	5.02
351.711	5.04
352.081	4.85
352.45	5.09
352.82	5.08
353.19	4.91
353.56	4.83
353.929	5.11
354.299	4.93
354.669	5.4
355.038	5.25
355.408	5.23
355.777	5.17
356.147	5.05
356.516	5.45
356.885	4.91
357.254	5.32
357.624	5.27
357.993	4.96
358.362	5.18
358.731	4.81
359.1	5.35
359.469	5.04
359.838	4.68
360.207	4.93
360.576	5.14
360.945	5.04
361.314	5.29
361.682	4.81
362.051	4.9
362.42	5.42
362.788	5.18
363.157	5.1
363.525	4.97
363.894	4.8
364.262	4.99
364.631	5.61
364.999	4.85
365.367	5.36
365.735	4.82
366.104	4.57
366.472	5.17
366.84	4.93
367.208	4.99
367.576	5.03
367.944	5
368.312	4.8
368.68	5.18
369.048	5.24
369.416	5.12
369.783	5.25
370.151	5.5
370.519	5.22
370.886	4.96
371.254	5.31
371.621	5.02
371.989	5.3
372.356	5.19
372.724	5.38
373.091	5.07
373.458	5.22
373.826	4.95
374.193	5.39
374.56	4.96
374.927	5.2
375.294	5.42
375.661	5.15
376.028	5.29
376.395	5.02
376.762	5.49
377.129	5.55
377.496	5.32
377.863	5.18
378.229	5.2
378.596	5.22
378.963	5.11
379.329	5.07
379.696	5.06
380.062	5.5
380.429	5.29
380.795	4.93
381.161	5.13
381.528	4.74
381.894	5.12
382.26	5.07
382.626	5.18
382.993	4.93
383.359	5.08
383.725	5.61
384.091	5.37
384.457	5.21
384.823	5.14
385.188	5.13
385.554	5.3
385.92	5.53
386.286	5.49
386.651	5.42
387.017	5.47
387.383	5.19
387.748	5.06
388.114	5.35
388.479	5.61
388.845	5.41
389.21	5.42
389.575	5.48
389.94	5.37
390.306	5.27
390.671	5.27
391.036	5.62
391.401	5.58
391.766	5.46
392.131	5.38
392.496	5.33
392.861	5.29
393.226	5.33
393.591	5.45
393.956	5.29
394.32	5.09
394.685	5.45
395.05	5.28
395.414	5.42
395.779	5.33
396.143	5.46
396.508	5.49
396.872	5.6
397.236	5.24
397.601	5.64
397.965	4.98
398.329	5.28
398.694	5.36
399.058	5.3
399.422	5.66
399.786	5.31
400.15	5.36
400.514	5.42
400.878	5.38
401.242	5.57
401.605	5.59
401.969	5.61
402.333	5.36
402.697	5.67
403.06	5.68
403.424	5.55
403.787	5.94
404.151	5.51
404.514	5.7
404.878	5.39
405.241	5.74
405.604	5.51
405.968	5.53
406.331	5.52
406.694	5.52
407.057	5.91
407.42	5.63
407.783	5.65
408.146	5.55
408.509	5.47
408.872	5.45
409.235	5.78
409.598	5.73
409.961	5.82
410.323	5.8
410.686	5.55
411.049	5.58
411.411	5.5
411.774	5.58
412.136	5.75
412.499	5.39
412.861	5.3
413.223	5.64
413.586	5.3
413.948	5.52
414.31	5.52
414.672	5.51
415.035	5.67
415.397	5.73
415.759	5.49
416.121	5.64
416.483	5.82
416.845	5.84
417.206	5.77
417.568	5.91
417.93	5.61
418.292	5.66
418.653	5.84
419.015	5.8
419.377	5.83
419.738	5.76
420.1	5.66
420.461	5.65
420.822	5.59
421.184	5.62
421.545	5.69
421.906	5.61
422.267	5.58
422.629	5.65
422.99	5.58
423.351	5.63
423.712	5.63
424.073	5.71
424.434	5.61
424.795	5.67
425.155	5.67
425.516	5.61
425.877	5.74
426.238	5.46
426.598	5.77
426.959	5.6
427.32	5.62
427.68	5.77
428.041	5.82
428.401	5.72
428.761	5.68
429.122	5.75
429.482	5.68
429.842	5.95
430.202	5.82
430.563	5.84
430.923	5.89
431.283	6.07
431.643	5.77
432.003	5.83
432.363	5.91
432.722	6.02
433.082	5.89
433.442	5.83
433.802	5.81
434.161	5.89
434.521	5.84
434.881	5.98
435.24	5.79
435.6	5.9
435.959	5.63
436.319	5.88
436.678	5.82
437.037	5.92
437.396	6.02
437.756	5.95
438.115	5.99
438.474	5.93
438.833	6.11
439.192	6.07
439.551	6
439.91	5.96
440.269	6.03
440.628	5.94
440.987	5.97
441.345	5.82
441.704	5.96
442.063	5.95
442.421	5.95
442.78	5.9
443.138	5.87
443.497	5.82
443.855	6.03
444.214	5.98
444.572	5.94
444.93	5.98
445.288	5.93
445.647	6.24
446.005	5.92
446.363	6.02
446.721	5.83
447.079	6.09
447.437	5.98
447.795	5.98
448.153	6.02
448.51	5.9
448.868	6.09
449.226	6.06
449.584	5.97
449.941	6.08
450.299	5.99
450.656	5.97
451.014	6.07
451.371	6.11
451.729	6.11
452.086	5.99
452.443	6.15
452.801	6.15
453.158	6.26
453.515	6.21
453.872	6.23
454.229	6.02
454.586	6.16
454.943	6.13
455.3	6.13
455.657	6.17
456.014	6.29
456.371	6.29
456.727	6.06
457.084	6
457.441	6.07
457.797	6.28
458.154	6.27
458.51	6.23
458.867	6.13
459.223	6.3
459.58	6.14
459.936	6.24
460.292	6.35
460.648	6.13
461.005	6.17
461.361	6.13
461.717	6.19
462.073	6.21
462.429	6.12
462.785	6.16
463.141	6.23
463.496	6.21
463.852	6.36
464.208	6.3
464.564	6.19
464.919	6.2
465.275	6.44
465.631	6.3
465.986	6.29
466.342	6.3
466.697	6.37
467.052	6.35
467.408	6.36
467.763	6.31
468.118	6.35
468.473	6.43
468.829	6.51
469.184	6.47
469.539	6.2
469.894	6.33
470.249	6.37
470.603	6.47
470.958	6.45
471.313	6.5
471.668	6.54
472.023	6.51
472.377	6.43
472.732	6.35
473.086	6.32
473.441	6.55
473.795	6.57
474.15	6.44
474.504	6.49
474.859	6.66
475.213	6.51
475.567	6.37
475.921	6.61
476.275	6.55
476.63	6.49
476.984	6.5
477.338	6.77
477.692	6.61
478.045	6.49
478.399	6.64
478.753	6.44
479.107	6.44
479.461	6.72
479.814	6.53
480.168	6.47
480.521	6.6
480.875	6.55
481.228	6.64
481.582	6.56
481.935	6.55
482.289	6.54
482.642	6.7
482.995	6.61
483.348	6.66
483.701	6.56
484.055	6.52
484.408	6.63
484.761	6.39
485.114	6.37
485.466	6.34
485.819	6.3
486.172	6.29
486.525	6.29
486.878	6.39
487.23	6.47
487.583	6.53
487.936	6.63
488.288	6.55
488.641	6.52
488.993	6.45
489.345	6.47
489.698	6.51
490.05	6.46
490.402	6.51
490.754	6.57
491.107	6.68
491.459	6.7
491.811	6.69
492.163	6.88
492.515	6.72
492.866	6.62
493.218	6.61
493.57	6.62
493.922	6.52
494.274	6.62
494.625	6.63
494.977	6.68
495.328	6.78
495.68	6.94
496.031	6.93
496.383	6.82
496.734	7.09
497.086	6.88
497.437	7.06
497.788	7.04
498.139	6.95
498.49	6.97
498.842	6.93
499.193	6.91
499.544	7.05
499.894	7
500.245	6.92
500.596	6.92
500.947	7.08
501.298	6.96
501.648	7.18
501.999	7.17
502.35	7.2
502.7	7.19
503.051	7.28
503.401	7.22
503.752	7.07
504.102	7.23
504.452	7.09
504.803	7.06
505.153	7.27
505.503	7.19
505.853	7.16
506.203	7.2
506.553	7.22
506.903	7.22
507.253	7.28
507.603	7.16
507.953	7.39
508.303	7.22
508.652	7.21
509.002	7.26
509.352	7.29
509.701	7.36
510.051	7.32
510.4	7.35
510.75	7.37
511.099	7.28
511.449	7.26
511.798	7.42
512.147	7.35
512.496	7.45
512.846	7.37
513.195	7.4
513.544	7.37
513.893	7.25
514.242	7.57
514.591	7.48
514.939	7.38
515.288	7.47
515.637	7.57
515.986	7.45
516.334	7.61
516.683	7.53
517.032	7.51
517.38	7.53
517.729	7.48
518.077	7.55
518.426	7.62
518.774	7.7
519.122	7.58
519.47	7.7
519.819	7.63
520.167	7.6
520.515	7.55
520.863	7.57
521.211	7.61
521.559	7.57
521.907	7.68
522.255	7.77
522.602	7.66
522.95	7.86
523.298	7.81
523.645	7.67
523.993	7.89
524.341	7.9
524.688	7.92
525.036	7.99
525.383	7.86
525.73	8.03
526.078	7.96
526.425	7.89
526.772	7.74
527.119	7.95
527.466	7.9
527.814	7.83
528.161	7.93
528.508	7.94
528.854	7.91
529.201	7.9
529.548	7.89
529.895	7.78
530.242	7.75
530.588	7.75
530.935	7.7
531.282	7.76
531.628	7.84
531.975	7.9
532.321	7.97
532.667	7.99
533.014	8.14
533.36	8.1
533.706	8.22
534.052	8.14
534.399	8.14
534.745	8.09
535.091	8.12
535.437	8.03
535.783	8.17
536.129	8.12
536.474	8.22
536.82	8.19
537.166	8.22
537.512	8.29
537.857	8.36
538.203	8.36
538.549	8.41
538.894	8.35
539.239	8.49
539.585	8.46
539.93	8.57
540.276	8.42
540.621	8.47
540.966	8.56
541.311	8.72
541.656	8.62
542.001	8.63
542.346	8.59
542.691	8.55
543.036	8.5
543.381	8.51
543.726	8.49
544.071	8.56
544.415	8.53
544.76	8.56
545.105	8.59
545.449	8.72
545.794	8.74
546.138	8.97
546.483	8.73
546.827	8.93
547.171	8.94
547.516	9.02
547.86	8.87
548.204	9.02
548.548	9.13
548.892	9.07
549.236	9.11
549.58	9.1
549.924	9.16
550.268	9.08
550.612	9.2
550.956	9.09
551.3	9.19
551.643	9.3
551.987	9.33
552.33	9.43
552.674	9.31
553.017	9.34
553.361	9.41
553.704	9.4
554.048	9.46
554.391	9.44
554.734	9.41
555.077	9.42
555.42	9.44
555.764	9.44
556.107	9.49
556.45	9.46
556.793	9.72
557.135	9.65
557.478	9.8
557.821	9.53
558.164	9.62
558.507	9.59
558.849	9.62
559.192	10.01
559.534	9.66
559.877	9.89
560.219	10.02
560.562	10.01
560.904	9.75
561.246	10.18
561.589	9.93
561.931	10.16
562.273	10.03
562.615	10.14
562.957	10.09
563.299	10.1
563.641	10.26
563.983	10.25
564.325	10.07
564.667	10.14
565.008	10.15
565.35	10.3
565.692	10.5
566.033	10.44
566.375	10.29
566.716	10.51
567.058	10.5
567.399	10.59
567.741	10.66
568.082	10.26
568.423	10.46
568.764	10.6
569.105	10.53
569.447	10.4
569.788	10.59
570.129	10.39
570.47	10.77
570.811	10.73
571.151	10.7
571.492	10.79
571.833	10.67
572.174	10.78
572.514	10.63
572.855	10.95
573.195	10.96
573.536	10.87
573.876	10.94
574.217	10.83
574.557	10.98
574.898	10.95
575.238	11.14
575.578	11.11
575.918	11.1
576.258	11.06
576.598	11.22
576.938	11.42
577.278	11.16
577.618	11.23
577.958	11.33
578.298	11.43
578.638	11.27
578.977	11.18
579.317	11.39
579.657	11.4
579.996	11.12
580.336	11.46
580.675	11.66
581.014	11.53
581.354	11.78
581.693	11.55
582.032	11.59
582.372	11.67
582.711	11.9
583.05	12.03
583.389	11.96
583.728	11.99
584.067	11.79
584.406	12.23
584.745	12.1
585.083	12.29
585.422	12.09
585.761	12.22
586.1	12.29
586.438	12.2
586.777	12
587.115	12.15
587.454	12.24
587.792	11.87
588.13	12.48
588.469	12.47
588.807	12.46
589.145	12.58
589.483	12.28
589.821	12.6
590.159	12.43
590.497	12.42
590.835	12.46
591.173	12.56
591.511	12.59
591.849	12.69
592.187	12.49
592.524	12.7
592.862	12.56
593.2	12.71
593.537	12.66
593.875	12.9
594.212	12.75
594.55	12.77
594.887	13.03
595.224	12.96
595.561	13.14
595.899	12.99
596.236	13.14
596.573	12.91
596.91	13.28
597.247	13.11
597.584	13.11
597.921	13.21
598.258	13.17
598.594	13.04
598.931	13.1
599.268	13.18
599.604	13.36
599.941	13.19
600.277	13.43
600.614	13.51
600.95	13.63
601.287	13.62
601.623	13.67
601.959	13.44
602.296	13.58
602.632	13.73
602.968	13.87
603.304	13.51
603.64	13.98
603.976	13.7
604.312	14.17
604.648	13.89
604.984	13.8
605.319	13.93
605.655	14.13
605.991	14.03
606.326	13.88
606.662	13.9
606.998	14
607.333	13.98
607.668	13.98
608.004	14.11
608.339	14.11
608.674	14.43
609.01	14.33
609.345	14.5
609.68	14.2
610.015	14.28
610.35	14.37
610.685	14.7
611.02	14.64
611.355	14.46
611.689	14.24
612.024	14.89
612.359	14.63
612.694	14.93
613.028	15.09
613.363	14.45
613.697	14.85
614.032	14.74
614.366	15
614.7	15.13
615.035	14.78
615.369	15.19
615.703	15.38
616.037	15.02
616.371	15.24
616.705	15.09
617.039	15.35
617.373	15
617.707	15.48
618.041	15.59
618.375	15.4
618.709	15.49
619.042	15.48
619.376	15.25
619.71	15.24
620.043	15.47
620.377	15.66
620.71	15.55
621.043	15.51
621.377	15.58
621.71	16.08
622.043	15.84
622.376	15.74
622.709	16.08
623.043	15.69
623.376	16.07
623.709	16.16
624.041	15.99
624.374	16.21
624.707	16.08
625.04	16.38
625.373	16.38
625.705	16.1
626.038	16.19
626.37	16.33
626.703	16.22
627.035	16.2
627.368	16.48
627.7	16.45
628.032	16.3
628.365	16.31
628.697	16.35
629.029	16.75
629.361	16.75
629.693	16.71
630.025	16.76
630.357	16.53
630.689	16.95
631.021	17.01
631.353	16.6
631.684	16.93
632.016	16.52
632.348	16.8
632.679	16.8
633.011	17.03
633.342	16.85
633.674	16.58
634.005	16.82
634.336	17.08
634.668	17.02
634.999	17.25
635.33	17.19
635.661	17.27
635.992	17.19
636.323	17.48
636.654	17.59
636.985	17.27
637.316	17.62
637.647	17.49
637.977	17.82
638.308	17.4
638.639	17.47
638.969	17.58
639.3	17.73
639.63	17.28
639.961	17.31
640.291	18.19
640.622	17.72
640.952	17.71
641.282	17.39
641.612	17.73
641.943	18.27
642.273	17.93
642.603	17.82
642.933	17.7
643.263	18.72
643.592	17.86
643.922	18.44
644.252	18.22
644.582	18.24
644.911	18.35
645.241	18.71
645.571	18.21
645.9	18.87
646.23	18.16
646.559	18.53
646.888	18.24
647.218	18.86
647.547	18.74
647.876	18.79
648.205	18.23
648.534	18.84
648.863	18.95
649.192	18.93
649.521	18.58
649.85	19.01
650.179	18.48
650.508	18.94
650.837	19.27
651.165	19.24
651.494	19.08
651.822	18.9
652.151	19.12
652.479	19.47
652.808	19.11
653.136	19.61
653.465	19.4
653.793	19.71
654.121	19.55
654.449	19.51
654.777	19.08
655.105	19.64
655.433	19.54
655.761	19.2
656.089	19.69
656.417	19.4
656.745	19.96
657.073	20.06
657.4	19.94
657.728	19.74
658.056	20.02
658.383	19.89
658.711	19.66
659.038	20.01
659.365	20.03
659.693	20.16
660.02	19.77
660.347	20.26
660.674	19.94
661.001	19.98
661.329	20.25
661.656	20.22
661.982	20.13
662.309	20.44
662.636	19.99
662.963	20.52
663.29	20.43
663.616	19.46
663.943	20.75
664.27	20.39
664.596	20.55
664.923	20.86
665.249	20.48
665.576	20.53
665.902	21.22
666.228	20.45
666.554	20.84
666.881	20.69
667.207	20.98
667.533	21.17
667.859	21.3
668.185	21.32
668.511	20.58
668.837	20.77
669.162	20.97
669.488	21.2
669.814	21.23
670.139	21.82
670.465	21.49
670.791	21.06
671.116	21.76
671.442	21.93
671.767	21.33
672.092	21.33
672.418	21.37
672.743	21.5
673.068	21.69
673.393	21.34
673.718	21.5
674.043	21.66
674.368	22.03
674.693	22.3
675.018	22.05
675.343	22.1
675.667	21.37
675.992	21.5
676.317	21.63
676.641	22.22
676.966	22.66
677.29	21.82
677.615	22.18
677.939	21.72
678.264	22.39
678.588	22.07
678.912	22.2
679.236	22.34
679.56	21.9
679.885	22.31
680.209	22
680.532	22.2
680.856	23.07
681.18	22.34
681.504	22.38
681.828	22.01
682.152	22.58
682.475	22.41
682.799	22.97
683.122	22.77
683.446	22.56
683.769	22.81
684.093	23.35
684.416	21.54
684.739	22.87
