Data from 0055_forehead_Reflection__2__120.txt Node

Date: Fri Dec 16 14:52:04 CST 2022
User: ToomeyLab
Spectrometer: FLMS14357
Trigger mode: 0
Integration Time (sec): 1.000000E-2
Scans to average: 100
Electric dark correction enabled: true
Nonlinearity correction enabled: false
Boxcar width: 0
XAxis mode: Wavelengths
Number of Pixels in Spectrum: 2048
>>>>>Begin Spectral Data<<<<<
189.047	108.82
189.435	108.82
189.823	108.82
190.211	249.91
190.599	99.48
190.987	28.56
191.375	-92.85
191.763	187.65
192.151	-40.7
192.538	1.33
192.926	7.76
193.314	83.55
193.702	25.59
194.089	37.84
194.477	-122.99
194.864	-106.77
195.252	88.54
195.639	357.6
196.027	71.91
196.414	84.01
196.801	-406.22
197.189	99.78
197.576	79.27
197.963	-439.22
198.351	43.78
198.738	7.35
199.125	64.24
199.512	28.56
199.899	80.8
200.286	-8.32
200.673	79.1
201.06	27.3
201.447	43.72
201.833	4.78
202.22	16.79
202.607	69.8
202.994	-2.12
203.38	21.1
203.767	10.48
204.154	-10.13
204.54	35.15
204.927	19.74
205.313	30.74
205.699	60.76
206.086	57.15
206.472	24.4
206.858	53.94
207.245	18.84
207.631	16.13
208.017	53.94
208.403	13.51
208.789	47.26
209.175	34.07
209.561	44.5
209.947	-11.9
210.333	5.25
210.719	1.25
211.105	-3.11
211.491	28.92
211.876	24.2
212.262	4.19
212.648	21.66
213.034	23.38
213.419	35.48
213.805	11.23
214.19	34.79
214.576	7.87
214.961	3.03
215.346	-3.74
215.732	27.54
216.117	29.95
216.502	-5.88
216.888	5.73
217.273	44.71
217.658	16.39
218.043	22.08
218.428	32.02
218.813	5.98
219.198	-26.04
219.583	13.66
219.968	-3.29
220.353	17.68
220.738	12.54
221.122	-8.92
221.507	-7.09
221.892	21.1
222.276	19.18
222.661	-4.93
223.046	5.06
223.43	2.6
223.815	3.39
224.199	12.31
224.583	-1.6
224.968	13.49
225.352	3.77
225.736	11.15
226.121	1.36
226.505	3.31
226.889	14.4
227.273	6.54
227.657	3.9
228.041	8.72
228.425	7.56
228.809	6.13
229.193	3.94
229.577	3.59
229.961	3.44
230.344	3.3
230.728	3.48
231.112	2.72
231.495	2.71
231.879	1.8
232.263	1.65
232.646	3.69
233.03	1.51
233.413	4.21
233.797	5.55
234.18	3.34
234.563	3.9
234.946	2.88
235.33	3.57
235.713	3.03
236.096	3.59
236.479	4.52
236.862	4.03
237.245	4.42
237.628	4.06
238.011	3.11
238.394	6.04
238.777	4.78
239.16	3.3
239.543	1.93
239.925	3.02
240.308	4.57
240.691	3.73
241.073	4.68
241.456	2.32
241.838	2.17
242.221	3.65
242.603	3.54
242.986	4.91
243.368	3.68
243.75	2.97
244.133	3.58
244.515	3.63
244.897	3.45
245.279	3.73
245.661	4.39
246.043	4.09
246.425	3.61
246.807	4.52
247.189	3.7
247.571	3.76
247.953	3.5
248.335	3.74
248.717	3.58
249.098	3.71
249.48	3.6
249.862	3.74
250.243	3.75
250.625	3.57
251.006	4.35
251.388	3.74
251.769	4.43
252.151	4.76
252.532	3.82
252.913	4.13
253.295	3.8
253.676	4.09
254.057	3.53
254.438	3.31
254.819	3.68
255.2	3.12
255.581	3.36
255.962	4.02
256.343	4.66
256.724	3.87
257.105	3.37
257.486	3.79
257.867	3.95
258.247	3.2
258.628	4.11
259.009	3.76
259.389	4.24
259.77	3.53
260.15	4.32
260.531	3.96
260.911	3.62
261.292	3.47
261.672	3.39
262.052	3.51
262.432	3.32
262.813	3.96
263.193	3.86
263.573	3.79
263.953	4.14
264.333	3.58
264.713	3.48
265.093	3.38
265.473	4.63
265.853	4.19
266.233	3.43
266.612	4.46
266.992	4.53
267.372	3.07
267.752	3.67
268.131	4.09
268.511	3.34
268.89	3.94
269.27	3.77
269.649	4.3
270.029	3.6
270.408	3.55
270.787	3.16
271.167	4.01
271.546	3.62
271.925	3.73
272.304	4.21
272.683	3.62
273.062	3.67
273.441	3.52
273.82	3.77
274.199	3.62
274.578	3.38
274.957	3.49
275.336	3.13
275.715	3.92
276.093	4.08
276.472	3.95
276.851	3.28
277.229	3.73
277.608	3.8
277.986	3.52
278.365	3.38
278.743	3.37
279.122	3.17
279.5	3.12
279.878	3
280.257	3.76
280.635	3.53
281.013	3.77
281.391	3.71
281.769	3.4
282.147	3.81
282.525	3.26
282.903	3.78
283.281	3.52
283.659	3.7
284.037	3.36
284.415	3.46
284.792	3.57
285.17	3.71
285.548	3.54
285.925	3.27
286.303	3.38
286.68	3.86
287.058	3.6
287.435	3.43
287.813	3.59
288.19	4.25
288.567	3.75
288.945	3.34
289.322	3.68
289.699	3.88
290.076	3.97
290.453	3.54
290.83	3.77
291.207	3.78
291.584	3.68
291.961	3.73
292.338	4.15
292.715	4.18
293.092	4.24
293.469	4.28
293.845	4.25
294.222	3.62
294.599	3.97
294.975	4.41
295.352	3.96
295.728	4.32
296.105	4.06
296.481	4.62
296.858	4.38
297.234	4.51
297.61	4.61
297.986	4.42
298.363	4.16
298.739	4.4
299.115	4.11
299.491	4.21
299.867	4.51
300.243	4.33
300.619	4.69
300.995	4.52
301.371	5.24
301.746	4.54
302.122	4.58
302.498	5.06
302.874	5.14
303.249	4.95
303.625	4.61
304	4.66
304.376	5.13
304.751	5.12
305.127	5.56
305.502	5.45
305.878	5.24
306.253	5.13
306.628	5.59
307.003	5.68
307.378	4.82
307.754	5.55
308.129	5.16
308.504	5.58
308.879	5.46
309.254	5.75
309.629	5.87
310.003	5.68
310.378	5.54
310.753	6.14
311.128	5.82
311.502	5.72
311.877	5.93
312.252	5.75
312.626	5.41
313.001	5.77
313.375	6.09
313.75	6.29
314.124	6.73
314.498	6.4
314.873	6.17
315.247	6.6
315.621	6.96
315.995	6.58
316.369	7.09
316.743	6.54
317.117	7.17
317.491	6.99
317.865	6.66
318.239	7.16
318.613	7.23
318.987	6.94
319.361	6.94
319.734	7.26
320.108	7.48
320.482	7.71
320.855	7.11
321.229	7.99
321.602	7.62
321.976	7.36
322.349	7.14
322.723	7.39
323.096	7.19
323.469	7.38
323.843	7.68
324.216	7.35
324.589	8.09
324.962	8.1
325.335	7.59
325.708	7.91
326.081	8.21
326.454	7.92
326.827	8.79
327.2	8.58
327.573	7.98
327.945	8.12
328.318	8.46
328.691	8.52
329.063	8.01
329.436	7.85
329.809	7.76
330.181	8.49
330.553	8.71
330.926	8.61
331.298	8.4
331.671	7.97
332.043	9.17
332.415	8.8
332.787	9.51
333.159	8.92
333.532	8.78
333.904	9.47
334.276	9.04
334.648	9.06
335.02	8.75
335.391	9.33
335.763	9.02
336.135	9.36
336.507	9.26
336.879	8.75
337.25	9.14
337.622	8.87
337.993	9.31
338.365	9.7
338.736	9.14
339.108	9.51
339.479	9.65
339.851	9.85
340.222	9.54
340.593	9.08
340.964	10.14
341.336	9.66
341.707	9.45
342.078	9.63
342.449	10.22
342.82	9.34
343.191	9.54
343.562	10.13
343.933	9.94
344.303	9.87
344.674	10.04
345.045	10.54
345.416	10.4
345.786	9.75
346.157	10.07
346.527	10.17
346.898	10.38
347.268	9.87
347.639	10.03
348.009	10.62
348.38	10.35
348.75	10.5
349.12	10.64
349.49	10.63
349.861	10.87
350.231	10.41
350.601	10.5
350.971	10.31
351.341	10.82
351.711	10.72
352.081	11.06
352.45	10.92
352.82	10.52
353.19	11.04
353.56	10.84
353.929	10.67
354.299	10.78
354.669	11.08
355.038	11
355.408	11.35
355.777	11.22
356.147	11.78
356.516	11.43
356.885	11.14
357.254	11.68
357.624	11.4
357.993	11.09
358.362	11.76
358.731	11.29
359.1	11.32
359.469	11.51
359.838	11.57
360.207	11.43
360.576	11.43
360.945	11.86
361.314	11.71
361.682	11.88
362.051	11.62
362.42	11.93
362.788	11.8
363.157	11.7
363.525	11.85
363.894	11.49
364.262	11.79
364.631	12.42
364.999	11.99
365.367	12.31
365.735	12.14
366.104	12
366.472	12.38
366.84	12.38
367.208	12.01
367.576	12.3
367.944	12.81
368.312	12.31
368.68	12.44
369.048	12.58
369.416	12.77
369.783	12.67
370.151	12.93
370.519	12.57
370.886	12.76
371.254	12.47
371.621	13
371.989	13.09
372.356	13.23
372.724	12.84
373.091	13.04
373.458	12.99
373.826	12.97
374.193	13.87
374.56	13.32
374.927	13.37
375.294	13.73
375.661	13.52
376.028	13.81
376.395	13.74
376.762	13.91
377.129	13.7
377.496	13.41
377.863	13.77
378.229	13.52
378.596	13.76
378.963	13.47
379.329	13.61
379.696	14.03
380.062	14.12
380.429	14.33
380.795	13.89
381.161	14.22
381.528	14.01
381.894	14.07
382.26	14.13
382.626	14.38
382.993	14.1
383.359	14.35
383.725	14.35
384.091	14.35
384.457	14.5
384.823	14.48
385.188	14.55
385.554	14.42
385.92	14.55
386.286	14.66
386.651	14.59
387.017	14.86
387.383	14.85
387.748	15.05
388.114	14.92
388.479	14.9
388.845	14.85
389.21	15.4
389.575	14.98
389.94	15.23
390.306	15.23
390.671	15.19
391.036	15.38
391.401	15.41
391.766	15.2
392.131	15.29
392.496	15.2
392.861	15.36
393.226	15.57
393.591	15.44
393.956	15.54
394.32	15.53
394.685	15.72
395.05	15.56
395.414	15.71
395.779	15.82
396.143	15.91
396.508	16.02
396.872	15.78
397.236	15.41
397.601	16.17
397.965	16.04
398.329	16.1
398.694	15.81
399.058	16.19
399.422	16.39
399.786	16.12
400.15	16.49
400.514	16.37
400.878	16.13
401.242	16.54
401.605	16.6
401.969	16.47
402.333	16.58
402.697	16.99
403.06	16.85
403.424	16.77
403.787	17.1
404.151	16.86
404.514	16.79
404.878	16.96
405.241	17.08
405.604	17.04
405.968	16.93
406.331	16.95
406.694	17.25
407.057	17.38
407.42	17.12
407.783	17.32
408.146	17.41
408.509	17.19
408.872	17.4
409.235	17.51
409.598	17.8
409.961	17.65
410.323	17.66
410.686	17.54
411.049	17.63
411.411	17.87
411.774	17.83
412.136	17.9
412.499	17.83
412.861	17.85
413.223	17.8
413.586	17.98
413.948	18.27
414.31	18.04
414.672	18.09
415.035	18.24
415.397	18.41
415.759	18.45
416.121	18.41
416.483	18.51
416.845	18.38
417.206	18.44
417.568	18.5
417.93	18.26
418.292	18.33
418.653	18.41
419.015	18.6
419.377	18.52
419.738	18.41
420.1	18.32
420.461	18.47
420.822	18.53
421.184	18.41
421.545	18.55
421.906	18.7
422.267	18.45
422.629	18.53
422.99	18.51
423.351	18.67
423.712	18.76
424.073	18.81
424.434	18.88
424.795	18.94
425.155	18.96
425.516	18.82
425.877	18.86
426.238	18.89
426.598	19.07
426.959	19.06
427.32	19.32
427.68	19.44
428.041	19.54
428.401	19.48
428.761	19.65
429.122	19.92
429.482	19.89
429.842	20.07
430.202	20
430.563	19.95
430.923	20.07
431.283	20.09
431.643	20.08
432.003	20.34
432.363	20.29
432.722	20.31
433.082	20.25
433.442	20.37
433.802	20.41
434.161	20.45
434.521	20.21
434.881	20.36
435.24	20.21
435.6	20.26
435.959	20.48
436.319	20.54
436.678	20.84
437.037	20.85
437.396	20.7
437.756	21.04
438.115	20.96
438.474	21.01
438.833	21.12
439.192	21.14
439.551	21.09
439.91	21.13
440.269	21.03
440.628	21.09
440.987	21.1
441.345	20.94
441.704	21.22
442.063	21.01
442.421	21.07
442.78	21.19
443.138	21.24
443.497	21.3
443.855	21.46
444.214	21.44
444.572	21.63
444.93	21.61
445.288	21.7
445.647	21.95
446.005	21.69
446.363	21.84
446.721	21.65
447.079	21.59
447.437	21.66
447.795	21.52
448.153	21.67
448.51	21.69
448.868	21.85
449.226	21.93
449.584	21.91
449.941	22.24
450.299	22.12
450.656	22.3
451.014	22.57
451.371	22.69
451.729	22.62
452.086	22.57
452.443	22.61
452.801	22.79
453.158	22.92
453.515	22.84
453.872	22.92
454.229	22.81
454.586	22.84
454.943	22.97
455.3	23.17
455.657	23.11
456.014	23.09
456.371	23.21
456.727	23.34
457.084	23.29
457.441	23.24
457.797	23.4
458.154	23.33
458.51	23.45
458.867	23.5
459.223	23.68
459.58	23.44
459.936	23.66
460.292	23.6
460.648	23.37
461.005	23.27
461.361	23.28
461.717	23.28
462.073	23.47
462.429	23.64
462.785	23.69
463.141	24
463.496	23.96
463.852	24.08
464.208	24.21
464.564	24.17
464.919	24.22
465.275	24.39
465.631	24.35
465.986	24.27
466.342	24.56
466.697	24.59
467.052	24.57
467.408	24.43
467.763	24.53
468.118	24.76
468.473	24.89
468.829	24.64
469.184	24.72
469.539	24.77
469.894	24.84
470.249	25.03
470.603	25.05
470.958	24.95
471.313	25.06
471.668	25.29
472.023	25.41
472.377	25.4
472.732	25.23
473.086	25.34
473.441	25.39
473.795	25.7
474.15	25.54
474.504	25.65
474.859	25.66
475.213	25.68
475.567	25.46
475.921	25.75
476.275	25.82
476.63	25.91
476.984	25.8
477.338	26.04
477.692	25.91
478.045	25.79
478.399	25.89
478.753	25.81
479.107	26.04
479.461	25.99
479.814	26.01
480.168	26.16
480.521	26.05
480.875	26.32
481.228	26.25
481.582	26.02
481.935	26.19
482.289	26.17
482.642	26.25
482.995	26.17
483.348	26.05
483.701	26.21
484.055	25.98
484.408	25.8
484.761	25.52
485.114	25.34
485.466	25.4
485.819	25.33
486.172	25.6
486.525	25.69
486.878	25.77
487.23	26.06
487.583	26.12
487.936	26.34
488.288	26.11
488.641	26.05
488.993	25.9
489.345	26
489.698	26.1
490.05	26.19
490.402	26.33
490.754	26.52
491.107	26.71
491.459	26.97
491.811	27.08
492.163	27.27
492.515	26.92
492.866	26.61
493.218	26.65
493.57	26.71
493.922	26.8
494.274	27
494.625	27.13
494.977	27.41
495.328	27.56
495.68	27.94
496.031	28.02
496.383	27.99
496.734	28.27
497.086	28.03
497.437	28.05
497.788	28.21
498.139	28.15
498.49	28.06
498.842	28.1
499.193	28.1
499.544	28.27
499.894	28.27
500.245	28.44
500.596	28.41
500.947	28.51
501.298	28.53
501.648	28.62
501.999	28.86
502.35	28.92
502.7	28.89
503.051	29.09
503.401	28.84
503.752	29.07
504.102	29.12
504.452	28.94
504.803	29.06
505.153	29.19
505.503	29.16
505.853	29.2
506.203	29.23
506.553	29.23
506.903	29.27
507.253	29.6
507.603	29.43
507.953	29.55
508.303	29.48
508.652	29.62
509.002	29.6
509.352	29.59
509.701	29.56
510.051	29.56
510.4	29.57
510.75	29.72
511.099	29.56
511.449	29.67
511.798	29.96
512.147	29.79
512.496	29.98
512.846	29.78
513.195	29.94
513.544	29.97
513.893	29.98
514.242	30.2
514.591	29.84
514.939	30.3
515.288	30.33
515.637	30.3
515.986	30.4
516.334	30.43
516.683	30.55
517.032	30.51
517.38	30.76
517.729	30.62
518.077	30.61
518.426	30.65
518.774	30.66
519.122	30.7
519.47	30.47
519.819	30.49
520.167	30.26
520.515	30.43
520.863	30.49
521.211	30.53
521.559	30.74
521.907	30.93
522.255	30.99
522.602	31.17
522.95	31.23
523.298	31.55
523.645	31.23
523.993	31.44
524.341	31.39
524.688	31.5
525.036	31.61
525.383	31.62
525.73	31.68
526.078	31.56
526.425	31.5
526.772	31.15
527.119	31.19
527.466	31.19
527.814	31.29
528.161	31.07
528.508	31.22
528.854	31.22
529.201	31.2
529.548	30.93
529.895	30.78
530.242	30.95
530.588	30.88
530.935	30.82
531.282	31.07
531.628	31.17
531.975	31.45
532.321	31.57
532.667	31.66
533.014	31.85
533.36	31.93
533.706	31.9
534.052	31.96
534.399	31.76
534.745	31.67
535.091	31.71
535.437	31.76
535.783	32
536.129	31.93
536.474	32.24
536.82	32.48
537.166	32.45
537.512	32.35
537.857	32.57
538.203	32.49
538.549	32.41
538.894	32.45
539.239	32.8
539.585	32.86
539.93	33.14
540.276	33.32
540.621	33.37
540.966	33.26
541.311	33.34
541.656	33.25
542.001	33.06
542.346	32.78
542.691	32.71
543.036	32.44
543.381	32.64
543.726	32.71
544.071	32.93
544.415	33.02
544.76	32.95
545.105	33.22
545.449	33.32
545.794	33.47
546.138	33.69
546.483	33.78
546.827	34.03
547.171	33.71
547.516	33.74
547.86	33.92
548.204	33.86
548.548	33.93
548.892	33.85
549.236	34.15
549.58	34.28
549.924	34.25
550.268	34.58
550.612	34.66
550.956	34.71
551.3	35.04
551.643	35.09
551.987	34.91
552.33	35.13
552.674	35.01
553.017	35.17
553.361	35.16
553.704	35.01
554.048	35.17
554.391	34.95
554.734	35.26
555.077	35.27
555.42	35.22
555.764	35.21
556.107	35.35
556.45	35.47
556.793	35.74
557.135	35.43
557.478	35.74
557.821	35.61
558.164	35.63
558.507	35.73
558.849	35.89
559.192	36.19
559.534	36
559.877	36.04
560.219	36.13
560.562	36.07
560.904	36.19
561.246	36.1
561.589	36.38
561.931	36.43
562.273	36.14
562.615	36.36
562.957	36.26
563.299	36.36
563.641	36.41
563.983	36.36
564.325	36.18
564.667	36.34
565.008	36.74
565.35	36.73
565.692	36.51
566.033	36.88
566.375	36.53
566.716	36.85
567.058	36.76
567.399	36.82
567.741	36.69
568.082	36.65
568.423	36.75
568.764	36.89
569.105	36.73
569.447	36.93
569.788	37.22
570.129	36.99
570.47	36.99
570.811	37.19
571.151	36.94
571.492	37.36
571.833	37.2
572.174	37.2
572.514	37.18
572.855	37.53
573.195	37.37
573.536	37.12
573.876	37.09
574.217	37.38
574.557	37.53
574.898	37.17
575.238	37.42
575.578	37.71
575.918	37.4
576.258	38.02
576.598	37.79
576.938	37.82
577.278	37.82
577.618	37.94
577.958	38.02
578.298	38.11
578.638	38.07
578.977	38.07
579.317	38.2
579.657	38.05
579.996	38.25
580.336	38.48
580.675	38.95
581.014	38.49
581.354	38.53
581.693	38.81
582.032	38.76
582.372	38.66
582.711	38.83
583.05	39.05
583.389	39
583.728	39.13
584.067	38.7
584.406	39.08
584.745	38.96
585.083	39.21
585.422	38.96
585.761	38.9
586.1	39.35
586.438	39.46
586.777	39.24
587.115	39.31
587.454	39.45
587.792	39.15
588.13	39.59
588.469	39.68
588.807	39.66
589.145	39.73
589.483	39.56
589.821	39.67
590.159	39.63
590.497	39.27
590.835	39.22
591.173	39.58
591.511	39.63
591.849	39.6
592.187	39.77
592.524	39.82
592.862	39.82
593.2	39.56
593.537	39.82
593.875	39.93
594.212	39.66
594.55	40.22
594.887	40.02
595.224	40.18
595.561	40.39
595.899	40.07
596.236	40.22
596.573	39.95
596.91	40.4
597.247	40.35
597.584	40.25
597.921	40.45
598.258	40.16
598.594	39.91
598.931	40.01
599.268	40.08
599.604	40.24
599.941	40.05
600.277	40.49
600.614	40.39
600.95	40.68
601.287	40.66
601.623	40.63
601.959	41.1
602.296	40.81
602.632	40.9
602.968	40.95
603.304	40.82
603.64	41.19
603.976	40.9
604.312	41.09
604.648	41.15
604.984	41.29
605.319	41.13
605.655	41.05
605.991	40.9
606.326	40.59
606.662	40.92
606.998	40.97
607.333	40.82
607.668	41.22
608.004	41.3
608.339	41.42
608.674	41.47
609.01	41.51
609.345	41.59
609.68	41.5
610.015	41.61
610.35	41.55
610.685	41.51
611.02	41.48
611.355	41.59
611.689	41.44
612.024	41.71
612.359	42.05
612.694	42.06
613.028	42.09
613.363	41.9
613.697	42.49
614.032	42.28
614.366	41.99
614.7	42.77
615.035	41.95
615.369	42.44
615.703	42.63
616.037	42.37
616.371	42.21
616.705	42.39
617.039	42.51
617.373	42.72
617.707	42.13
618.041	42.78
618.375	42.45
618.709	43.02
619.042	42.93
619.376	42.63
619.71	42.9
620.043	42.6
620.377	42.66
620.71	42.71
621.043	42.57
621.377	42.98
621.71	42.92
622.043	43.23
622.376	42.82
622.709	43.07
623.043	43.13
623.376	43.38
623.709	42.98
624.041	43.34
624.374	43.67
624.707	43
625.04	43.35
625.373	43.26
625.705	43.08
626.038	43.17
626.37	43.64
626.703	43.32
627.035	43.65
627.368	43.86
627.7	43.69
628.032	43.68
628.365	43.34
628.697	43.42
629.029	43.82
629.361	43.52
629.693	43.9
630.025	44.01
630.357	43.6
630.689	43.67
631.021	43.57
631.353	44.35
631.684	44.21
632.016	43.96
632.348	43.84
632.679	44.08
633.011	43.95
633.342	43.87
633.674	44.14
634.005	44.42
634.336	43.72
634.668	44.53
634.999	44.07
635.33	44.24
635.661	44.25
635.992	44.53
636.323	44.57
636.654	44.07
636.985	44.3
637.316	45.16
637.647	44.88
637.977	44.66
638.308	44.92
638.639	44.84
638.969	44.84
639.3	44.53
639.63	44.55
639.961	44.73
640.291	45.23
640.622	45.45
640.952	44.97
641.282	44.73
641.612	44.32
641.943	45.39
642.273	44.63
642.603	44.45
642.933	45.37
643.263	45.75
643.592	44.81
643.922	45.08
644.252	44.93
644.582	45
644.911	44.94
645.241	45.29
645.571	45.28
645.9	45.82
646.23	45.38
646.559	45.22
646.888	45.29
647.218	46
647.547	45.08
647.876	45.36
648.205	45.69
648.534	45.72
648.863	45.86
649.192	45.44
649.521	45.43
649.85	45.83
650.179	45.14
650.508	45.35
650.837	46.32
651.165	45.96
651.494	45.78
651.822	46.35
652.151	45.97
652.479	45.93
652.808	45.67
653.136	45.96
653.465	45.95
653.793	45.59
654.121	45.89
654.449	46.42
654.777	46.48
655.105	46.15
655.433	46.28
655.761	46.52
656.089	46.26
656.417	46.01
656.745	47.03
657.073	47.07
657.4	46.84
657.728	46.16
658.056	46.64
658.383	46.58
658.711	46.47
659.038	46.64
659.365	46.41
659.693	46.53
660.02	46.3
660.347	46.57
660.674	46.4
661.001	46.22
661.329	46.65
661.656	46.19
661.982	46.46
662.309	46.69
662.636	46.8
662.963	46.57
663.29	47.28
663.616	46.86
663.943	47.33
664.27	47.68
664.596	46.74
664.923	46.67
665.249	47.34
665.576	47.37
665.902	47.33
666.228	46.92
666.554	46.61
666.881	47.54
667.207	47.38
667.533	48.29
667.859	47.3
668.185	47.46
668.511	47.71
668.837	46.62
669.162	47.11
669.488	47.6
669.814	48.17
670.139	48.06
670.465	47.55
670.791	47.93
671.116	47.71
