Data from 0055_crown_Reflection__2__115.txt Node

Date: Fri Dec 16 14:50:57 CST 2022
User: ToomeyLab
Spectrometer: FLMS14357
Trigger mode: 0
Integration Time (sec): 1.000000E-2
Scans to average: 100
Electric dark correction enabled: true
Nonlinearity correction enabled: false
Boxcar width: 0
XAxis mode: Wavelengths
Number of Pixels in Spectrum: 2048
>>>>>Begin Spectral Data<<<<<
189.047	228.6
189.435	228.6
189.823	228.6
190.211	271.22
190.599	162.09
190.987	-19.89
191.375	55.13
191.763	23.19
192.151	91.59
192.538	1.89
192.926	0.47
193.314	133.77
193.702	122.48
194.089	102.19
194.477	43.2
194.864	-165.08
195.252	9.95
195.639	291.21
196.027	-26.46
196.414	-40.47
196.801	-570.42
197.189	146.99
197.576	103.14
197.963	-93.36
198.351	5.38
198.738	-47.11
199.125	27.64
199.512	-6.02
199.899	-40.26
200.286	-77.95
200.673	-10.32
201.06	20.2
201.447	30.63
201.833	-5.01
202.22	11.92
202.607	6.54
202.994	-2.44
203.38	-14.53
203.767	7.75
204.154	-66.63
204.54	13.92
204.927	22.92
205.313	11.83
205.699	-9.38
206.086	-1.71
206.472	12.13
206.858	17.15
207.245	-1.16
207.631	25.18
208.017	22.1
208.403	45.47
208.789	39.83
209.175	34.67
209.561	0.18
209.947	-11.5
210.333	-34.96
210.719	2.34
211.105	-8.86
211.491	-1.26
211.876	31.63
212.262	-2.22
212.648	-50.06
213.034	-15.69
213.419	28.79
213.805	15.49
214.19	-20.43
214.576	-33.2
214.961	-5.69
215.346	-45.33
215.732	14.29
216.117	-8.22
216.502	-25.71
216.888	-36.55
217.273	31.24
217.658	-13.73
218.043	-0.57
218.428	29.29
218.813	-20.01
219.198	-16.24
219.583	-6.38
219.968	3.83
220.353	-3.33
220.738	-17.86
221.122	3.21
221.507	-0.53
221.892	9.99
222.276	-3.55
222.661	-2.41
223.046	9.5
223.43	5.74
223.815	9.17
224.199	7.91
224.583	7.96
224.968	4.26
225.352	-4.39
225.736	12.38
226.121	-1.56
226.505	9.94
226.889	13.78
227.273	7.6
227.657	6.79
228.041	11.32
228.425	10.96
228.809	7.87
229.193	6.89
229.577	8.73
229.961	7.75
230.344	8.45
230.728	8.14
231.112	7.87
231.495	7.48
231.879	7.01
232.263	6.49
232.646	6.26
233.03	6.1
233.413	5.45
233.797	8.48
234.18	6.61
234.563	7.16
234.946	8.34
235.33	8.18
235.713	6.2
236.096	7.42
236.479	7.87
236.862	7.47
237.245	8.5
237.628	6.95
238.011	5.79
238.394	8.87
238.777	7.03
239.16	5.57
239.543	6.74
239.925	8.86
240.308	7.44
240.691	6.94
241.073	7.04
241.456	6.25
241.838	6.96
242.221	7.46
242.603	7.45
242.986	8.27
243.368	7.19
243.75	6.91
244.133	7.56
244.515	7.66
244.897	6.66
245.279	7.01
245.661	6.65
246.043	7.61
246.425	7.15
246.807	6.5
247.189	7.1
247.571	7.35
247.953	7
248.335	6.93
248.717	6.91
249.098	6.98
249.48	6.74
249.862	6.86
250.243	7.17
250.625	6.92
251.006	6.11
251.388	7.67
251.769	6.2
252.151	6.63
252.532	6.94
252.913	7.64
253.295	6.96
253.676	7
254.057	6.69
254.438	5.93
254.819	6.05
255.2	6.61
255.581	6.2
255.962	7.04
256.343	7.08
256.724	6.55
257.105	6.65
257.486	6.97
257.867	5.79
258.247	6.77
258.628	6.96
259.009	6.52
259.389	6.38
259.77	6.06
260.15	6.83
260.531	7.01
260.911	6.48
261.292	6.49
261.672	6.24
262.052	6.33
262.432	6.24
262.813	6.71
263.193	6.25
263.573	6.09
263.953	6.36
264.333	6.31
264.713	6.09
265.093	6.12
265.473	7.46
265.853	5.58
266.233	5.89
266.612	6.64
266.992	6.4
267.372	6.15
267.752	6.26
268.131	6.25
268.511	6.19
268.89	6.71
269.27	6.32
269.649	6.84
270.029	6.05
270.408	5.61
270.787	6
271.167	6.57
271.546	5.79
271.925	6.03
272.304	6.45
272.683	6.08
273.062	6.35
273.441	6.08
273.82	6.51
274.199	6.02
274.578	5.72
274.957	6
275.336	5.86
275.715	5.93
276.093	6.32
276.472	5.68
276.851	6.2
277.229	6.4
277.608	5.89
277.986	6.56
278.365	5.78
278.743	5.92
279.122	5.35
279.5	6.04
279.878	5.57
280.257	5.72
280.635	5.18
281.013	5.9
281.391	5.3
281.769	5.72
282.147	6.07
282.525	5.9
282.903	6.12
283.281	6.57
283.659	6.06
284.037	5.74
284.415	6.1
284.792	6.11
285.17	5.83
285.548	5.78
285.925	5.99
286.303	5.54
286.68	6.12
287.058	5.73
287.435	5.73
287.813	6.16
288.19	6.06
288.567	5.91
288.945	5.61
289.322	5.62
289.699	5.68
290.076	6.14
290.453	5.72
290.83	5.83
291.207	6.14
291.584	5.25
291.961	5.89
292.338	5.75
292.715	5.98
293.092	5.7
293.469	6.03
293.845	5.52
294.222	5.95
294.599	5.81
294.975	5.98
295.352	5.44
295.728	6.01
296.105	5.4
296.481	6.12
296.858	5.87
297.234	5.7
297.61	6.09
297.986	5.9
298.363	5.36
298.739	5.99
299.115	5.29
299.491	5.45
299.867	5.87
300.243	5.57
300.619	5.46
300.995	5.81
301.371	5.56
301.746	5.34
302.122	6
302.498	6.32
302.874	5.59
303.249	5.98
303.625	5.78
304	5
304.376	5.63
304.751	5.89
305.127	5.72
305.502	6.08
305.878	5.57
306.253	5.91
306.628	6.28
307.003	5.59
307.378	5.12
307.754	5.64
308.129	5.29
308.504	5.07
308.879	5.27
309.254	5.91
309.629	5.42
310.003	5.92
310.378	6.15
310.753	5.53
311.128	5.76
311.502	5.55
311.877	5.68
312.252	6.01
312.626	5.41
313.001	5.34
313.375	5.51
313.75	5.66
314.124	5.83
314.498	5.2
314.873	5.84
315.247	5.68
315.621	6.05
315.995	5.67
316.369	5.83
316.743	6.47
317.117	5.96
317.491	5.7
317.865	5.51
318.239	5.89
318.613	5.36
318.987	5.52
319.361	5.37
319.734	5.6
320.108	6.11
320.482	5.57
320.855	5.66
321.229	5.85
321.602	5.86
321.976	5.7
322.349	5.15
322.723	4.85
323.096	5.71
323.469	4.88
323.843	5.41
324.216	5.2
324.589	6.31
324.962	6.04
325.335	5.98
325.708	6.17
326.081	6.29
326.454	5.59
326.827	5.53
327.2	6.23
327.573	5.83
327.945	5.95
328.318	6.01
328.691	5.66
329.063	5.66
329.436	5.54
329.809	5.56
330.181	5.54
330.553	6.24
330.926	5.64
331.298	5.32
331.671	5.1
332.043	5.79
332.415	6.16
332.787	5.85
333.159	5.63
333.532	5.77
333.904	5.69
334.276	5.88
334.648	5.69
335.02	6.17
335.391	5.83
335.763	5.79
336.135	5.94
336.507	6.04
336.879	5.83
337.25	5.99
337.622	6.18
337.993	6.09
338.365	5.96
338.736	6.32
339.108	5.36
339.479	6.08
339.851	6.08
340.222	6.08
340.593	5.32
340.964	5.79
341.336	5.28
341.707	5.81
342.078	5.68
342.449	6.16
342.82	5.79
343.191	5.48
343.562	5.81
343.933	5.75
344.303	6.3
344.674	5.98
345.045	5.77
345.416	5.57
345.786	5.26
346.157	5.74
346.527	5.39
346.898	5.83
347.268	5.93
347.639	5.86
348.009	5.99
348.38	5.8
348.75	5.97
349.12	5.95
349.49	5.9
349.861	6.19
350.231	6.17
350.601	5.89
350.971	5.84
351.341	6.12
351.711	6.03
352.081	6.01
352.45	5.84
352.82	6.04
353.19	5.79
353.56	6.26
353.929	5.81
354.299	5.81
354.669	6.04
355.038	5.76
355.408	5.98
355.777	5.6
356.147	6.3
356.516	6.54
356.885	5.81
357.254	6.03
357.624	6.25
357.993	5.82
358.362	6.26
358.731	5.91
359.1	6.05
359.469	5.86
359.838	5.96
360.207	5.98
360.576	5.84
360.945	5.93
361.314	6.02
361.682	5.54
362.051	6.04
362.42	6.18
362.788	6.18
363.157	5.78
363.525	5.9
363.894	5.55
364.262	5.71
364.631	6.42
364.999	5.66
365.367	6.19
365.735	5.68
366.104	5.73
366.472	6.17
366.84	5.97
367.208	5.78
367.576	6.03
367.944	6.24
368.312	5.78
368.68	6.06
369.048	6.04
369.416	5.88
369.783	5.92
370.151	6.1
370.519	6.09
370.886	6.05
371.254	6.19
371.621	6.36
371.989	6.42
372.356	6.05
372.724	6.03
373.091	6.31
373.458	5.88
373.826	5.81
374.193	6.47
374.56	6.1
374.927	5.93
375.294	6.43
375.661	5.99
376.028	6.27
376.395	6.07
376.762	6.2
377.129	6.42
377.496	6.41
377.863	6.26
378.229	5.99
378.596	6.19
378.963	6.41
379.329	6.27
379.696	6.04
380.062	6.12
380.429	6.17
380.795	5.6
381.161	6.3
381.528	6.02
381.894	6.35
382.26	6.11
382.626	5.8
382.993	5.9
383.359	6.12
383.725	6.35
384.091	6.39
384.457	6.05
384.823	6.37
385.188	6.34
385.554	6.02
385.92	6.46
386.286	6.5
386.651	6.32
387.017	6.27
387.383	6.22
387.748	6.06
388.114	6.01
388.479	6.12
388.845	6.53
389.21	6.25
389.575	6.34
389.94	6.19
390.306	6.29
390.671	6.26
391.036	6.41
391.401	6.88
391.766	6.32
392.131	6.36
392.496	6.34
392.861	6.25
393.226	6.44
393.591	6.39
393.956	6.43
394.32	6.26
394.685	6.56
395.05	6.46
395.414	6.41
395.779	6.21
396.143	6.32
396.508	6.4
396.872	6.44
397.236	6.01
397.601	6.56
397.965	6.29
398.329	6.53
398.694	6.14
399.058	6.53
399.422	6.42
399.786	6.45
400.15	6.19
400.514	6.33
400.878	6.41
401.242	6.24
401.605	6.45
401.969	6.3
402.333	6.26
402.697	6.68
403.06	6.45
403.424	6.27
403.787	6.55
404.151	6.4
404.514	6.51
404.878	6.57
405.241	6.56
405.604	6.36
405.968	6.47
406.331	6.39
406.694	6.61
407.057	6.78
407.42	6.41
407.783	6.32
408.146	6.44
408.509	6.24
408.872	6.18
409.235	6.56
409.598	6.8
409.961	6.47
410.323	6.32
410.686	6.33
411.049	6.3
411.411	6.73
411.774	6.52
412.136	6.7
412.499	6.28
412.861	6.39
413.223	6.61
413.586	6.43
413.948	6.72
414.31	6.55
414.672	6.35
415.035	6.46
415.397	6.84
415.759	6.48
416.121	6.7
416.483	6.83
416.845	6.71
417.206	6.68
417.568	6.66
417.93	6.54
418.292	6.69
418.653	6.57
419.015	6.66
419.377	6.62
419.738	6.62
420.1	6.47
420.461	6.53
420.822	6.6
421.184	6.42
421.545	6.47
421.906	6.55
422.267	6.45
422.629	6.4
422.99	6.51
423.351	6.4
423.712	6.55
424.073	6.52
424.434	6.51
424.795	6.45
425.155	6.5
425.516	6.51
425.877	6.44
426.238	6.41
426.598	6.49
426.959	6.39
427.32	6.61
427.68	6.55
428.041	6.66
428.401	6.55
428.761	6.55
429.122	6.49
429.482	6.47
429.842	6.6
430.202	6.61
430.563	6.72
430.923	6.64
431.283	6.76
431.643	6.64
432.003	6.88
432.363	6.63
432.722	6.76
433.082	6.74
433.442	6.67
433.802	6.66
434.161	6.76
434.521	6.64
434.881	6.57
435.24	6.6
435.6	6.68
435.959	6.68
436.319	6.61
436.678	6.59
437.037	6.79
437.396	6.59
437.756	6.82
438.115	6.64
438.474	6.57
438.833	6.77
439.192	6.76
439.551	6.83
439.91	6.85
440.269	6.72
440.628	6.8
440.987	6.61
441.345	6.66
441.704	6.79
442.063	6.64
442.421	6.77
442.78	6.64
443.138	6.66
443.497	6.48
443.855	6.76
444.214	6.68
444.572	6.66
444.93	6.8
445.288	6.73
445.647	6.8
446.005	6.72
446.363	6.88
446.721	6.62
447.079	6.81
447.437	6.71
447.795	6.69
448.153	6.61
448.51	6.68
448.868	6.75
449.226	6.77
449.584	6.74
449.941	6.84
450.299	6.61
450.656	6.65
451.014	6.77
451.371	6.74
451.729	6.78
452.086	6.58
452.443	6.83
452.801	6.96
453.158	6.79
453.515	6.78
453.872	6.85
454.229	6.71
454.586	6.9
454.943	6.79
455.3	7.05
455.657	6.86
456.014	6.96
456.371	7.04
456.727	6.8
457.084	6.83
457.441	6.83
457.797	6.79
458.154	6.8
458.51	6.79
458.867	6.79
459.223	6.94
459.58	6.86
459.936	6.87
460.292	7.04
460.648	6.8
461.005	6.88
461.361	6.81
461.717	6.71
462.073	6.79
462.429	6.86
462.785	6.69
463.141	6.77
463.496	6.84
463.852	7.04
464.208	6.89
464.564	6.84
464.919	6.96
465.275	7
465.631	7.05
465.986	6.94
466.342	7.09
466.697	6.76
467.052	7.12
467.408	6.79
467.763	6.77
468.118	7.03
468.473	6.93
468.829	6.9
469.184	7.05
469.539	6.76
469.894	6.84
470.249	6.78
470.603	7.05
470.958	7.03
471.313	6.9
471.668	7.03
472.023	7.22
472.377	6.99
472.732	6.99
473.086	6.85
473.441	6.93
473.795	7.08
474.15	6.9
474.504	7.04
474.859	7.04
475.213	7.01
475.567	6.88
475.921	7.14
476.275	7.01
476.63	6.99
476.984	7
477.338	7.3
477.692	6.98
478.045	6.99
478.399	7.03
478.753	6.9
479.107	7.04
479.461	7.07
479.814	6.98
480.168	6.95
480.521	6.96
480.875	7.13
481.228	6.98
481.582	7.03
481.935	7.01
482.289	6.99
482.642	7.01
482.995	7.03
483.348	6.96
483.701	6.88
484.055	6.98
484.408	6.92
484.761	6.84
485.114	6.8
485.466	6.68
485.819	6.61
486.172	6.56
486.525	6.63
486.878	6.58
487.23	6.7
487.583	6.79
487.936	6.9
488.288	6.84
488.641	6.86
488.993	6.75
489.345	6.8
489.698	6.77
490.05	6.74
490.402	6.77
490.754	6.85
491.107	6.92
491.459	6.88
491.811	6.98
492.163	7.03
492.515	6.99
492.866	6.87
493.218	6.86
493.57	6.8
493.922	6.7
494.274	6.79
494.625	6.83
494.977	6.89
495.328	6.91
495.68	7.23
496.031	7.05
496.383	6.91
496.734	7.14
497.086	7.04
497.437	7.14
497.788	7.11
498.139	7.1
498.49	7.1
498.842	7.07
499.193	6.97
499.544	7.21
499.894	7.09
500.245	7.04
500.596	7.02
500.947	7.12
501.298	7.06
501.648	7.05
501.999	7.21
502.35	7.16
502.7	7.15
503.051	7.19
503.401	7.13
503.752	7.06
504.102	7.11
504.452	7.1
504.803	7.02
505.153	7.13
505.503	7.14
505.853	7
506.203	7.09
506.553	7.22
506.903	7.09
507.253	7.09
507.603	6.99
507.953	7.22
508.303	7.16
508.652	7.24
509.002	7.18
509.352	7.16
509.701	7.03
510.051	7.16
510.4	7.14
510.75	7.13
511.099	7.04
511.449	7.09
511.798	7.26
512.147	7.06
512.496	7.11
512.846	7.09
513.195	7.16
513.544	7.17
513.893	7
514.242	7.22
514.591	7.05
514.939	7.14
515.288	7.12
515.637	7.09
515.986	7.05
516.334	7.15
516.683	7.09
517.032	7.12
517.38	7.23
517.729	7.03
518.077	7.32
518.426	7.21
518.774	7.11
519.122	7.12
519.47	7.1
519.819	7.14
520.167	7.15
520.515	7.03
520.863	7.01
521.211	7.01
521.559	7.06
521.907	7.07
522.255	7.27
522.602	7.18
522.95	7.24
523.298	7.16
523.645	7.07
523.993	7.19
524.341	7.11
524.688	7.27
525.036	7.28
525.383	7.22
525.73	7.21
526.078	7.24
526.425	7.23
526.772	7.06
527.119	7.1
527.466	7.14
527.814	7.01
528.161	7.08
528.508	7.05
528.854	6.98
529.201	7.08
529.548	7.02
529.895	6.98
530.242	6.93
530.588	6.85
530.935	6.75
531.282	6.85
531.628	6.88
531.975	6.98
532.321	6.89
532.667	7.05
533.014	7.01
533.36	7.08
533.706	7.05
534.052	7.04
534.399	7.06
534.745	7
535.091	6.89
535.437	6.9
535.783	6.95
536.129	6.94
536.474	7.05
536.82	7.07
537.166	7.07
537.512	7.14
537.857	7.12
538.203	7.17
538.549	7.06
538.894	7.01
539.239	7.23
539.585	7.12
539.93	7.12
540.276	7.07
540.621	7.09
540.966	7.17
541.311	7.34
541.656	7.12
542.001	7.24
542.346	7.16
542.691	7.05
543.036	6.92
543.381	6.95
543.726	6.9
544.071	7.02
544.415	6.89
544.76	6.9
545.105	7.02
545.449	6.98
545.794	6.96
546.138	7.09
546.483	7.03
546.827	7.07
547.171	7.08
547.516	7.23
547.86	7.19
548.204	7.16
548.548	7.21
548.892	7.14
549.236	7.14
549.58	7.18
549.924	7.1
550.268	7.18
550.612	7.22
550.956	7.04
551.3	7.1
551.643	7.26
551.987	7.42
552.33	7.26
552.674	7.33
553.017	7.31
553.361	7.33
553.704	7.19
554.048	7.38
554.391	7.2
554.734	7.28
555.077	7.23
555.42	7.16
555.764	7.2
556.107	7.16
556.45	7.06
556.793	7.16
557.135	7.37
557.478	7.48
557.821	6.96
558.164	7.43
558.507	7.19
558.849	7.12
559.192	7.28
559.534	7.12
559.877	7.3
560.219	7.43
560.562	7.42
560.904	7.08
561.246	7.34
561.589	7.42
561.931	7.37
562.273	7.25
562.615	7.35
562.957	7.41
563.299	7.37
563.641	7.24
563.983	7.24
564.325	6.93
564.667	7.34
565.008	7.18
565.35	7.56
565.692	7.3
566.033	7.33
566.375	7.19
566.716	7.25
567.058	7.37
567.399	7.35
567.741	7.39
568.082	7.26
568.423	7.25
568.764	7.36
569.105	7.26
569.447	7.13
569.788	7.18
570.129	7.26
570.47	7.27
570.811	7.28
571.151	7.26
571.492	7.37
571.833	7.19
572.174	7.24
572.514	7.16
572.855	7.28
573.195	7.23
573.536	7.38
573.876	7.25
574.217	7.27
574.557	7.21
574.898	7.14
575.238	7.14
575.578	7.35
575.918	7.29
576.258	7.23
576.598	7.21
576.938	7.45
577.278	7.15
577.618	7.26
577.958	7.28
578.298	7.26
578.638	7.15
578.977	7.42
579.317	7.34
579.657	7.15
579.996	7.31
580.336	7.42
580.675	7.44
581.014	7.32
581.354	7.37
581.693	7.54
582.032	7.13
582.372	7.45
582.711	7.16
583.05	7.29
583.389	7.48
583.728	7.35
584.067	7.43
584.406	7.8
584.745	7.35
585.083	7.55
585.422	7.27
585.761	7.52
586.1	7.6
586.438	7.38
586.777	7.43
587.115	7.51
587.454	7.42
587.792	7.21
588.13	7.44
588.469	7.41
588.807	7.65
589.145	7.48
589.483	7.17
589.821	7.27
590.159	7.14
590.497	7
590.835	7.34
591.173	7.58
591.511	7.28
591.849	7.4
592.187	7.41
592.524	7.11
592.862	7.48
593.2	7.58
593.537	7.3
593.875	7.35
594.212	7.31
594.55	7.34
594.887	7.2
595.224	7.29
595.561	7.42
595.899	7.36
596.236	7.23
596.573	7.25
596.91	7.45
597.247	7.23
597.584	7.37
597.921	7.43
598.258	7.47
598.594	7.26
598.931	7.19
599.268	7.34
599.604	7.32
599.941	7.43
600.277	7.41
600.614	7.37
600.95	7.35
601.287	7.51
601.623	7.34
601.959	7.16
602.296	7.37
602.632	7.76
602.968	7.4
603.304	7.2
603.64	7.25
603.976	7.46
604.312	7.61
604.648	7.51
604.984	7.42
605.319	7.6
605.655	7.36
605.991	7.57
606.326	7.24
606.662	7.23
606.998	7.26
607.333	7.18
607.668	7.33
608.004	7.38
608.339	7.18
608.674	7.23
609.01	7.62
609.345	7.55
609.68	7.28
610.015	7.45
610.35	7.31
610.685	7.47
611.02	7.49
611.355	7.32
611.689	7.17
612.024	7.45
612.359	7.16
612.694	7.49
613.028	7.98
613.363	7.45
613.697	7.4
614.032	7.51
614.366	7.6
614.7	7.89
615.035	7.45
615.369	7.61
615.703	7.67
616.037	7.28
616.371	7.44
616.705	7.06
617.039	7.7
617.373	7.54
617.707	7.33
618.041	7.77
618.375	7.28
618.709	7.53
619.042	7.46
619.376	7.42
619.71	7.57
620.043	7.34
620.377	7.53
620.71	7.6
621.043	7.5
621.377	7.47
621.71	7.47
622.043	7.86
622.376	7.53
622.709	7.4
623.043	7.75
623.376	7.43
623.709	7.58
624.041	7.29
624.374	7.64
624.707	7.58
625.04	8.1
625.373	7.52
625.705	7.4
626.038	7.54
626.37	7.52
626.703	7.61
627.035	7.64
627.368	7.44
627.7	7.66
628.032	7.43
628.365	7.38
628.697	7.4
629.029	7.7
629.361	7.46
629.693	7.83
630.025	7.53
630.357	7.42
630.689	7.76
631.021	7.61
631.353	7.67
631.684	7.77
632.016	7.52
632.348	7.88
632.679	7.54
633.011	7.67
633.342	7.49
633.674	7.7
634.005	7.85
634.336	7.63
634.668	7.56
634.999	7.69
635.33	7.35
635.661	7.6
635.992	7.55
636.323	7.96
636.654	7.74
636.985	7.56
637.316	7.61
637.647	7.87
637.977	7.79
638.308	7.49
638.639	7.5
638.969	7.41
639.3	7.57
639.63	7.13
639.961	7.77
640.291	7.51
640.622	7.58
640.952	7.84
641.282	7.29
641.612	7.25
641.943	7.88
642.273	7.7
642.603	7.79
642.933	7.35
643.263	8.1
643.592	7.91
643.922	7.9
644.252	7.82
644.582	7.71
644.911	7.64
645.241	7.64
645.571	7.95
645.9	8.08
646.23	7.72
646.559	7.57
646.888	7.62
647.218	7.62
647.547	7.89
647.876	7.66
648.205	7.69
648.534	7.66
648.863	8.19
649.192	7.63
649.521	7.04
649.85	8.11
650.179	7.71
650.508	7.62
650.837	7.98
651.165	8.03
651.494	7.58
651.822	7.81
652.151	8.1
652.479	8.47
652.808	7.65
653.136	7.69
653.465	8.2
653.793	7.91
654.121	7.81
654.449	8.04
654.777	7.87
655.105	8.06
655.433	8.09
655.761	7.77
656.089	7.38
656.417	7.73
656.745	8.26
657.073	8.07
657.4	8.15
657.728	7.66
658.056	7.94
658.383	8.05
658.711	7.74
659.038	8.38
659.365	8.4
659.693	8.19
660.02	7.7
660.347	8.11
660.674	7.71
661.001	7.52
661.329	7.79
661.656	7.86
661.982	8.13
662.309	7.9
662.636	8.01
662.963	8.02
663.29	7.95
663.616	8.09
663.943	7.9
664.27	8.07
664.596	7.91
664.923	8.09
665.249	8.01
665.576	7.82
665.902	7.91
666.228	7.97
666.554	8.42
666.881	8.41
667.207	8.32
667.533	8.38
667.859	7.56
668.185	7.9
668.511	7.71
668.837	7.66
669.162	7.9
669.488	8.04
669.814	8.26
670.139	8.6
670.465	7.9
670.791	8
671.116	8.01
671.442	8.29
671.767	7.63
672.092	8.18
672.418	7.83
672.743	7.53
673.068	7.59
673.393	7.58
673.718	7.73
674.043	7.94
674.368	8.43
674.693	8.39
675.018	8.74
675.343	7.96
675.667	7.97
675.992	7.75
676.317	8.27
676.641	7.98
676.966	8.66
677.29	8.18
677.615	8.6
677.939	7.87
678.264	7.95
678.588	8.36
678.912	8.46
679.236	8.18
679.56	8.03
679.885	8.47
680.209	7.88
680.532	7.89
680.856	8.43
681.18	7.71
681.504	8.01
681.828	7.66
682.152	7.7
682.475	7.89
682.799	8.34
683.122	8.3
683.446	7.98
683.769	8.19
684.093	8.68
684.416	7.83
684.739	8.65
685.062	8.45
685.386	8.5
685.709	8.12
686.032	8.37
686.355	8.02
686.678	8.34
687.001	7.67
687.324	7.44
687.646	7.31
687.969	8.16
688.292	8.53
688.614	8.86
688.937	8.04
689.26	7.63
689.582	7.6
689.904	8.58
690.227	8.14
690.549	8.86
690.871	8.98
691.194	8.27
691.516	7.82
691.838	8.58
692.16	8.69
692.482	8.75
692.804	7.39
