Data from 0055_forehead_Reflection__4__122.txt Node

Date: Fri Dec 16 14:52:24 CST 2022
User: ToomeyLab
Spectrometer: FLMS14357
Trigger mode: 0
Integration Time (sec): 1.000000E-2
Scans to average: 100
Electric dark correction enabled: true
Nonlinearity correction enabled: false
Boxcar width: 0
XAxis mode: Wavelengths
Number of Pixels in Spectrum: 2048
>>>>>Begin Spectral Data<<<<<
189.047	60.28
189.435	60.28
189.823	60.28
190.211	171.49
190.599	43.21
190.987	2.59
191.375	2.84
191.763	140.69
192.151	-42.61
192.538	118.17
192.926	57.44
193.314	120.93
193.702	176.29
194.089	-62.98
194.477	24.09
194.864	-23.72
195.252	-22.96
195.639	134.14
196.027	-478.09
196.414	33.36
196.801	-411.62
197.189	34.28
197.576	38.43
197.963	-240.4
198.351	3.71
198.738	2.05
199.125	21.36
199.512	48.35
199.899	83.18
200.286	-5.77
200.673	52.39
201.06	52.09
201.447	40.89
201.833	3.96
202.22	61.37
202.607	40.9
202.994	29
203.38	-1.69
203.767	33.37
204.154	-3.46
204.54	23.2
204.927	22.62
205.313	52.21
205.699	19.01
206.086	32
206.472	18.95
206.858	54.06
207.245	12.94
207.631	-6.84
208.017	16.85
208.403	44.76
208.789	5.35
209.175	39.19
209.561	30.78
209.947	20.66
210.333	-49.5
210.719	-1.29
211.105	-3.3
211.491	3.73
211.876	-8.85
212.262	-3.1
212.648	-23.59
213.034	-2.99
213.419	12.81
213.805	29.62
214.19	11.21
214.576	26.29
214.961	-7.45
215.346	-22.85
215.732	25.49
216.117	-17.46
216.502	-6.6
216.888	4.6
217.273	33.55
217.658	-2.72
218.043	36.4
218.428	-9.69
218.813	23.59
219.198	-47.97
219.583	11.46
219.968	-10.47
220.353	4.27
220.738	1.08
221.122	17.96
221.507	14.95
221.892	19.83
222.276	8.87
222.661	11.71
223.046	8.86
223.43	13.84
223.815	6.09
224.199	8.96
224.583	6.2
224.968	6.69
225.352	9.62
225.736	-0.97
226.121	16.35
226.505	6.22
226.889	14.15
227.273	6.8
227.657	4.44
228.041	7.74
228.425	9.28
228.809	5.76
229.193	3.85
229.577	4.3
229.961	5.02
230.344	5.25
230.728	5.03
231.112	4.86
231.495	6.64
231.879	6.5
232.263	4.44
232.646	4.7
233.03	3.78
233.413	3.82
233.797	8.01
234.18	3.43
234.563	6.26
234.946	5.08
235.33	5.47
235.713	4.79
236.096	3.11
236.479	5.65
236.862	4.87
237.245	6.35
237.628	5.22
238.011	5.48
238.394	6.93
238.777	5.3
239.16	2.48
239.543	4.01
239.925	6.06
240.308	6.08
240.691	5.93
241.073	5.1
241.456	4.57
241.838	5.58
242.221	5.23
242.603	5.35
242.986	6.3
243.368	4.88
243.75	4.5
244.133	4.66
244.515	4.77
244.897	5.07
245.279	4.4
245.661	4.7
246.043	5
246.425	5.13
246.807	5.01
247.189	4.94
247.571	4.75
247.953	4.94
248.335	4.91
248.717	4.86
249.098	4.9
249.48	4.6
249.862	5.02
250.243	5.41
250.625	5.17
251.006	5.43
251.388	5.46
251.769	4.98
252.151	5.62
252.532	4.89
252.913	4.9
253.295	5.08
253.676	5.06
254.057	5.2
254.438	4.51
254.819	5.16
255.2	4.71
255.581	5.34
255.962	4.55
256.343	5.46
256.724	4.84
257.105	5.39
257.486	5.84
257.867	4.47
258.247	5.7
258.628	5.98
259.009	5.09
259.389	5.41
259.77	5.34
260.15	5.1
260.531	4.65
260.911	4.77
261.292	4.89
261.672	4.67
262.052	4.49
262.432	4.72
262.813	5.16
263.193	4.58
263.573	5.07
263.953	5.58
264.333	4.81
264.713	4.48
265.093	5.06
265.473	6.33
265.853	4.35
266.233	4.71
266.612	5.19
266.992	5.18
267.372	4.64
267.752	4.24
268.131	5.02
268.511	4.99
268.89	5.05
269.27	5.19
269.649	5.62
270.029	4.74
270.408	4.94
270.787	4.88
271.167	5.25
271.546	4.14
271.925	5.12
272.304	4.92
272.683	4.64
273.062	4.98
273.441	5.01
273.82	4.93
274.199	4.74
274.578	4.48
274.957	4.8
275.336	4.76
275.715	5.26
276.093	5.42
276.472	4.65
276.851	5.16
277.229	5.33
277.608	4.19
277.986	4.65
278.365	4.01
278.743	4.71
279.122	5.18
279.5	3.9
279.878	3.83
280.257	4.59
280.635	4.35
281.013	5.08
281.391	4.52
281.769	4.17
282.147	4.76
282.525	4.81
282.903	5.13
283.281	4.73
283.659	4.75
284.037	4.52
284.415	4.93
284.792	4.86
285.17	4.57
285.548	4.57
285.925	4.5
286.303	4.6
286.68	4.74
287.058	4.78
287.435	4.42
287.813	4.87
288.19	4.95
288.567	4.53
288.945	4.66
289.322	4.99
289.699	4.92
290.076	4.48
290.453	4.81
290.83	5.26
291.207	4.87
291.584	4.4
291.961	5.17
292.338	5.05
292.715	5.07
293.092	4.94
293.469	5.04
293.845	5.03
294.222	5.46
294.599	5.45
294.975	5.47
295.352	5.16
295.728	5.32
296.105	5.12
296.481	5.62
296.858	5.58
297.234	5.31
297.61	5.53
297.986	5.63
298.363	5.12
298.739	5.56
299.115	5.27
299.491	5.26
299.867	5.62
300.243	5.63
300.619	5.6
300.995	5.99
301.371	6.07
301.746	5.91
302.122	5.9
302.498	6.06
302.874	6.46
303.249	5.89
303.625	6.27
304	5.74
304.376	6.58
304.751	6.16
305.127	6.32
305.502	6.43
305.878	5.91
306.253	6.17
306.628	6.94
307.003	6.47
307.378	6.37
307.754	6.63
308.129	6.64
308.504	6.6
308.879	7.1
309.254	7.12
309.629	6.51
310.003	7.05
310.378	7.08
310.753	6.94
311.128	6.74
311.502	6.94
311.877	6.88
312.252	7.03
312.626	7.07
313.001	7.17
313.375	7.03
313.75	7.35
314.124	7.33
314.498	7.36
314.873	7.45
315.247	7.52
315.621	7.8
315.995	7.61
316.369	7.67
316.743	8.24
317.117	7.73
317.491	8.09
317.865	7.55
318.239	8.02
318.613	8.17
318.987	8.21
319.361	8.29
319.734	7.93
320.108	8.25
320.482	8.47
320.855	8.76
321.229	8.85
321.602	8.2
321.976	8.76
322.349	8.34
322.723	8.48
323.096	8.07
323.469	8.32
323.843	8.72
324.216	8.35
324.589	8.81
324.962	9.44
325.335	9.41
325.708	9.39
326.081	9.23
326.454	9.56
326.827	9.42
327.2	9.4
327.573	9.41
327.945	9.65
328.318	9.29
328.691	9.78
329.063	9.51
329.436	9.03
329.809	9.75
330.181	9.76
330.553	9.91
330.926	10
331.298	9.78
331.671	9.86
332.043	10.26
332.415	10.53
332.787	10.2
333.159	9.8
333.532	9.99
333.904	9.7
334.276	9.96
334.648	10.61
335.02	9.98
335.391	10.93
335.763	10.46
336.135	10.09
336.507	10.42
336.879	10.75
337.25	10.74
337.622	10.39
337.993	11.01
338.365	11.01
338.736	10.48
339.108	10.39
339.479	11.28
339.851	11.03
340.222	11.22
340.593	10.29
340.964	10.62
341.336	10.52
341.707	11.08
342.078	10.89
342.449	11.73
342.82	11.46
343.191	11.38
343.562	11.2
343.933	11.11
344.303	11.74
344.674	11.51
345.045	11.88
345.416	11.46
345.786	11.33
346.157	11.58
346.527	11.46
346.898	11.8
347.268	11.53
347.639	11.58
348.009	11.97
348.38	11.84
348.75	12.05
349.12	12.08
349.49	12.05
349.861	12.34
350.231	12.26
350.601	12.29
350.971	12.52
351.341	12.25
351.711	12.33
352.081	12.33
352.45	12.28
352.82	12.77
353.19	12.16
353.56	12.41
353.929	12.73
354.299	12.71
354.669	12.38
355.038	12.76
355.408	12.71
355.777	12.73
356.147	12.86
356.516	13.19
356.885	12.73
357.254	13.22
357.624	13
357.993	12.87
358.362	12.94
358.731	12.9
359.1	13.27
359.469	13.26
359.838	13.21
360.207	12.9
360.576	13.5
360.945	13.07
361.314	13.33
361.682	13.07
362.051	12.94
362.42	13.47
362.788	13.33
363.157	13.29
363.525	13.3
363.894	13.26
364.262	13.37
364.631	13.98
364.999	13.62
365.367	14.17
365.735	13.66
366.104	13.74
366.472	13.88
366.84	13.99
367.208	13.6
367.576	14.08
367.944	14.43
368.312	13.93
368.68	14.06
369.048	14.23
369.416	14.22
369.783	13.98
370.151	14.53
370.519	14.32
370.886	14.4
371.254	14.55
371.621	14.66
371.989	14.61
372.356	14.49
372.724	14.65
373.091	14.33
373.458	14.49
373.826	14.74
374.193	15.04
374.56	14.63
374.927	14.73
375.294	15.29
375.661	15.19
376.028	14.91
376.395	15.07
376.762	15.4
377.129	15.38
377.496	15.33
377.863	15.15
378.229	15.13
378.596	15.19
378.963	15.15
379.329	15.42
379.696	15.51
380.062	15.51
380.429	15.65
380.795	15.4
381.161	15.5
381.528	15.25
381.894	15.66
382.26	15.46
382.626	15.29
382.993	15.42
383.359	15.97
383.725	15.87
384.091	16.4
384.457	16.22
384.823	16.03
385.188	16.13
385.554	15.91
385.92	16.24
386.286	16.3
386.651	16.14
387.017	16.49
387.383	16.41
387.748	15.75
388.114	16.56
388.479	16.45
388.845	16.54
389.21	16.87
389.575	16.53
389.94	16.57
390.306	16.69
390.671	16.6
391.036	16.91
391.401	17.21
391.766	16.81
392.131	16.95
392.496	17.02
392.861	16.81
393.226	17.02
393.591	17.17
393.956	17.32
394.32	16.95
394.685	17.28
395.05	16.89
395.414	17.14
395.779	16.82
396.143	17.2
396.508	17.38
396.872	17.2
397.236	17.17
397.601	17.64
397.965	17.42
398.329	17.71
398.694	17.66
399.058	17.52
399.422	17.53
399.786	18.11
400.15	17.67
400.514	17.71
400.878	17.83
401.242	17.81
401.605	18.06
401.969	18.38
402.333	17.86
402.697	18.17
403.06	18.27
403.424	18.38
403.787	18.25
404.151	18.27
404.514	18.22
404.878	18.44
405.241	18.58
405.604	18.31
405.968	18.52
406.331	18.32
406.694	18.69
407.057	18.63
407.42	18.68
407.783	18.71
408.146	18.81
408.509	18.7
408.872	18.75
409.235	18.84
409.598	19.09
409.961	19.06
410.323	19.01
410.686	19.09
411.049	19.18
411.411	19.23
411.774	19.2
412.136	19.3
412.499	19.17
412.861	19.03
413.223	19.35
413.586	19.19
413.948	19.64
414.31	19.87
414.672	19.58
415.035	19.69
415.397	19.7
415.759	19.57
416.121	19.89
416.483	19.69
416.845	19.79
417.206	19.98
417.568	19.89
417.93	19.64
418.292	19.82
418.653	19.95
419.015	19.88
419.377	19.77
419.738	19.68
420.1	19.82
420.461	19.73
420.822	20.11
421.184	19.83
421.545	19.92
421.906	20.05
422.267	19.89
422.629	19.84
422.99	19.91
423.351	20.11
423.712	20.05
424.073	20.37
424.434	20.28
424.795	20.24
425.155	20.26
425.516	20.26
425.877	20.27
426.238	20.12
426.598	20.57
426.959	20.35
427.32	20.57
427.68	20.8
428.041	20.85
428.401	20.81
428.761	21.02
429.122	21.08
429.482	21.1
429.842	21.22
430.202	21.12
430.563	21.37
430.923	21.11
431.283	21.35
431.643	21.42
432.003	21.43
432.363	21.6
432.722	21.56
433.082	21.55
433.442	21.61
433.802	21.73
434.161	21.46
434.521	21.62
434.881	21.72
435.24	21.78
435.6	21.61
435.959	21.81
436.319	21.83
436.678	21.92
437.037	21.82
437.396	21.93
437.756	22.24
438.115	22.1
438.474	22.36
438.833	22.46
439.192	22.5
439.551	22.27
439.91	22.39
440.269	22.5
440.628	22.45
440.987	22.25
441.345	22.28
441.704	22.52
442.063	22.26
442.421	22.43
442.78	22.33
443.138	22.28
443.497	22.4
443.855	22.6
444.214	22.65
444.572	22.67
444.93	22.86
445.288	22.93
445.647	23.03
446.005	23.03
446.363	22.93
446.721	22.84
447.079	22.93
447.437	22.8
447.795	22.72
448.153	22.63
448.51	22.8
448.868	22.93
449.226	22.99
449.584	23.15
449.941	23.22
450.299	23.2
450.656	23.33
451.014	23.54
451.371	23.52
451.729	23.81
452.086	23.62
452.443	23.62
452.801	23.85
453.158	23.84
453.515	23.77
453.872	24.06
454.229	24.02
454.586	23.91
454.943	23.96
455.3	24.27
455.657	23.95
456.014	24.32
456.371	24.34
456.727	24.21
457.084	24.28
457.441	24.3
457.797	24.6
458.154	24.41
458.51	24.78
458.867	24.47
459.223	24.71
459.58	24.66
459.936	24.46
460.292	24.57
460.648	24.57
461.005	24.59
461.361	24.39
461.717	24.34
462.073	24.39
462.429	24.66
462.785	24.8
463.141	24.92
463.496	24.93
463.852	25.26
464.208	25.33
464.564	25.19
464.919	25.19
465.275	25.23
465.631	25.53
465.986	25.16
466.342	25.53
466.697	25.38
467.052	25.66
467.408	25.62
467.763	25.46
468.118	25.67
468.473	25.8
468.829	25.7
469.184	25.81
469.539	25.66
469.894	25.64
470.249	25.89
470.603	26.09
470.958	26.01
471.313	25.77
471.668	26.26
472.023	26.3
472.377	26.16
472.732	26.25
473.086	26.27
473.441	26.46
473.795	26.52
474.15	26.4
474.504	26.5
474.859	26.54
475.213	26.61
475.567	26.5
475.921	26.59
476.275	26.61
476.63	26.76
476.984	26.87
477.338	27
477.692	26.7
478.045	26.64
478.399	26.92
478.753	26.77
479.107	26.93
479.461	26.89
479.814	26.86
480.168	27.09
480.521	27.08
480.875	27.32
481.228	27.05
481.582	27.14
481.935	27.15
482.289	27.05
482.642	27.2
482.995	27.27
483.348	27.1
483.701	26.94
484.055	26.92
484.408	26.96
484.761	26.65
485.114	26.55
485.466	26.5
485.819	26.32
486.172	26.35
486.525	26.51
486.878	26.7
487.23	26.97
487.583	27.11
487.936	27.23
488.288	27.05
488.641	27.05
488.993	27
489.345	27.05
489.698	26.96
490.05	27.18
490.402	27.25
490.754	27.43
491.107	27.54
491.459	27.65
491.811	27.99
492.163	27.97
492.515	27.87
492.866	27.56
493.218	27.55
493.57	27.48
493.922	27.56
494.274	27.77
494.625	28.03
494.977	28.16
495.328	28.48
495.68	28.76
496.031	28.83
496.383	28.9
496.734	28.98
497.086	28.8
497.437	29.15
497.788	28.96
498.139	29.24
498.49	28.81
498.842	29.06
499.193	28.91
499.544	29.11
499.894	29.34
500.245	29.26
500.596	29.21
500.947	29.53
501.298	29.48
501.648	29.54
501.999	29.66
502.35	29.72
502.7	29.89
503.051	29.87
503.401	29.97
503.752	30
504.102	29.9
504.452	30.12
504.803	29.95
505.153	30.14
505.503	30.13
505.853	30.08
506.203	29.95
506.553	30.18
506.903	30.12
507.253	30.28
507.603	30.26
507.953	30.29
508.303	30.41
508.652	30.34
509.002	30.55
509.352	30.56
509.701	30.33
510.051	30.43
510.4	30.41
510.75	30.36
511.099	30.34
511.449	30.27
511.798	30.84
512.147	30.71
512.496	30.75
512.846	30.61
513.195	30.93
513.544	30.87
513.893	30.73
514.242	30.98
514.591	30.94
514.939	31.1
515.288	31
515.637	31.21
515.986	31.12
516.334	31.24
516.683	31.33
517.032	31.39
517.38	31.66
517.729	31.54
518.077	31.57
518.426	31.43
518.774	31.52
519.122	31.51
519.47	31.47
519.819	31.35
520.167	31.32
520.515	31.3
520.863	31.24
521.211	31.35
521.559	31.63
521.907	31.8
522.255	31.92
522.602	31.89
522.95	32.15
523.298	32.18
523.645	32.16
523.993	32.13
524.341	32.51
524.688	32.31
525.036	32.37
525.383	32.34
525.73	32.4
526.078	32.47
526.425	32.23
526.772	32.07
527.119	32.25
527.466	32.06
527.814	32.09
528.161	32.08
528.508	32.14
528.854	32.12
529.201	32.24
529.548	32.12
529.895	31.94
530.242	32
530.588	31.91
530.935	31.69
531.282	31.83
531.628	32.01
531.975	32.28
532.321	32.44
532.667	32.73
533.014	32.73
533.36	32.73
533.706	32.91
534.052	32.93
534.399	32.74
534.745	32.72
535.091	32.71
535.437	32.72
535.783	32.81
536.129	32.84
536.474	33.03
536.82	33.29
537.166	33.46
537.512	33.52
537.857	33.52
538.203	33.51
538.549	33.42
538.894	33.39
539.239	33.57
539.585	33.73
539.93	33.99
540.276	34.18
540.621	34.18
540.966	34.14
541.311	34.4
541.656	34.23
542.001	34.1
542.346	33.87
542.691	33.74
543.036	33.67
543.381	33.61
543.726	33.59
544.071	33.75
544.415	33.9
544.76	33.86
545.105	34.09
545.449	34.14
545.794	34.22
546.138	34.53
546.483	34.6
546.827	34.72
547.171	34.69
547.516	34.86
547.86	34.82
548.204	34.74
548.548	34.86
548.892	34.78
549.236	34.97
549.58	35.01
549.924	35.31
550.268	35.48
550.612	35.33
550.956	35.42
551.3	35.77
551.643	35.92
551.987	36.15
552.33	35.84
552.674	35.83
553.017	36.05
553.361	36.14
553.704	35.91
554.048	36
554.391	35.79
554.734	36.03
555.077	36.04
555.42	35.88
555.764	36.06
556.107	36.12
556.45	36.37
556.793	36.51
557.135	36.35
557.478	36.56
557.821	36.54
558.164	36.53
558.507	36.48
558.849	36.47
559.192	36.65
559.534	36.55
559.877	36.84
560.219	36.92
560.562	36.67
560.904	36.91
561.246	36.81
561.589	37.06
561.931	37.12
562.273	36.93
562.615	37.25
562.957	37.22
563.299	37.04
563.641	37.03
563.983	37.23
564.325	37.04
564.667	37.14
565.008	37.4
565.35	37.66
565.692	37.31
566.033	37.55
566.375	37.16
566.716	37.65
567.058	37.84
567.399	37.55
567.741	37.56
568.082	37.46
568.423	37.4
568.764	37.43
569.105	37.56
569.447	37.88
569.788	37.56
570.129	37.79
570.47	37.88
570.811	38.07
571.151	37.83
571.492	38.2
571.833	38.06
572.174	38.18
572.514	38.06
572.855	38.32
573.195	38.2
573.536	37.99
573.876	38.1
574.217	38.1
574.557	38.31
574.898	38.03
575.238	38.26
575.578	38.61
575.918	38.36
576.258	38.67
576.598	38.41
576.938	38.83
577.278	38.5
577.618	38.57
577.958	38.61
578.298	38.47
578.638	38.94
578.977	38.99
579.317	39.07
579.657	38.95
579.996	38.98
580.336	39.27
580.675	39.45
581.014	39.33
581.354	39.32
581.693	39.32
582.032	39.52
582.372	39.51
582.711	39.38
583.05	40.09
583.389	39.78
583.728	39.84
584.067	39.79
584.406	39.61
584.745	39.83
585.083	39.54
585.422	39.68
585.761	40.04
586.1	39.93
586.438	40.1
586.777	40.18
587.115	39.76
587.454	40.01
587.792	40.24
588.13	40.29
588.469	40.26
588.807	40.29
589.145	40.58
589.483	40.32
589.821	40.5
590.159	40.44
590.497	40.53
590.835	40.28
591.173	40.67
591.511	40.15
591.849	40.45
592.187	40.39
592.524	40.61
592.862	40.55
593.2	40.77
593.537	40.87
593.875	40.81
594.212	40.95
594.55	41.17
594.887	41.02
595.224	40.74
595.561	40.93
595.899	41.01
596.236	41.17
596.573	40.89
596.91	40.96
597.247	41.18
597.584	41.1
597.921	41.18
598.258	40.93
598.594	40.73
598.931	40.84
599.268	40.83
599.604	41.13
599.941	41.04
600.277	41.47
600.614	41.12
600.95	41.42
601.287	41.36
601.623	41.49
601.959	41.56
602.296	41.71
602.632	41.61
602.968	41.54
603.304	41.88
603.64	42.14
603.976	41.75
604.312	42.01
604.648	41.87
604.984	41.73
605.319	41.9
605.655	41.79
605.991	41.87
606.326	41.64
606.662	41.76
606.998	41.73
607.333	41.51
607.668	41.75
608.004	42.02
608.339	42.12
608.674	42.47
609.01	42.27
609.345	42.55
609.68	42.71
610.015	42.76
610.35	42.23
610.685	42.5
611.02	42.38
611.355	42.47
611.689	42.07
612.024	42.56
612.359	42.54
612.694	42.45
613.028	42.7
613.363	42.66
613.697	42.85
614.032	42.56
614.366	42.68
614.7	43.17
615.035	42.98
615.369	43.38
615.703	43.5
616.037	43.3
616.371	42.97
616.705	43.19
617.039	43.45
617.373	43.58
617.707	43.56
618.041	43.83
618.375	43.2
618.709	43.78
619.042	43.51
619.376	43.57
619.71	43.59
620.043	43.28
620.377	43.73
620.71	43.55
621.043	43.13
621.377	43.56
621.71	43.73
622.043	43.85
622.376	43.61
622.709	44.14
623.043	43.98
623.376	43.81
623.709	43.62
624.041	44.09
624.374	44.38
624.707	43.66
625.04	44.24
625.373	44.17
625.705	44.43
626.038	44.15
626.37	44.02
626.703	43.93
627.035	43.7
627.368	44.17
627.7	44.49
628.032	44.49
628.365	44.17
628.697	44.32
629.029	44.08
629.361	44.22
629.693	44.73
630.025	44.35
630.357	44.45
630.689	44.44
631.021	44.27
631.353	44.62
631.684	44.99
632.016	44.93
632.348	45.22
632.679	44.76
633.011	44.78
633.342	44.57
633.674	44.91
634.005	44.9
634.336	44.91
634.668	45.07
634.999	45.28
635.33	44.86
635.661	45.36
635.992	44.92
636.323	45.43
636.654	44.71
636.985	45.23
637.316	45.09
637.647	45.08
637.977	45.33
638.308	45.24
638.639	45.18
638.969	45.29
639.3	44.91
639.63	45.18
639.961	45.37
640.291	45.59
640.622	45.55
640.952	45.68
641.282	44.98
641.612	45.14
641.943	45.92
642.273	46.16
642.603	46.28
642.933	45.89
643.263	46.36
643.592	45.57
643.922	45.76
644.252	46.02
644.582	45.64
644.911	46.15
645.241	45.92
645.571	45.73
645.9	45.87
646.23	46.02
646.559	45.77
646.888	45.98
647.218	46.19
647.547	46.07
647.876	45.93
648.205	46.27
648.534	46
648.863	46.49
649.192	46.27
649.521	46.16
649.85	46.11
650.179	45.94
650.508	46.56
650.837	46.24
651.165	46.72
651.494	46.28
651.822	46.55
652.151	47.04
652.479	46.95
652.808	46.24
653.136	47.11
653.465	46.86
653.793	46.49
654.121	46.9
654.449	46.89
654.777	46.65
655.105	46.6
655.433	46.54
655.761	46.45
656.089	46.58
656.417	47.64
656.745	47.21
657.073	47.19
657.4	47.48
657.728	47.17
658.056	47.6
658.383	47.02
658.711	47.27
659.038	47.06
659.365	46.91
659.693	47.2
660.02	46.85
660.347	47.34
660.674	46.81
661.001	47.03
661.329	47.66
661.656	47.1
661.982	46.92
662.309	46.68
662.636	47.46
662.963	47.46
663.29	47.53
663.616	47.17
663.943	47.95
664.27	47.7
664.596	47.99
664.923	47.09
665.249	47.32
665.576	47.51
665.902	47.98
666.228	46.97
666.554	48.33
666.881	47.99
667.207	47.91
667.533	47.86
667.859	47.4
668.185	48.51
668.511	47.97
668.837	46.99
669.162	47.66
669.488	48.76
669.814	48.4
670.139	48.04
670.465	47.9
