Data from 0365_chest_Reflection__2__296.txt Node

Date: Fri Oct 20 23:04:28 CDT 2023
User: ToomeyLab
Spectrometer: FLMS14357
Trigger mode: 0
Integration Time (sec): 1.000000E-2
Scans to average: 100
Electric dark correction enabled: true
Nonlinearity correction enabled: false
Boxcar width: 0
XAxis mode: Wavelengths
Number of Pixels in Spectrum: 2048
>>>>>Begin Spectral Data<<<<<
189.047	-128.13
189.435	-128.13
189.823	-128.13
190.211	-51.06
190.599	-198.06
190.987	168
191.375	19.22
191.763	90.3
192.151	205.17
192.538	200.38
192.926	3472.97
193.314	145.44
193.702	133.29
194.089	67.54
194.477	222.8
194.864	84.88
195.252	119.43
195.639	-267.33
196.027	39.97
196.414	106.79
196.801	68.31
197.189	-60.57
197.576	197.43
197.963	196.35
198.351	34.78
198.738	-5.63
199.125	-9.85
199.512	34.74
199.899	42.1
200.286	-55.42
200.673	77.52
201.06	12.46
201.447	-22.41
201.833	57.22
202.22	5.89
202.607	35.89
202.994	22.42
203.38	20.77
203.767	21.51
204.154	47.03
204.54	48.53
204.927	25.65
205.313	26.98
205.699	43.55
206.086	28.21
206.472	99.68
206.858	76.16
207.245	23.37
207.631	60.4
208.017	29.77
208.403	9.68
208.789	44.9
209.175	-14.17
209.561	21.28
209.947	-2.17
210.333	3.65
210.719	-10.41
211.105	22.82
211.491	33.14
211.876	-16.07
212.262	34.08
212.648	1.7
213.034	-3.12
213.419	16.04
213.805	-10.01
214.19	-4.14
214.576	-26.41
214.961	15.43
215.346	33.64
215.732	27.32
216.117	-12.81
216.502	36.78
216.888	-8.72
217.273	-11.61
217.658	21.71
218.043	-27.47
218.428	24.55
218.813	-4.15
219.198	-15.58
219.583	-25.51
219.968	-5.35
220.353	-3.75
220.738	16.62
221.122	-15.22
221.507	-1.5
221.892	4.33
222.276	-0.57
222.661	16.79
223.046	9.46
223.43	10.09
223.815	14.79
224.199	14.14
224.583	-8.68
224.968	2.51
225.352	-4.46
225.736	0.73
226.121	7.93
226.505	9.11
226.889	7.15
227.273	10.49
227.657	2.67
228.041	7.39
228.425	2.29
228.809	5.22
229.193	6.15
229.577	7.2
229.961	0.56
230.344	3.65
230.728	2.13
231.112	3.71
231.495	2.05
231.879	2.71
232.263	4.54
232.646	2.08
233.03	2.07
233.413	2.53
233.797	1.66
234.18	5.38
234.563	3.5
234.946	4.6
235.33	4.18
235.713	3.07
236.096	4.57
236.479	3.21
236.862	2.89
237.245	2.91
237.628	2.78
238.011	4.97
238.394	4.31
238.777	6.13
239.16	2.16
239.543	4.43
239.925	5.42
240.308	1.65
240.691	2.15
241.073	4.97
241.456	4.22
241.838	4.42
242.221	4.44
242.603	3.77
242.986	2.89
243.368	3.49
243.75	2.94
244.133	2.98
244.515	3.05
244.897	3.01
245.279	2.8
245.661	3.24
246.043	2.08
246.425	2.67
246.807	3.06
247.189	2.55
247.571	2.98
247.953	2.78
248.335	3.2
248.717	2.9
249.098	2.62
249.48	2.81
249.862	2.98
250.243	2.87
250.625	2.78
251.006	2.79
251.388	2.91
251.769	3.52
252.151	2.59
252.532	4.24
252.913	2.52
253.295	1.87
253.676	3.23
254.057	3.12
254.438	2.41
254.819	3.11
255.2	3.24
255.581	3.18
255.962	3.15
256.343	4.13
256.724	0.86
257.105	3.01
257.486	3.45
257.867	2.64
258.247	3.37
258.628	2.23
259.009	2.41
259.389	2.62
259.77	3.02
260.15	3
260.531	3.63
260.911	2.96
261.292	2.32
261.672	2.88
262.052	2.89
262.432	2.98
262.813	2.56
263.193	3.17
263.573	2.71
263.953	2.46
264.333	3.17
264.713	2.56
265.093	3.16
265.473	3.77
265.853	2.63
266.233	3.28
266.612	2.13
266.992	2.54
267.372	2.33
267.752	3.13
268.131	2.78
268.511	2.55
268.89	3.1
269.27	2.35
269.649	2.73
270.029	2.4
270.408	3.39
270.787	3.13
271.167	2.59
271.546	2.78
271.925	3.37
272.304	3.38
272.683	3.15
273.062	3.12
273.441	2.96
273.82	3.03
274.199	3.04
274.578	2.86
274.957	3.29
275.336	2.96
275.715	2.87
276.093	2.72
276.472	2.91
276.851	3.17
277.229	2.82
277.608	2.61
277.986	2.68
278.365	2.92
278.743	3.08
279.122	2.59
279.5	2.93
279.878	2.91
280.257	2.98
280.635	3
281.013	3.11
281.391	2.99
281.769	2.5
282.147	2.19
282.525	3.04
282.903	3.37
283.281	2.65
283.659	2.99
284.037	3.53
284.415	2.42
284.792	2.69
285.17	2.7
285.548	2.83
285.925	2.67
286.303	2.71
286.68	2.68
287.058	3.35
287.435	2.79
287.813	2.46
288.19	2.85
288.567	2.58
288.945	3.07
289.322	3.43
289.699	2.34
290.076	2.9
290.453	2.62
290.83	2.72
291.207	3.28
291.584	2.64
291.961	2.6
292.338	2.78
292.715	2.77
293.092	2.88
293.469	2.72
293.845	2.62
294.222	3.01
294.599	2.69
294.975	3.73
295.352	3
295.728	3.07
296.105	2.47
296.481	2.86
296.858	3.11
297.234	3.07
297.61	2.56
297.986	2.64
298.363	3.38
298.739	2.68
299.115	3.06
299.491	2.98
299.867	2.69
300.243	2.72
300.619	2.78
300.995	2.62
301.371	3.21
301.746	3.01
302.122	2.94
302.498	2.83
302.874	2.95
303.249	2.47
303.625	3.13
304	3.29
304.376	2.76
304.751	2.74
305.127	2.44
305.502	3.47
305.878	2.8
306.253	3.46
306.628	3.25
307.003	3.11
307.378	2.85
307.754	2.64
308.129	3.76
308.504	3.44
308.879	3.13
309.254	3.34
309.629	2.77
310.003	2.41
310.378	3.58
310.753	3.14
311.128	3.26
311.502	3.23
311.877	3.03
312.252	2.79
312.626	3.32
313.001	3.02
313.375	3
313.75	2.91
314.124	2.59
314.498	3.08
314.873	3.1
315.247	2.88
315.621	2.84
315.995	3.08
316.369	2.54
316.743	3.11
317.117	3.02
317.491	2.31
317.865	3.41
318.239	3.57
318.613	3.15
318.987	2.9
319.361	2.41
319.734	2.92
320.108	2.55
320.482	3.89
320.855	3.57
321.229	3.73
321.602	3.47
321.976	3.1
322.349	3.11
322.723	2.96
323.096	2.62
323.469	2.67
323.843	3.36
324.216	2.89
324.589	3.3
324.962	3.32
325.335	3.55
325.708	2.73
326.081	3.44
326.454	3.49
326.827	4.04
327.2	3.11
327.573	3.44
327.945	2.92
328.318	3.08
328.691	2.92
329.063	3.41
329.436	3.3
329.809	3.54
330.181	3.53
330.553	3.09
330.926	2.94
331.298	3.25
331.671	3.23
332.043	2.92
332.415	3.29
332.787	3.62
333.159	3.26
333.532	3.05
333.904	3.61
334.276	2.76
334.648	3.55
335.02	3.55
335.391	2.73
335.763	3.41
336.135	3.29
336.507	3.32
336.879	2.87
337.25	3.44
337.622	3.63
337.993	3.57
338.365	3.08
338.736	3.15
339.108	3.63
339.479	3.45
339.851	3.29
340.222	2.97
340.593	2.76
340.964	3.34
341.336	3.71
341.707	3.52
342.078	3.32
342.449	2.8
342.82	3.04
343.191	3.33
343.562	3.23
343.933	3.08
344.303	3.29
344.674	3.45
345.045	3.85
345.416	3.61
345.786	2.88
346.157	3.47
346.527	3.19
346.898	3.45
347.268	3.25
347.639	3.66
348.009	3.14
348.38	3.25
348.75	3.35
349.12	3.37
349.49	3.2
349.861	3.48
350.231	2.99
350.601	3.51
350.971	3.61
351.341	3.64
351.711	3.83
352.081	3.07
352.45	2.94
352.82	3.21
353.19	3.45
353.56	3.35
353.929	3.38
354.299	3.21
354.669	3.29
355.038	3.95
355.408	3.61
355.777	3.38
356.147	3.32
356.516	2.83
356.885	3.36
357.254	3.18
357.624	2.84
357.993	3.04
358.362	3.32
358.731	2.74
359.1	2.77
359.469	3.02
359.838	3.29
360.207	3.39
360.576	3.55
360.945	3.12
361.314	3.09
361.682	3.24
362.051	2.95
362.42	3.38
362.788	3.46
363.157	3.43
363.525	3.04
363.894	3.37
364.262	3.13
364.631	3.43
364.999	3.47
365.367	3.12
365.735	3.16
366.104	3.06
366.472	3.14
366.84	3.27
367.208	3.29
367.576	3.32
367.944	3.35
368.312	3.35
368.68	3.39
369.048	3.65
369.416	3.64
369.783	3.63
370.151	3.24
370.519	3.32
370.886	3.67
371.254	3.51
371.621	3.52
371.989	3.16
372.356	3.69
372.724	3.34
373.091	3.18
373.458	3.07
373.826	3.45
374.193	3.04
374.56	3.42
374.927	3.37
375.294	3.46
375.661	3.58
376.028	3.61
376.395	3.37
376.762	3.31
377.129	3.51
377.496	3.44
377.863	3.65
378.229	3.44
378.596	3.34
378.963	3.36
379.329	3.61
379.696	3.19
380.062	3.16
380.429	3.2
380.795	3.38
381.161	3.51
381.528	3.94
381.894	3.57
382.26	3.56
382.626	3.72
382.993	3.21
383.359	3.35
383.725	3.22
384.091	3.49
384.457	3.27
384.823	3.31
385.188	3.55
385.554	3.52
385.92	3.58
386.286	3.56
386.651	3.42
387.017	3.58
387.383	3.64
387.748	3.42
388.114	3.33
388.479	3.46
388.845	3.85
389.21	3.54
389.575	3.18
389.94	3.48
390.306	3.28
390.671	3.67
391.036	3.46
391.401	3.7
391.766	3.59
392.131	3.32
392.496	3.67
392.861	3.67
393.226	3.42
393.591	3.61
393.956	3.61
394.32	3.62
394.685	3.31
395.05	3.71
395.414	3.55
395.779	3.45
396.143	3.56
396.508	3.56
396.872	3.69
397.236	3.55
397.601	3.31
397.965	3.42
398.329	3.28
398.694	3.7
399.058	3.36
399.422	3.73
399.786	3.37
400.15	3.33
400.514	3.26
400.878	3.53
401.242	3.66
401.605	3.54
401.969	3.29
402.333	3.41
402.697	3.72
403.06	3.32
403.424	3.36
403.787	3.57
404.151	3.44
404.514	3.64
404.878	3.61
405.241	3.4
405.604	3.49
405.968	3.57
406.331	3.46
406.694	3.48
407.057	3.49
407.42	3.85
407.783	3.82
408.146	3.51
408.509	3.57
408.872	3.83
409.235	3.6
409.598	3.74
409.961	3.69
410.323	3.35
410.686	3.6
411.049	3.58
411.411	3.63
411.774	3.64
412.136	3.63
412.499	3.7
412.861	3.76
413.223	3.66
413.586	3.6
413.948	3.69
414.31	3.83
414.672	3.52
415.035	3.55
415.397	3.83
415.759	3.75
416.121	3.62
416.483	3.88
416.845	3.62
417.206	3.82
417.568	3.63
417.93	3.65
418.292	3.52
418.653	3.59
419.015	3.62
419.377	3.59
419.738	3.58
420.1	3.39
420.461	3.7
420.822	3.51
421.184	3.48
421.545	3.53
421.906	3.65
422.267	3.59
422.629	3.61
422.99	3.44
423.351	3.52
423.712	3.51
424.073	3.57
424.434	3.54
424.795	3.63
425.155	3.58
425.516	3.49
425.877	3.65
426.238	3.53
426.598	3.62
426.959	3.5
427.32	3.59
427.68	3.62
428.041	3.52
428.401	3.67
428.761	3.69
429.122	3.5
429.482	3.62
429.842	3.7
430.202	3.71
430.563	3.78
430.923	3.83
431.283	3.71
431.643	3.82
432.003	3.76
432.363	3.63
432.722	3.63
433.082	3.64
433.442	3.61
433.802	3.84
434.161	3.49
434.521	3.94
434.881	3.72
435.24	3.69
435.6	3.62
435.959	3.6
436.319	3.73
436.678	3.86
437.037	3.73
437.396	3.81
437.756	3.91
438.115	3.67
438.474	3.85
438.833	3.82
439.192	3.51
439.551	3.62
439.91	3.67
440.269	3.63
440.628	3.79
440.987	3.83
441.345	3.67
441.704	3.69
442.063	3.67
442.421	3.59
442.78	3.64
443.138	3.79
443.497	3.85
443.855	3.67
444.214	3.66
444.572	3.55
444.93	3.77
445.288	3.81
445.647	3.89
446.005	3.65
446.363	3.71
446.721	3.84
447.079	3.85
447.437	3.73
447.795	3.72
448.153	3.63
448.51	3.68
448.868	3.71
449.226	3.7
449.584	3.72
449.941	3.87
450.299	3.8
450.656	3.68
451.014	3.78
451.371	3.86
451.729	3.69
452.086	3.86
452.443	3.7
452.801	3.79
453.158	3.87
453.515	3.9
453.872	3.89
454.229	3.91
454.586	4.12
454.943	3.81
455.3	3.74
455.657	3.88
456.014	3.86
456.371	3.98
456.727	3.89
457.084	4.03
457.441	3.95
457.797	4.05
458.154	3.8
458.51	3.89
458.867	3.88
459.223	3.89
459.58	3.95
459.936	3.84
460.292	3.84
460.648	3.71
461.005	3.78
461.361	3.89
461.717	3.67
462.073	3.81
462.429	3.82
462.785	3.77
463.141	3.86
463.496	3.89
463.852	4
464.208	4.07
464.564	4.03
464.919	3.92
465.275	4
465.631	4.03
465.986	3.93
466.342	4.09
466.697	3.97
467.052	3.91
467.408	3.9
467.763	3.98
468.118	4.14
468.473	3.96
468.829	3.97
469.184	4.02
469.539	3.99
469.894	3.99
470.249	3.99
470.603	3.94
470.958	3.97
471.313	4.14
471.668	3.94
472.023	4.08
472.377	4.03
472.732	3.9
473.086	4.22
473.441	4.05
473.795	4.29
474.15	4.04
474.504	3.84
474.859	3.96
475.213	4.14
475.567	4.2
475.921	4.15
476.275	3.96
476.63	4.31
476.984	4.25
477.338	4.09
477.692	4.06
478.045	4.11
478.399	4.17
478.753	4.07
479.107	4.22
479.461	4.25
479.814	4.17
480.168	4.19
480.521	4.05
480.875	4.06
481.228	4.12
481.582	4.24
481.935	3.97
482.289	4.08
482.642	4.18
482.995	4.14
483.348	4.05
483.701	4.02
484.055	4.03
484.408	4.05
484.761	3.89
485.114	3.96
485.466	3.92
485.819	3.84
486.172	3.77
486.525	3.8
486.878	3.83
487.23	3.95
487.583	3.96
487.936	3.94
488.288	3.91
488.641	4.05
488.993	3.98
489.345	4.01
489.698	3.95
490.05	3.88
490.402	3.9
490.754	3.96
491.107	4
491.459	4.08
491.811	4.06
492.163	4.08
492.515	4.23
492.866	4.13
493.218	3.97
493.57	3.99
493.922	3.98
494.274	4.02
494.625	4.09
494.977	4.02
495.328	4.2
495.68	4.17
496.031	4.22
496.383	4.34
496.734	4.32
497.086	4.25
497.437	4.33
497.788	4.15
498.139	4.48
498.49	4.25
498.842	4.13
499.193	4.26
499.544	4.31
499.894	4.24
500.245	4.24
500.596	4.29
500.947	4.35
501.298	4.28
501.648	4.22
501.999	4.39
502.35	4.34
502.7	4.45
503.051	4.34
503.401	4.33
503.752	4.38
504.102	4.55
504.452	4.22
504.803	4.33
505.153	4.45
505.503	4.46
505.853	4.58
506.203	4.3
506.553	4.3
506.903	4.27
507.253	4.44
507.603	4.4
507.953	4.49
508.303	4.39
508.652	4.5
509.002	4.37
509.352	4.5
509.701	4.5
510.051	4.4
510.4	4.5
510.75	4.45
511.099	4.41
511.449	4.47
511.798	4.48
512.147	4.49
512.496	4.41
512.846	4.37
513.195	4.48
513.544	4.51
513.893	4.45
514.242	4.43
514.591	4.51
514.939	4.54
515.288	4.4
515.637	4.53
515.986	4.69
516.334	4.55
516.683	4.54
517.032	4.44
517.38	4.5
517.729	4.48
518.077	4.6
518.426	4.65
518.774	4.49
519.122	4.6
519.47	4.61
519.819	4.55
520.167	4.57
520.515	4.6
520.863	4.58
521.211	4.58
521.559	4.64
521.907	4.53
522.255	4.59
522.602	4.68
522.95	4.57
523.298	4.69
523.645	4.81
523.993	4.6
524.341	4.79
524.688	4.71
525.036	4.87
525.383	4.69
525.73	4.87
526.078	4.65
526.425	4.83
526.772	4.74
527.119	4.71
527.466	4.65
527.814	4.77
528.161	4.71
528.508	4.63
528.854	4.76
529.201	4.7
529.548	4.86
529.895	4.73
530.242	4.7
530.588	4.56
530.935	4.56
531.282	4.59
531.628	4.72
531.975	4.64
532.321	4.7
532.667	4.79
533.014	4.8
533.36	4.91
533.706	4.9
534.052	4.91
534.399	4.93
534.745	4.78
535.091	4.8
535.437	4.84
535.783	4.82
536.129	4.86
536.474	4.87
536.82	5.03
537.166	4.98
537.512	5.11
537.857	4.99
538.203	5
538.549	5.17
538.894	4.99
539.239	5.08
539.585	5.01
539.93	5.08
540.276	5.09
540.621	5.22
540.966	5.27
541.311	5.32
541.656	5.26
542.001	5.27
542.346	5.21
542.691	5.12
543.036	5.04
543.381	5.11
543.726	4.99
544.071	5.03
544.415	5.13
544.76	5.12
545.105	5.27
545.449	5.2
545.794	5.28
546.138	5.22
546.483	5.32
546.827	5.4
547.171	5.47
547.516	5.44
547.86	5.49
548.204	5.29
548.548	5.38
548.892	5.44
549.236	5.46
549.58	5.42
549.924	5.47
550.268	5.51
550.612	5.51
550.956	5.73
551.3	5.68
551.643	5.57
551.987	5.72
552.33	5.59
552.674	5.59
553.017	5.61
553.361	5.73
553.704	5.92
554.048	5.86
554.391	5.9
554.734	5.85
555.077	5.81
555.42	5.7
555.764	5.77
556.107	5.98
556.45	5.86
556.793	5.64
557.135	5.73
557.478	5.86
557.821	5.98
558.164	6.24
558.507	5.97
558.849	6.06
559.192	6.09
559.534	6.26
559.877	5.98
560.219	6.13
560.562	6.13
560.904	5.88
561.246	6.16
561.589	5.84
561.931	6.23
562.273	6.23
562.615	6.36
562.957	6.32
563.299	6.24
563.641	6.11
563.983	6.3
564.325	6.21
564.667	6.34
565.008	6.27
565.35	6.37
565.692	6.3
566.033	6.46
566.375	6.44
566.716	6.42
567.058	6.19
567.399	6.55
567.741	6.6
568.082	6.46
568.423	6.58
568.764	6.32
569.105	6.49
569.447	6.57
569.788	6.63
570.129	6.54
570.47	6.61
570.811	6.64
571.151	6.75
571.492	6.81
571.833	6.74
572.174	6.89
572.514	6.83
572.855	6.75
573.195	6.87
573.536	6.77
573.876	6.96
574.217	6.66
574.557	6.77
574.898	6.73
575.238	6.76
575.578	6.74
575.918	6.95
576.258	6.82
576.598	7.01
576.938	6.96
577.278	6.95
577.618	6.88
577.958	6.93
578.298	7.03
578.638	7.08
578.977	7.19
579.317	7.02
579.657	7.11
579.996	7.22
580.336	7.25
580.675	7.19
581.014	7.37
581.354	7.48
581.693	7.43
582.032	7.44
582.372	7.49
582.711	7.58
583.05	7.46
583.389	7.36
583.728	7.65
584.067	7.47
584.406	7.42
584.745	7.55
585.083	7.78
585.422	7.52
585.761	7.77
586.1	7.76
586.438	7.61
586.777	7.65
587.115	7.84
587.454	7.77
587.792	7.52
588.13	7.8
588.469	7.79
588.807	7.43
589.145	7.74
589.483	7.86
589.821	8.15
590.159	7.9
590.497	8.17
590.835	8.21
591.173	7.97
591.511	8.04
591.849	7.83
592.187	8.35
592.524	8.07
592.862	8.09
593.2	8.3
593.537	8.2
593.875	8.45
594.212	8.49
594.55	8.45
594.887	8.33
595.224	8.08
595.561	8.38
595.899	8.33
596.236	8.46
596.573	8.7
596.91	8.61
597.247	8.51
597.584	8.37
597.921	8.51
598.258	8.78
598.594	8.69
598.931	8.55
599.268	8.57
599.604	8.48
599.941	8.57
600.277	8.53
600.614	8.82
600.95	8.72
601.287	8.79
601.623	8.81
601.959	8.98
602.296	8.94
602.632	9.12
602.968	8.69
603.304	9.23
603.64	8.84
603.976	9.04
604.312	9.23
604.648	9.24
604.984	8.99
605.319	9
605.655	9.19
605.991	9.3
606.326	9.09
606.662	9.4
606.998	9.08
607.333	9.14
607.668	9.15
608.004	9.2
608.339	9.37
608.674	9.42
609.01	9.38
609.345	9.7
609.68	9.63
610.015	9.47
610.35	9.63
610.685	9.56
611.02	9.51
611.355	9.39
611.689	9.62
612.024	9.66
612.359	9.64
612.694	9.78
613.028	9.84
613.363	9.8
613.697	9.81
614.032	9.87
614.366	10.06
614.7	9.86
615.035	9.98
615.369	10.16
615.703	10.01
616.037	10.13
616.371	10.11
616.705	10.11
617.039	10.08
617.373	10.15
617.707	10.42
618.041	10.14
618.375	10.4
618.709	10.22
619.042	10.39
619.376	10.74
619.71	10.41
620.043	10.61
620.377	10.27
620.71	10.84
621.043	10.62
621.377	10.46
621.71	10.71
622.043	10.76
622.376	10.64
622.709	10.77
623.043	11.04
623.376	10.71
623.709	10.56
624.041	10.53
624.374	10.95
624.707	11.01
625.04	11.13
625.373	11.08
625.705	10.67
626.038	11.16
626.37	10.69
626.703	10.92
627.035	11.19
627.368	11.29
627.7	11.35
628.032	11.25
628.365	11.43
628.697	11.46
629.029	11.2
629.361	11.4
629.693	11.22
630.025	11.25
630.357	11.34
630.689	11.26
631.021	11.62
631.353	11.51
631.684	11.39
632.016	11.92
632.348	11.67
632.679	11.43
633.011	11.58
633.342	11.65
633.674	11.9
634.005	12.16
634.336	12.36
634.668	11.47
634.999	11.99
635.33	11.78
635.661	11.81
635.992	12.09
636.323	12.55
636.654	12
636.985	12.04
637.316	12.19
637.647	12.56
637.977	12.11
638.308	12.19
638.639	12.34
638.969	12.06
639.3	12.39
639.63	12.37
639.961	12.74
640.291	12.19
640.622	12.57
640.952	12.73
641.282	12.69
641.612	13.1
641.943	12.66
642.273	12.23
642.603	12.91
642.933	12.92
643.263	13.03
643.592	12.65
643.922	13.3
644.252	12.72
644.582	12.9
644.911	13.04
645.241	13.34
645.571	13.47
645.9	13.1
646.23	13.29
646.559	12.72
646.888	13.11
647.218	13.21
647.547	13.04
647.876	13.29
648.205	13.13
648.534	13.44
648.863	13.2
649.192	13.32
649.521	13.24
649.85	13.74
650.179	13.07
650.508	13.36
650.837	13.43
651.165	13.71
651.494	13.5
651.822	13.56
652.151	13.67
652.479	14.13
652.808	13.76
653.136	13.77
653.465	14.38
653.793	14.16
654.121	13.8
654.449	14.34
654.777	14.07
655.105	13.96
655.433	14.56
655.761	14.39
656.089	13.99
656.417	14.11
656.745	14.44
657.073	13.77
657.4	14.9
657.728	14.88
658.056	14.3
658.383	14.6
658.711	14.41
659.038	14.82
659.365	14.88
659.693	14.67
660.02	14.54
660.347	14.24
660.674	14.42
661.001	14.25
661.329	14.89
661.656	14.86
661.982	14.56
662.309	14.86
662.636	14.75
662.963	15.07
663.29	14.95
663.616	15.27
663.943	14.63
664.27	15.11
664.596	15.47
664.923	15.48
665.249	15.63
665.576	15.12
665.902	15.34
666.228	15.08
666.554	15.56
666.881	14.94
667.207	14.96
667.533	15.93
667.859	15.36
668.185	15.51
668.511	15.87
668.837	16.09
669.162	16.2
669.488	15.87
669.814	15.3
670.139	15.75
670.465	16.11
670.791	15.83
671.116	15.69
671.442	15.88
671.767	15.74
672.092	16.55
672.418	16.13
672.743	15.94
673.068	16.51
673.393	15.99
673.718	15.87
674.043	15.72
674.368	16.61
674.693	16.4
675.018	16.96
675.343	16.3
675.667	16.24
675.992	16.7
676.317	16.5
676.641	16.71
676.966	16.47
677.29	16.67
677.615	16.61
677.939	15.68
678.264	16.51
678.588	16.39
678.912	16.99
679.236	17.06
679.56	16.63
679.885	17.15
680.209	16.9
680.532	16.79
680.856	16.84
681.18	17.53
681.504	17.38
681.828	17.53
682.152	17.38
682.475	17.12
682.799	17.08
683.122	17.63
683.446	17.63
683.769	16.87
684.093	18.16
684.416	17.56
684.739	17.17
685.062	16.41
685.386	17.12
685.709	17.51
686.032	17.47
686.355	18.46
686.678	18.09
687.001	17.74
