Data from 0365_crown_Reflection__2__301.txt Node

Date: Fri Oct 20 23:06:04 CDT 2023
User: ToomeyLab
Spectrometer: FLMS14357
Trigger mode: 0
Integration Time (sec): 1.000000E-2
Scans to average: 100
Electric dark correction enabled: true
Nonlinearity correction enabled: false
Boxcar width: 0
XAxis mode: Wavelengths
Number of Pixels in Spectrum: 2048
>>>>>Begin Spectral Data<<<<<
189.047	-138.21
189.435	-138.21
189.823	-138.21
190.211	21.13
190.599	-417.83
190.987	112.75
191.375	85.68
191.763	168.41
192.151	129.03
192.538	-27.54
192.926	2572.97
193.314	68.16
193.702	71.75
194.089	157.34
194.477	204.87
194.864	273.22
195.252	83.49
195.639	-143.05
196.027	-605.43
196.414	112.8
196.801	14.66
197.189	-56.65
197.576	258.55
197.963	-471.47
198.351	47.26
198.738	-13.07
199.125	40.7
199.512	41.19
199.899	23.6
200.286	-12.64
200.673	27.77
201.06	-4.28
201.447	36.88
201.833	62.22
202.22	26.17
202.607	23.49
202.994	26.36
203.38	3.4
203.767	8.76
204.154	32.75
204.54	37.12
204.927	15.11
205.313	8.53
205.699	40.07
206.086	43.27
206.472	28.34
206.858	48.15
207.245	-4.43
207.631	16.64
208.017	41.23
208.403	5.27
208.789	17.22
209.175	-7.67
209.561	8.97
209.947	-3.89
210.333	49.42
210.719	-39.65
211.105	24.13
211.491	2.46
211.876	-19.76
212.262	32.62
212.648	3.18
213.034	-36.3
213.419	11.15
213.805	0.32
214.19	6.72
214.576	-0.09
214.961	11.98
215.346	23.14
215.732	16.66
216.117	-13.31
216.502	-6.62
216.888	-0.54
217.273	1.84
217.658	-4.66
218.043	3.32
218.428	24.58
218.813	23.42
219.198	11.67
219.583	-36.74
219.968	-29.78
220.353	16.06
220.738	11.04
221.122	5.38
221.507	15.29
221.892	-4.2
222.276	25.23
222.661	16.55
223.046	16.99
223.43	24.85
223.815	20.41
224.199	26.21
224.583	10.52
224.968	12.58
225.352	3.9
225.736	10.91
226.121	19.23
226.505	1.84
226.889	7.98
227.273	9.27
227.657	6.24
228.041	17.85
228.425	5.69
228.809	12.12
229.193	8.92
229.577	13.41
229.961	9.4
230.344	10.12
230.728	10.42
231.112	11.42
231.495	11.07
231.879	11.6
232.263	11.43
232.646	10.07
233.03	9.98
233.413	11.48
233.797	10.47
234.18	12.65
234.563	10.06
234.946	9.52
235.33	12.09
235.713	10.22
236.096	12.16
236.479	11.08
236.862	11.05
237.245	11.13
237.628	9.29
238.011	11.12
238.394	9.61
238.777	11.05
239.16	11.9
239.543	11.59
239.925	13.14
240.308	11.28
240.691	8.73
241.073	10.67
241.456	11.24
241.838	11.29
242.221	11.48
242.603	10.73
242.986	10.85
243.368	10.82
243.75	10.87
244.133	9.99
244.515	10.41
244.897	10.51
245.279	10.42
245.661	10.18
246.043	10.38
246.425	9.72
246.807	10.14
247.189	9.87
247.571	9.48
247.953	10.42
248.335	10.34
248.717	9.59
249.098	10.14
249.48	10.02
249.862	10.11
250.243	10.44
250.625	10.16
251.006	10.25
251.388	10.21
251.769	10.85
252.151	9.22
252.532	10.2
252.913	10.75
253.295	8.64
253.676	10.22
254.057	9.58
254.438	9.73
254.819	9.86
255.2	9.43
255.581	9.89
255.962	10.42
256.343	9.54
256.724	8.08
257.105	9.53
257.486	10.75
257.867	10.19
258.247	9.16
258.628	9.28
259.009	9.11
259.389	9.12
259.77	9.25
260.15	9.94
260.531	9.82
260.911	9.86
261.292	9.27
261.672	9.54
262.052	9.69
262.432	9.51
262.813	9.36
263.193	9.69
263.573	9.25
263.953	9.2
264.333	9.56
264.713	9.42
265.093	9.95
265.473	9.52
265.853	9.1
266.233	9.46
266.612	8.64
266.992	9.11
267.372	9.65
267.752	9.52
268.131	9.54
268.511	9.17
268.89	9.7
269.27	9.06
269.649	8.52
270.029	8.92
270.408	9.09
270.787	9.17
271.167	8.91
271.546	9.16
271.925	9.82
272.304	9.11
272.683	9.13
273.062	8.78
273.441	9.27
273.82	9.13
274.199	9.34
274.578	9.19
274.957	8.98
275.336	8.94
275.715	9.18
276.093	8.94
276.472	9.22
276.851	8.84
277.229	8.91
277.608	8.91
277.986	7.86
278.365	8.98
278.743	8.76
279.122	8.36
279.5	8.11
279.878	8.12
280.257	8.43
280.635	9.14
281.013	9.84
281.391	8.38
281.769	8.34
282.147	8.65
282.525	8.87
282.903	8.37
283.281	8.17
283.659	8.6
284.037	8.29
284.415	7.54
284.792	8.52
285.17	8.64
285.548	8.44
285.925	7.85
286.303	8.46
286.68	7.99
287.058	8.6
287.435	8.62
287.813	7.66
288.19	7.94
288.567	8.12
288.945	8.29
289.322	8.48
289.699	7.59
290.076	8.56
290.453	8.53
290.83	8.03
291.207	8.36
291.584	7.64
291.961	8.03
292.338	7.31
292.715	7.93
293.092	7.88
293.469	8.13
293.845	7.85
294.222	8.23
294.599	7.89
294.975	8.3
295.352	7.49
295.728	8.14
296.105	7.82
296.481	7.84
296.858	7.4
297.234	8.13
297.61	7.59
297.986	7.57
298.363	7.82
298.739	7.76
299.115	7.85
299.491	7.44
299.867	7.59
300.243	7.28
300.619	7.83
300.995	7.68
301.371	7.75
301.746	7.43
302.122	7.77
302.498	7.38
302.874	7
303.249	7.85
303.625	6.98
304	7.64
304.376	7.12
304.751	6.53
305.127	6.76
305.502	8.01
305.878	7.18
306.253	7.42
306.628	7.46
307.003	7.44
307.378	7.24
307.754	7.28
308.129	7.51
308.504	7.09
308.879	7.19
309.254	7.28
309.629	6.65
310.003	6.79
310.378	7.06
310.753	7.38
311.128	7.22
311.502	7.16
311.877	7.15
312.252	6.97
312.626	6.79
313.001	7.24
313.375	6.8
313.75	6.87
314.124	7.04
314.498	6.98
314.873	6.87
315.247	6.57
315.621	7.03
315.995	6.86
316.369	6.68
316.743	6.64
317.117	6.52
317.491	6.45
317.865	7.3
318.239	7.16
318.613	6.88
318.987	6.31
319.361	6.2
319.734	6.7
320.108	6.1
320.482	6.69
320.855	7.01
321.229	7.23
321.602	7.47
321.976	6.58
322.349	7.44
322.723	6.46
323.096	6.7
323.469	6.26
323.843	6.26
324.216	6.25
324.589	6.29
324.962	6.95
325.335	6.78
325.708	6.46
326.081	6.8
326.454	6.77
326.827	6.92
327.2	6.67
327.573	6.83
327.945	6.22
328.318	6.72
328.691	6.46
329.063	7.25
329.436	6.46
329.809	6.43
330.181	6.92
330.553	6.68
330.926	6.41
331.298	6.07
331.671	6.15
332.043	6.5
332.415	6.9
332.787	6.7
333.159	5.86
333.532	6.27
333.904	6.81
334.276	5.93
334.648	6.3
335.02	6.6
335.391	6.42
335.763	6.6
336.135	6.62
336.507	6.27
336.879	6.45
337.25	6.5
337.622	6.82
337.993	6.26
338.365	6.26
338.736	6.76
339.108	6.42
339.479	5.81
339.851	6.46
340.222	6.03
340.593	6.01
340.964	6.81
341.336	6.32
341.707	6.19
342.078	6.53
342.449	6.35
342.82	6.13
343.191	6.29
343.562	6.87
343.933	6.33
344.303	6.58
344.674	6.87
345.045	6.46
345.416	6.35
345.786	6.12
346.157	6.58
346.527	6.41
346.898	6.48
347.268	6.44
347.639	6.73
348.009	6.11
348.38	6.61
348.75	6.22
349.12	6.44
349.49	6.49
349.861	6.25
350.231	6.48
350.601	6.79
350.971	6.76
351.341	6.51
351.711	6.93
352.081	6.71
352.45	6.23
352.82	6.6
353.19	6.86
353.56	6.41
353.929	6.28
354.299	6.54
354.669	6.19
355.038	6.88
355.408	6.65
355.777	6.66
356.147	6.5
356.516	6.46
356.885	6.67
357.254	6.61
357.624	6.24
357.993	6.43
358.362	6.96
358.731	6
359.1	5.99
359.469	6.44
359.838	6.32
360.207	6.47
360.576	6.66
360.945	6.13
361.314	6.7
361.682	6.66
362.051	6.57
362.42	6.49
362.788	6.76
363.157	6.67
363.525	6.39
363.894	6.64
364.262	6.66
364.631	6.48
364.999	6.6
365.367	6.84
365.735	6.17
366.104	6.8
366.472	6.86
366.84	6.66
367.208	6.9
367.576	6.65
367.944	6.69
368.312	6.52
368.68	7
369.048	6.74
369.416	6.97
369.783	6.95
370.151	6.96
370.519	6.72
370.886	7.04
371.254	6.98
371.621	7.18
371.989	6.69
372.356	7.01
372.724	7.16
373.091	6.74
373.458	6.73
373.826	7.08
374.193	6.85
374.56	6.85
374.927	7.24
375.294	6.86
375.661	7.1
376.028	7.11
376.395	7.17
376.762	7.19
377.129	7.01
377.496	7.08
377.863	7.35
378.229	7.25
378.596	7.05
378.963	7.09
379.329	6.96
379.696	7.39
380.062	7.21
380.429	6.86
380.795	6.87
381.161	6.8
381.528	7.31
381.894	7.1
382.26	7.56
382.626	7.23
382.993	7.31
383.359	7.28
383.725	7.41
384.091	7.46
384.457	7.27
384.823	7.15
385.188	7.81
385.554	7.19
385.92	7.24
386.286	7.42
386.651	7.03
387.017	7.24
387.383	7.4
387.748	7.14
388.114	7.42
388.479	7.15
388.845	7.45
389.21	7.11
389.575	7
389.94	7.33
390.306	7.12
390.671	7.27
391.036	7.61
391.401	7.76
391.766	7.56
392.131	7.32
392.496	7.55
392.861	7.67
393.226	7.56
393.591	7.48
393.956	7.52
394.32	7.77
394.685	7.29
395.05	7.45
395.414	7.69
395.779	7.45
396.143	7.5
396.508	7.55
396.872	7.5
397.236	7.71
397.601	7.57
397.965	7.44
398.329	7.4
398.694	7.57
399.058	7.4
399.422	7.6
399.786	7.48
400.15	7.69
400.514	7.49
400.878	7.7
401.242	7.91
401.605	7.63
401.969	7.58
402.333	7.45
402.697	7.99
403.06	7.62
403.424	7.47
403.787	7.64
404.151	7.45
404.514	7.72
404.878	7.84
405.241	7.72
405.604	7.79
405.968	7.78
406.331	7.68
406.694	7.67
407.057	7.64
407.42	7.96
407.783	7.95
408.146	7.69
408.509	7.83
408.872	7.79
409.235	7.65
409.598	7.95
409.961	7.8
410.323	8.12
410.686	7.82
411.049	8.08
411.411	7.82
411.774	8.04
412.136	7.91
412.499	7.99
412.861	8.03
413.223	7.92
413.586	8.05
413.948	7.93
414.31	8.22
414.672	8
415.035	7.94
415.397	8.14
415.759	8.13
416.121	7.82
416.483	8.03
416.845	8.03
417.206	8.13
417.568	8.1
417.93	8.04
418.292	7.75
418.653	7.99
419.015	7.85
419.377	7.96
419.738	7.95
420.1	8.02
420.461	7.93
420.822	7.96
421.184	8.01
421.545	7.94
421.906	7.86
422.267	7.94
422.629	8.04
422.99	7.81
423.351	7.94
423.712	7.86
424.073	8.03
424.434	8.04
424.795	7.95
425.155	7.93
425.516	7.93
425.877	8.05
426.238	7.91
426.598	8
426.959	8.01
427.32	7.94
427.68	8.02
428.041	8.06
428.401	8.09
428.761	8.18
429.122	8.14
429.482	8.16
429.842	8.24
430.202	8.17
430.563	8.25
430.923	8.4
431.283	8.3
431.643	8.34
432.003	8.47
432.363	8.19
432.722	8.4
433.082	8.15
433.442	8.34
433.802	8.37
434.161	8.1
434.521	8.4
434.881	8.36
435.24	8.09
435.6	8.15
435.959	8.09
436.319	8.32
436.678	8.27
437.037	8.27
437.396	8.42
437.756	8.35
438.115	8.17
438.474	8.36
438.833	8.49
439.192	8.27
439.551	8.35
439.91	8.33
440.269	8.6
440.628	8.34
440.987	8.4
441.345	8.2
441.704	8.47
442.063	8.53
442.421	8.36
442.78	8.43
443.138	8.48
443.497	8.36
443.855	8.53
444.214	8.47
444.572	8.33
444.93	8.54
445.288	8.47
445.647	8.74
446.005	8.2
446.363	8.59
446.721	8.52
447.079	8.51
447.437	8.44
447.795	8.36
448.153	8.44
448.51	8.4
448.868	8.4
449.226	8.35
449.584	8.43
449.941	8.47
450.299	8.57
450.656	8.43
451.014	8.45
451.371	8.62
451.729	8.48
452.086	8.58
452.443	8.61
452.801	8.55
453.158	8.77
453.515	8.57
453.872	8.68
454.229	8.62
454.586	8.61
454.943	8.67
455.3	8.61
455.657	8.55
456.014	8.61
456.371	8.74
456.727	8.67
457.084	8.66
457.441	8.51
457.797	8.62
458.154	8.43
458.51	8.6
458.867	8.58
459.223	8.67
459.58	8.79
459.936	8.74
460.292	8.6
460.648	8.49
461.005	8.6
461.361	8.64
461.717	8.39
462.073	8.48
462.429	8.52
462.785	8.47
463.141	8.72
463.496	8.69
463.852	8.75
464.208	8.81
464.564	8.75
464.919	8.53
465.275	8.78
465.631	8.8
465.986	8.8
466.342	8.89
466.697	8.82
467.052	8.67
467.408	8.75
467.763	8.9
468.118	8.89
468.473	8.7
468.829	8.75
469.184	8.57
469.539	8.82
469.894	8.86
470.249	8.72
470.603	8.55
470.958	8.73
471.313	8.89
471.668	8.81
472.023	8.76
472.377	8.81
472.732	8.73
473.086	8.95
473.441	9
473.795	9.01
474.15	8.93
474.504	8.68
474.859	8.77
475.213	8.8
475.567	8.87
475.921	8.82
476.275	8.83
476.63	8.99
476.984	8.87
477.338	8.68
477.692	8.91
478.045	8.81
478.399	8.84
478.753	8.89
479.107	8.81
479.461	8.91
479.814	8.98
480.168	9.05
480.521	8.9
480.875	8.86
481.228	8.89
481.582	9.01
481.935	8.89
482.289	8.9
482.642	8.83
482.995	8.83
483.348	8.98
483.701	8.84
484.055	8.8
484.408	8.83
484.761	8.71
485.114	8.56
485.466	8.53
485.819	8.46
486.172	8.37
486.525	8.37
486.878	8.4
487.23	8.47
487.583	8.54
487.936	8.62
488.288	8.69
488.641	8.67
488.993	8.6
489.345	8.58
489.698	8.55
490.05	8.49
490.402	8.48
490.754	8.6
491.107	8.58
491.459	8.72
491.811	8.65
492.163	8.73
492.515	8.81
492.866	8.81
493.218	8.65
493.57	8.65
493.922	8.61
494.274	8.69
494.625	8.64
494.977	8.7
495.328	8.7
495.68	8.93
496.031	8.89
496.383	8.96
496.734	9.03
497.086	9.05
497.437	9
497.788	8.85
498.139	8.99
498.49	8.93
498.842	8.87
499.193	8.94
499.544	8.9
499.894	8.83
500.245	8.8
500.596	8.97
500.947	8.92
501.298	8.89
501.648	8.81
501.999	8.97
502.35	8.87
502.7	9.07
503.051	9.01
503.401	9.05
503.752	9.02
504.102	8.93
504.452	9.01
504.803	8.97
505.153	9.08
505.503	9.1
505.853	9.05
506.203	8.9
506.553	8.95
506.903	9.03
507.253	9.08
507.603	8.97
507.953	9.08
508.303	8.92
508.652	9.04
509.002	9.02
509.352	8.9
509.701	8.98
510.051	8.87
510.4	8.93
510.75	9.06
511.099	8.97
511.449	8.95
511.798	9.08
512.147	9
512.496	9.14
512.846	8.95
513.195	9
513.544	8.89
513.893	8.96
514.242	8.9
514.591	9.04
514.939	8.9
515.288	8.93
515.637	9
515.986	9
516.334	8.91
516.683	9.02
517.032	8.91
517.38	8.89
517.729	9.11
518.077	9.04
518.426	8.96
518.774	8.89
519.122	9
519.47	9.1
519.819	8.93
520.167	8.86
520.515	8.9
520.863	8.93
521.211	8.9
521.559	8.9
521.907	8.86
522.255	8.87
522.602	8.96
522.95	8.98
523.298	8.82
523.645	8.98
523.993	8.99
524.341	9.1
524.688	9.02
525.036	9.04
525.383	8.99
525.73	9.04
526.078	9.04
526.425	9.11
526.772	8.98
527.119	8.81
527.466	8.75
527.814	8.89
528.161	8.87
528.508	8.81
528.854	8.86
529.201	8.8
529.548	8.84
529.895	8.78
530.242	8.75
530.588	8.62
530.935	8.54
531.282	8.62
531.628	8.61
531.975	8.58
532.321	8.62
532.667	8.74
533.014	8.74
533.36	8.9
533.706	8.86
534.052	8.83
534.399	8.74
534.745	8.67
535.091	8.74
535.437	8.76
535.783	8.72
536.129	8.73
536.474	8.65
536.82	8.81
537.166	8.85
537.512	8.84
537.857	8.89
538.203	8.78
538.549	8.9
538.894	8.77
539.239	8.81
539.585	8.83
539.93	8.8
540.276	8.98
540.621	8.9
540.966	8.94
541.311	9.04
541.656	8.93
542.001	9.09
542.346	8.92
542.691	8.79
543.036	8.79
543.381	8.64
543.726	8.54
544.071	8.63
544.415	8.62
544.76	8.58
545.105	8.7
545.449	8.75
545.794	8.82
546.138	8.72
546.483	8.86
546.827	8.89
547.171	8.72
547.516	8.81
547.86	8.88
548.204	8.69
548.548	8.96
548.892	8.8
549.236	8.89
549.58	8.79
549.924	8.78
550.268	8.93
550.612	8.85
550.956	9.02
551.3	8.74
551.643	8.85
551.987	8.92
552.33	8.95
552.674	8.97
553.017	8.95
553.361	8.85
553.704	9.08
554.048	8.95
554.391	8.87
554.734	8.91
555.077	8.83
555.42	8.66
555.764	8.95
556.107	8.99
556.45	8.89
556.793	8.66
557.135	8.68
557.478	8.78
557.821	8.94
558.164	8.92
558.507	8.84
558.849	8.9
559.192	8.89
559.534	9.1
559.877	8.66
560.219	8.91
560.562	8.95
560.904	8.67
561.246	8.73
561.589	8.77
561.931	9
562.273	9.04
562.615	9.02
562.957	8.78
563.299	8.89
563.641	9.04
563.983	8.92
564.325	8.76
564.667	8.99
565.008	8.7
565.35	8.88
565.692	8.78
566.033	8.8
566.375	8.86
566.716	8.92
567.058	8.72
567.399	8.92
567.741	8.68
568.082	8.84
568.423	8.85
568.764	8.58
569.105	8.82
569.447	8.73
569.788	8.86
570.129	8.68
570.47	8.75
570.811	8.92
571.151	8.58
571.492	8.7
571.833	8.76
572.174	8.84
572.514	8.71
572.855	8.68
573.195	8.58
573.536	8.62
573.876	8.78
574.217	8.46
574.557	8.56
574.898	8.45
575.238	8.61
575.578	8.64
575.918	8.45
576.258	8.68
576.598	8.75
576.938	8.72
577.278	8.93
577.618	8.71
577.958	8.59
578.298	8.73
578.638	8.72
578.977	8.6
579.317	8.62
579.657	8.68
579.996	8.73
580.336	8.75
580.675	8.52
581.014	8.48
581.354	8.69
581.693	8.75
582.032	8.71
582.372	8.67
582.711	8.74
583.05	8.69
583.389	8.58
583.728	8.72
584.067	8.68
584.406	8.45
584.745	8.66
585.083	8.46
585.422	8.43
585.761	8.5
586.1	8.71
586.438	8.28
586.777	8.64
587.115	8.7
587.454	8.47
587.792	8.44
588.13	8.65
588.469	8.62
588.807	8.15
589.145	8.48
589.483	8.44
589.821	8.38
590.159	8.56
590.497	8.48
590.835	8.33
591.173	8.17
591.511	8.54
591.849	8.38
592.187	8.45
592.524	8.41
592.862	8.39
593.2	8.38
593.537	8.42
593.875	8.49
594.212	8.55
594.55	8.45
594.887	8.43
595.224	8.21
595.561	8.14
595.899	8.48
596.236	8.39
596.573	8.5
596.91	8.52
597.247	8.34
597.584	8.1
597.921	8.55
598.258	8.16
598.594	8.54
598.931	8.21
599.268	8.19
599.604	8.2
599.941	8.13
600.277	8.29
600.614	8.22
600.95	8.44
601.287	8.24
601.623	8.23
601.959	8.41
602.296	8.31
602.632	8.21
602.968	8.38
603.304	8.36
603.64	8.08
603.976	8.27
604.312	8.48
604.648	8.52
604.984	8.54
605.319	8.33
605.655	8.25
605.991	8.15
606.326	7.97
606.662	8.01
606.998	8.04
607.333	8.02
607.668	8.08
608.004	8.13
608.339	8.24
608.674	8.23
609.01	8.22
609.345	8.27
609.68	8.31
610.015	7.68
610.35	8.15
610.685	8.26
611.02	8.17
611.355	7.98
611.689	7.91
612.024	8.1
612.359	7.95
612.694	8.15
613.028	8.15
613.363	8.07
613.697	8.16
614.032	8.22
614.366	8.21
614.7	8.17
615.035	8.11
615.369	8.18
615.703	8.1
616.037	8.24
616.371	7.92
616.705	8.08
617.039	7.9
617.373	7.97
617.707	8.15
618.041	8.08
618.375	8.26
618.709	7.91
619.042	8.17
619.376	8.29
619.71	8.41
620.043	8.19
620.377	7.96
620.71	8.24
621.043	8.41
621.377	8.1
621.71	7.73
622.043	8.05
622.376	8.37
622.709	8.01
623.043	7.78
623.376	7.99
623.709	7.78
624.041	7.95
624.374	8.21
624.707	7.91
625.04	7.96
625.373	7.84
625.705	7.83
626.038	7.88
626.37	7.82
626.703	7.71
627.035	7.68
627.368	8.06
627.7	8.35
628.032	7.91
628.365	8.06
628.697	8
629.029	8.12
629.361	7.73
629.693	7.74
630.025	7.94
630.357	7.8
630.689	7.73
631.021	8.01
631.353	7.92
631.684	7.42
632.016	7.93
632.348	7.79
632.679	7.51
633.011	7.86
633.342	7.57
633.674	7.86
634.005	7.68
634.336	8.11
634.668	7.68
634.999	7.61
635.33	7.81
635.661	8.32
635.992	7.72
636.323	8.15
636.654	8.03
636.985	7.69
637.316	8.2
637.647	7.78
637.977	7.19
638.308	7.46
638.639	7.54
638.969	7.79
639.3	7.35
639.63	7.76
639.961	7.53
640.291	7.79
640.622	7.83
640.952	7.79
641.282	7.38
641.612	7.92
641.943	7.76
642.273	7.75
642.603	8.21
642.933	7.94
643.263	8.04
643.592	7.36
643.922	8.16
644.252	7.59
644.582	7.66
644.911	7.87
645.241	7.92
645.571	8.26
645.9	7.37
646.23	7.56
646.559	7.43
646.888	7.5
647.218	7.89
647.547	7.22
647.876	7.81
648.205	7.81
648.534	7.77
648.863	7.95
649.192	7.75
649.521	7.69
649.85	7.59
650.179	7.74
650.508	7.57
650.837	7.69
651.165	7.51
651.494	7.58
651.822	7.84
652.151	7.74
652.479	7.39
652.808	7.62
653.136	7.41
653.465	7.87
653.793	8.19
654.121	7.57
654.449	7.53
654.777	7.51
655.105	7.8
655.433	8.29
655.761	7.52
656.089	8.33
656.417	7.55
656.745	7.8
657.073	7.61
657.4	8.38
657.728	7.78
658.056	7
658.383	8.19
658.711	7.22
659.038	7.98
659.365	7.66
659.693	7.65
660.02	7.33
660.347	7.6
660.674	7.34
661.001	7.29
661.329	7.56
661.656	7.66
661.982	7.46
662.309	7.75
662.636	7.64
662.963	7.3
663.29	7.92
663.616	7.87
663.943	7.11
664.27	7.49
664.596	7.37
664.923	7.21
665.249	7.71
665.576	7.16
665.902	7.43
666.228	8.03
666.554	7.76
666.881	7.05
667.207	7.55
667.533	7.41
667.859	7.63
668.185	8.27
668.511	7.94
668.837	7.35
669.162	8.1
669.488	7.67
669.814	7.25
670.139	7.23
670.465	7.02
670.791	7.56
671.116	6.95
671.442	7.76
671.767	6.94
672.092	7.47
672.418	7.77
672.743	7.65
673.068	7.88
673.393	7.61
673.718	7.1
674.043	7.61
674.368	7.71
674.693	7.81
675.018	7.87
675.343	7.7
675.667	7.23
675.992	7.89
676.317	6.74
676.641	7.79
676.966	7.2
677.29	7.35
677.615	8.17
677.939	7.26
678.264	7.63
678.588	6.95
678.912	7.79
679.236	6.82
679.56	7.22
679.885	7.63
680.209	7.27
680.532	7.14
680.856	7.23
681.18	7.43
681.504	7.14
681.828	7.74
682.152	7.68
682.475	7.44
682.799	7.38
683.122	7.54
683.446	7.64
683.769	7.28
684.093	7.34
684.416	7.36
684.739	6.07
685.062	6.92
685.386	7.26
685.709	6.75
686.032	7.47
686.355	8
686.678	7.22
687.001	7.29
687.324	6.91
687.646	7.48
687.969	7.61
688.292	7.28
688.614	7.6
688.937	7.34
689.26	6.71
689.582	7
689.904	6.86
690.227	7.42
690.549	7.54
690.871	7.38
691.194	7.71
691.516	7.72
691.838	7.63
