Data from 0365_crown_Reflection__3__302.txt Node

Date: Fri Oct 20 23:06:13 CDT 2023
User: ToomeyLab
Spectrometer: FLMS14357
Trigger mode: 0
Integration Time (sec): 1.000000E-2
Scans to average: 100
Electric dark correction enabled: true
Nonlinearity correction enabled: false
Boxcar width: 0
XAxis mode: Wavelengths
Number of Pixels in Spectrum: 2048
>>>>>Begin Spectral Data<<<<<
189.047	-240.72
189.435	-240.72
189.823	-240.72
190.211	-127.67
190.599	-389.03
190.987	91.72
191.375	122.18
191.763	50.44
192.151	55.75
192.538	143.53
192.926	-6410.81
193.314	172.35
193.702	136.63
194.089	52.7
194.477	-189.82
194.864	2.83
195.252	66.96
195.639	-756.73
196.027	-190.94
196.414	133.45
196.801	82.99
197.189	-145.7
197.576	148.41
197.963	-629.02
198.351	25.57
198.738	21.33
199.125	68.08
199.512	40.15
199.899	-4.06
200.286	-54.2
200.673	1.97
201.06	16.14
201.447	-9.39
201.833	45.3
202.22	14.78
202.607	39.54
202.994	20.5
203.38	42.96
203.767	-20.58
204.154	45.02
204.54	103.76
204.927	39.38
205.313	41.59
205.699	53.5
206.086	24.75
206.472	65.74
206.858	39.29
207.245	-16.85
207.631	67.08
208.017	-2.53
208.403	19.07
208.789	46.16
209.175	-12.25
209.561	30.58
209.947	12.97
210.333	-10.63
210.719	47.22
211.105	24.48
211.491	18.06
211.876	-52.14
212.262	50.75
212.648	22.72
213.034	-17.18
213.419	5.31
213.805	7.03
214.19	9.69
214.576	-9.12
214.961	1.89
215.346	18.15
215.732	17.89
216.117	-15.03
216.502	11.46
216.888	25.24
217.273	-20.38
217.658	-1.83
218.043	3.08
218.428	-0.85
218.813	19.5
219.198	23.85
219.583	-4.09
219.968	-7.26
220.353	14.19
220.738	14.24
221.122	-14.83
221.507	-13.75
221.892	-12.74
222.276	25.4
222.661	21.84
223.046	11.46
223.43	16.67
223.815	29.32
224.199	17.15
224.583	7.76
224.968	13.9
225.352	1.8
225.736	5.02
226.121	16.23
226.505	1.84
226.889	16.68
227.273	12.17
227.657	20.07
228.041	18.14
228.425	10.61
228.809	12.35
229.193	14.21
229.577	13.93
229.961	13.01
230.344	11.77
230.728	10.87
231.112	13.43
231.495	11.58
231.879	12.77
232.263	12.94
232.646	10.4
233.03	11.69
233.413	11.81
233.797	10.68
234.18	12.17
234.563	15.26
234.946	12.51
235.33	10.42
235.713	12.17
236.096	12
236.479	12.32
236.862	10.52
237.245	10.32
237.628	11.31
238.011	12.19
238.394	12.13
238.777	15.01
239.16	12.3
239.543	11.9
239.925	12.36
240.308	12.56
240.691	12.08
241.073	11.2
241.456	11.52
241.838	10.41
242.221	11.1
242.603	11.39
242.986	11.14
243.368	11.72
243.75	11.94
244.133	11.22
244.515	11.14
244.897	11.01
245.279	11.05
245.661	10.98
246.043	11.11
246.425	11.18
246.807	10.69
247.189	11.42
247.571	10.89
247.953	11.61
248.335	11.08
248.717	10.75
249.098	10.69
249.48	10.73
249.862	10.9
250.243	10.97
250.625	10.89
251.006	10.87
251.388	10.68
251.769	11.76
252.151	9.78
252.532	11.42
252.913	10.7
253.295	9.67
253.676	10.94
254.057	10.31
254.438	11.1
254.819	10.98
255.2	11.12
255.581	9.94
255.962	11.14
256.343	10.86
256.724	9.51
257.105	10.32
257.486	11.03
257.867	9.81
258.247	10.7
258.628	10.44
259.009	10.58
259.389	10.09
259.77	9.49
260.15	10.93
260.531	9.59
260.911	10.37
261.292	10.33
261.672	9.77
262.052	9.92
262.432	10.05
262.813	9.85
263.193	10.35
263.573	9.66
263.953	10.05
264.333	10.18
264.713	9.69
265.093	10.12
265.473	10.34
265.853	10.14
266.233	9.48
266.612	10.22
266.992	9.59
267.372	10.33
267.752	10.08
268.131	10.23
268.511	9.72
268.89	9.4
269.27	9.53
269.649	8.97
270.029	8.87
270.408	9.68
270.787	10.1
271.167	9.52
271.546	9.41
271.925	10.02
272.304	9.79
272.683	9.88
273.062	9.93
273.441	9.4
273.82	9.71
274.199	9.5
274.578	9.33
274.957	9.28
275.336	9.42
275.715	9.38
276.093	8.66
276.472	9.08
276.851	9.66
277.229	9.18
277.608	8.64
277.986	8.54
278.365	9.23
278.743	9.53
279.122	9.16
279.5	9.23
279.878	7.79
280.257	9.24
280.635	9.29
281.013	9.16
281.391	8.86
281.769	8.82
282.147	8.85
282.525	8.59
282.903	8.93
283.281	9.03
283.659	8.8
284.037	9.22
284.415	8.7
284.792	8.64
285.17	8.23
285.548	8.46
285.925	8.14
286.303	8.08
286.68	8.68
287.058	9
287.435	8.94
287.813	8.34
288.19	8.36
288.567	8.8
288.945	8.99
289.322	9.04
289.699	8.12
290.076	9.06
290.453	8.75
290.83	8.14
291.207	9.01
291.584	8
291.961	8.28
292.338	8.44
292.715	8.23
293.092	7.96
293.469	8.46
293.845	8.34
294.222	8.17
294.599	7.9
294.975	8.38
295.352	8.54
295.728	8.18
296.105	7.89
296.481	8.35
296.858	8.31
297.234	8.69
297.61	7.87
297.986	7.92
298.363	8.07
298.739	8.14
299.115	7.9
299.491	8.09
299.867	7.93
300.243	7.97
300.619	7.95
300.995	7.53
301.371	8.35
301.746	8.19
302.122	8.3
302.498	7.7
302.874	7.95
303.249	7.84
303.625	8.04
304	8.45
304.376	7.39
304.751	6.94
305.127	7.57
305.502	7.76
305.878	7.84
306.253	7.79
306.628	7.74
307.003	7.8
307.378	8.22
307.754	7.85
308.129	7.82
308.504	7.12
308.879	8.01
309.254	8.15
309.629	6.98
310.003	6.8
310.378	7.9
310.753	7.61
311.128	7.88
311.502	7.6
311.877	7.24
312.252	7.19
312.626	7.57
313.001	7.81
313.375	7.83
313.75	7.49
314.124	7.61
314.498	7.36
314.873	6.87
315.247	7.72
315.621	7.09
315.995	8.12
316.369	7.31
316.743	7.36
317.117	7.49
317.491	6.52
317.865	7.84
318.239	7.56
318.613	7.27
318.987	6.75
319.361	6.68
319.734	7.16
320.108	6.73
320.482	7.22
320.855	7.2
321.229	7.53
321.602	7.35
321.976	7.39
322.349	7.6
322.723	7.35
323.096	7.7
323.469	7.81
323.843	6.96
324.216	7.16
324.589	7.63
324.962	7.2
325.335	7.1
325.708	7.46
326.081	7.04
326.454	7.81
326.827	7.59
327.2	7.27
327.573	7.39
327.945	7.47
328.318	6.88
328.691	7.55
329.063	7.9
329.436	6.51
329.809	7.36
330.181	7.13
330.553	7.8
330.926	7.48
331.298	6.69
331.671	7.16
332.043	6.66
332.415	7.25
332.787	7.21
333.159	7.08
333.532	7.36
333.904	7.93
334.276	6.55
334.648	7.09
335.02	7.92
335.391	6.92
335.763	7.28
336.135	7.34
336.507	7.24
336.879	6.89
337.25	6.91
337.622	7.15
337.993	7.74
338.365	6.62
338.736	7.68
339.108	7.61
339.479	7.22
339.851	7.35
340.222	6.81
340.593	6.92
340.964	7.55
341.336	7.31
341.707	7.08
342.078	7.4
342.449	7.6
342.82	7.2
343.191	7.02
343.562	7.45
343.933	7.16
344.303	7.31
344.674	7.52
345.045	7.58
345.416	7.36
345.786	7.3
346.157	7.29
346.527	7.21
346.898	7.57
347.268	7.72
347.639	7.61
348.009	7.25
348.38	7.33
348.75	7.2
349.12	7.3
349.49	7.13
349.861	7.58
350.231	7.24
350.601	7.07
350.971	7.54
351.341	7.18
351.711	7.85
352.081	7.3
352.45	7.16
352.82	7.36
353.19	7.65
353.56	7.28
353.929	7.02
354.299	7.22
354.669	7.42
355.038	7.61
355.408	7.78
355.777	7.38
356.147	7.02
356.516	7.47
356.885	7.27
357.254	7.4
357.624	7.31
357.993	6.97
358.362	7.51
358.731	6.89
359.1	6.69
359.469	7.26
359.838	7.76
360.207	7.66
360.576	7.83
360.945	7.09
361.314	7.49
361.682	7.5
362.051	7.23
362.42	7.23
362.788	7.69
363.157	7.52
363.525	7.52
363.894	7.49
364.262	7.48
364.631	7.74
364.999	7.52
365.367	7.5
365.735	7.35
366.104	7.58
366.472	7.88
366.84	7.5
367.208	7.79
367.576	7.46
367.944	7.68
368.312	7.36
368.68	7.78
369.048	7.94
369.416	7.82
369.783	7.75
370.151	7.74
370.519	7.72
370.886	7.8
371.254	8.11
371.621	7.84
371.989	7.51
372.356	7.86
372.724	7.87
373.091	7.77
373.458	7.2
373.826	7.47
374.193	7.75
374.56	7.77
374.927	7.51
375.294	7.98
375.661	8.01
376.028	8.14
376.395	8.03
376.762	7.78
377.129	8.15
377.496	8.21
377.863	8.16
378.229	8.12
378.596	8.08
378.963	7.99
379.329	8
379.696	8.23
380.062	8
380.429	8.19
380.795	8.03
381.161	8.12
381.528	8.02
381.894	7.96
382.26	7.9
382.626	7.95
382.993	8.08
383.359	8.28
383.725	8.25
384.091	8.32
384.457	8.19
384.823	8.22
385.188	8.25
385.554	8.15
385.92	8.32
386.286	8.47
386.651	7.85
387.017	8.14
387.383	8.3
387.748	8.14
388.114	7.91
388.479	8.14
388.845	8.4
389.21	7.97
389.575	7.92
389.94	7.93
390.306	8.21
390.671	8.45
391.036	8.33
391.401	8.38
391.766	8.37
392.131	8.21
392.496	8.32
392.861	7.97
393.226	8.29
393.591	8.22
393.956	8.37
394.32	8.25
394.685	8.11
395.05	8.46
395.414	8.61
395.779	8.23
396.143	8.22
396.508	8.57
396.872	8.39
397.236	8.35
397.601	8.44
397.965	8.24
398.329	8.46
398.694	8.47
399.058	8.22
399.422	8.46
399.786	8.31
400.15	8.34
400.514	8.4
400.878	8.7
401.242	8.59
401.605	8.69
401.969	8.4
402.333	8.53
402.697	8.53
403.06	8.36
403.424	8.6
403.787	8.67
404.151	8.33
404.514	8.74
404.878	8.71
405.241	8.64
405.604	8.46
405.968	8.74
406.331	8.32
406.694	8.63
407.057	8.45
407.42	8.83
407.783	8.65
408.146	8.56
408.509	8.68
408.872	8.44
409.235	8.63
409.598	8.85
409.961	8.69
410.323	8.54
410.686	8.4
411.049	8.84
411.411	8.8
411.774	8.83
412.136	8.74
412.499	8.78
412.861	8.64
413.223	8.9
413.586	8.71
413.948	8.74
414.31	9
414.672	8.58
415.035	8.83
415.397	8.8
415.759	8.94
416.121	8.88
416.483	8.88
416.845	8.6
417.206	8.79
417.568	8.91
417.93	8.72
418.292	8.59
418.653	8.71
419.015	8.86
419.377	8.63
419.738	8.75
420.1	8.61
420.461	8.63
420.822	8.73
421.184	8.71
421.545	8.74
421.906	8.67
422.267	8.61
422.629	8.7
422.99	8.61
423.351	8.83
423.712	8.59
424.073	8.79
424.434	8.57
424.795	8.64
425.155	8.69
425.516	8.62
425.877	8.76
426.238	8.64
426.598	8.66
426.959	8.68
427.32	8.79
427.68	8.83
428.041	8.69
428.401	8.79
428.761	8.95
429.122	8.92
429.482	8.8
429.842	8.91
430.202	8.94
430.563	8.91
430.923	9.07
431.283	8.97
431.643	9.14
432.003	9.07
432.363	8.89
432.722	9.1
433.082	9.17
433.442	8.9
433.802	9.08
434.161	8.85
434.521	8.85
434.881	8.95
435.24	8.9
435.6	8.81
435.959	8.88
436.319	9.02
436.678	8.97
437.037	8.82
437.396	9.09
437.756	9.09
438.115	8.9
438.474	9.17
438.833	9.04
439.192	8.82
439.551	8.94
439.91	8.93
440.269	9.13
440.628	8.97
440.987	9
441.345	8.9
441.704	8.91
442.063	8.99
442.421	8.97
442.78	8.95
443.138	9.04
443.497	8.93
443.855	8.95
444.214	8.91
444.572	8.87
444.93	9.05
445.288	9.13
445.647	9.36
446.005	8.88
446.363	9.07
446.721	9.08
447.079	9.12
447.437	8.96
447.795	8.91
448.153	8.94
448.51	8.92
448.868	8.9
449.226	8.94
449.584	9
449.941	8.91
450.299	8.98
450.656	8.95
451.014	9.04
451.371	9.13
451.729	9.02
452.086	9.19
452.443	9.22
452.801	9.08
453.158	9.41
453.515	9.2
453.872	9.21
454.229	9.26
454.586	9.14
454.943	9.02
455.3	9.19
455.657	9.11
456.014	9.07
456.371	9.23
456.727	9.17
457.084	9.16
457.441	9.09
457.797	9.27
458.154	9.09
458.51	9.13
458.867	9.12
459.223	9.24
459.58	9.03
459.936	9.22
460.292	9.17
460.648	9.05
461.005	9.13
461.361	9.16
461.717	8.95
462.073	9.03
462.429	9.03
462.785	8.96
463.141	9.08
463.496	9.16
463.852	9.1
464.208	9.21
464.564	9.3
464.919	9.26
465.275	9.46
465.631	9.31
465.986	9.29
466.342	9.21
466.697	9.09
467.052	9.14
467.408	9.28
467.763	9.2
468.118	9.46
468.473	9.26
468.829	9.27
469.184	9.37
469.539	9.35
469.894	9.19
470.249	9.1
470.603	9.19
470.958	9.11
471.313	9.35
471.668	9.37
472.023	9.07
472.377	9.21
472.732	9.16
473.086	9.3
473.441	9.43
473.795	9.41
474.15	9.28
474.504	9.05
474.859	9.34
475.213	9.3
475.567	9.27
475.921	9.29
476.275	9.33
476.63	9.4
476.984	9.37
477.338	9.31
477.692	9.24
478.045	9.31
478.399	9.25
478.753	9.25
479.107	9.29
479.461	9.37
479.814	9.51
480.168	9.3
480.521	9.26
480.875	9.34
481.228	9.24
481.582	9.42
481.935	9.29
482.289	9.3
482.642	9.1
482.995	9.24
483.348	9.19
483.701	9.26
484.055	9.27
484.408	9.1
484.761	9.08
485.114	8.94
485.466	8.96
485.819	8.84
486.172	8.74
486.525	8.74
486.878	8.71
487.23	8.74
487.583	8.85
487.936	8.96
488.288	9.04
488.641	8.98
488.993	8.97
489.345	8.99
489.698	9
490.05	8.82
490.402	8.82
490.754	8.84
491.107	8.84
491.459	9.03
491.811	9.02
492.163	9.09
492.515	9.11
492.866	9.08
493.218	8.94
493.57	8.98
493.922	8.98
494.274	8.96
494.625	8.85
494.977	8.91
495.328	9.08
495.68	9.03
496.031	9.17
496.383	9.21
496.734	9.17
497.086	9.24
497.437	9.32
497.788	9.22
498.139	9.31
498.49	9.22
498.842	9.18
499.193	9.3
499.544	9.21
499.894	9.14
500.245	9.14
500.596	9.22
500.947	9.28
501.298	9.26
501.648	9.13
501.999	9.15
502.35	9.25
502.7	9.35
503.051	9.03
503.401	9.29
503.752	9.37
504.102	9.22
504.452	9.27
504.803	9.18
505.153	9.33
505.503	9.18
505.853	9.41
506.203	9.22
506.553	9.17
506.903	9.24
507.253	9.27
507.603	9.25
507.953	9.15
508.303	9.16
508.652	9.38
509.002	9.31
509.352	9.37
509.701	9.16
510.051	9.04
510.4	9.23
510.75	9.32
511.099	9.13
511.449	9.27
511.798	9.25
512.147	9.1
512.496	9.16
512.846	9.09
513.195	9.26
513.544	9.21
513.893	9.11
514.242	9.09
514.591	9.3
514.939	9.23
515.288	9.11
515.637	9.24
515.986	9.24
516.334	9.18
516.683	9.22
517.032	9.04
517.38	9.21
517.729	9.11
518.077	9.22
518.426	9.18
518.774	9.1
519.122	9.15
519.47	9.1
519.819	9.08
520.167	9.04
520.515	9.13
520.863	9.22
521.211	9.06
521.559	9.02
521.907	9.09
522.255	9.12
522.602	9.18
522.95	9.04
523.298	9.2
523.645	9.17
523.993	9.19
524.341	9.18
524.688	9.21
525.036	9.2
525.383	9.04
525.73	9.24
526.078	9.17
526.425	9.29
526.772	9.03
527.119	9.12
527.466	9.07
527.814	9.03
528.161	9.09
528.508	8.94
528.854	8.9
529.201	8.97
529.548	9.08
529.895	8.96
530.242	8.86
530.588	8.82
530.935	8.75
531.282	8.76
531.628	8.76
531.975	8.65
532.321	8.71
532.667	8.78
533.014	9.06
533.36	8.99
533.706	9.05
534.052	9.05
534.399	8.91
534.745	8.85
535.091	8.93
535.437	8.96
535.783	8.94
536.129	8.91
536.474	8.84
536.82	8.98
537.166	8.84
537.512	8.96
537.857	9.09
538.203	9.05
538.549	9.07
538.894	9
539.239	8.94
539.585	8.96
539.93	8.95
540.276	8.99
540.621	9.13
540.966	9.12
541.311	9.15
541.656	9.14
542.001	9.07
542.346	9.1
542.691	9.04
543.036	8.83
543.381	8.84
543.726	8.72
544.071	8.78
544.415	8.77
544.76	8.77
545.105	8.79
545.449	8.82
545.794	8.97
546.138	8.94
546.483	8.91
546.827	8.91
547.171	8.95
547.516	9
547.86	8.98
548.204	8.91
548.548	8.95
548.892	8.89
549.236	8.97
549.58	8.96
549.924	8.92
550.268	8.9
550.612	8.93
550.956	9.07
551.3	9.05
551.643	9.13
551.987	9.18
552.33	9.13
552.674	9.15
553.017	9.12
553.361	8.99
553.704	9.24
554.048	9
554.391	8.96
554.734	9.09
555.077	9.04
555.42	8.82
555.764	8.89
556.107	9.12
556.45	8.89
556.793	8.81
557.135	9
557.478	8.91
557.821	9.12
558.164	9.12
558.507	9.19
558.849	9.18
559.192	9.04
559.534	9.25
559.877	9
560.219	8.99
560.562	9.05
560.904	8.89
561.246	8.95
561.589	8.76
561.931	9.14
562.273	9.04
562.615	9.11
562.957	8.95
563.299	8.91
563.641	9.13
563.983	8.84
564.325	8.74
564.667	8.88
565.008	8.82
565.35	8.84
565.692	8.87
566.033	9.08
566.375	9.1
566.716	9.23
567.058	8.79
567.399	8.94
567.741	8.79
568.082	8.89
568.423	8.87
568.764	8.85
569.105	8.77
569.447	8.74
569.788	8.64
570.129	8.69
570.47	8.88
570.811	8.89
571.151	8.76
571.492	8.94
571.833	9.03
572.174	8.89
572.514	8.82
572.855	8.78
573.195	8.89
573.536	8.74
573.876	8.81
574.217	8.75
574.557	8.6
574.898	8.72
575.238	8.59
575.578	8.86
575.918	8.57
576.258	8.56
576.598	8.8
576.938	8.71
577.278	8.81
577.618	8.55
577.958	8.57
578.298	8.63
578.638	8.59
578.977	8.59
579.317	8.74
579.657	8.73
579.996	8.57
580.336	8.6
580.675	8.8
581.014	8.55
581.354	8.67
581.693	8.71
582.032	8.53
582.372	8.62
582.711	8.96
583.05	8.84
583.389	8.53
583.728	8.76
584.067	8.8
584.406	8.75
584.745	8.8
585.083	8.48
585.422	8.65
585.761	8.55
586.1	8.54
586.438	8.37
586.777	8.5
587.115	8.72
587.454	8.77
587.792	8.58
588.13	8.68
588.469	8.67
588.807	8.27
589.145	8.67
589.483	8.55
589.821	8.53
590.159	8.67
590.497	8.42
590.835	8.5
591.173	8.52
591.511	8.44
591.849	8.58
592.187	8.49
592.524	8.24
592.862	8.48
593.2	8.71
593.537	8.64
593.875	8.41
594.212	8.57
594.55	8.29
594.887	8.51
595.224	8.44
595.561	8.21
595.899	8.45
596.236	8.55
596.573	8.32
596.91	8.47
597.247	8.32
597.584	8.22
597.921	8.59
598.258	8.52
598.594	8.58
598.931	8.32
599.268	8.16
599.604	8.3
599.941	8.24
600.277	8.37
600.614	8.48
600.95	8.34
601.287	8.23
601.623	8.45
601.959	8.48
602.296	8.36
602.632	8.47
602.968	8.4
603.304	8.31
603.64	8.15
603.976	8.25
604.312	8.44
604.648	8.42
604.984	8.23
605.319	8.23
605.655	8.26
605.991	8.26
606.326	8.3
606.662	8.1
606.998	8.11
607.333	8.05
607.668	8.15
608.004	8.23
608.339	8.11
608.674	8.36
609.01	8.18
609.345	8.33
609.68	8.33
610.015	8.05
610.35	8.3
610.685	8.09
611.02	8.18
611.355	8.12
611.689	8.2
612.024	8.35
612.359	8.31
612.694	8.32
613.028	8.35
613.363	8.14
613.697	8.15
614.032	8.29
614.366	8.49
614.7	7.98
615.035	8.56
615.369	8.31
615.703	8.07
616.037	8.32
616.371	8.28
616.705	8.47
617.039	8.02
617.373	8.36
617.707	8.18
618.041	8.14
618.375	7.93
618.709	8.01
619.042	8.33
619.376	8.62
619.71	8.23
620.043	8.34
620.377	7.73
620.71	8
621.043	8.23
621.377	7.97
621.71	7.9
622.043	8.19
622.376	7.96
622.709	8.41
623.043	8.15
623.376	7.58
623.709	7.87
624.041	8.07
624.374	8.4
624.707	7.93
625.04	8.05
625.373	7.98
625.705	7.72
626.038	8.11
626.37	7.58
626.703	8.07
627.035	7.93
627.368	8.28
627.7	7.91
628.032	8.09
628.365	8.03
628.697	7.96
629.029	7.97
629.361	7.8
629.693	7.91
630.025	7.89
630.357	7.93
630.689	7.91
631.021	8.2
631.353	8.02
631.684	7.79
632.016	8.22
632.348	7.69
632.679	7.62
633.011	8.03
633.342	7.53
633.674	7.8
634.005	7.91
634.336	8.28
634.668	7.94
634.999	7.76
635.33	7.67
635.661	8.03
635.992	7.91
636.323	8.25
636.654	8.02
636.985	7.85
637.316	7.9
637.647	7.61
637.977	7.43
638.308	7.95
638.639	7.92
638.969	7.91
639.3	7.52
639.63	7.71
639.961	7.85
640.291	7.94
640.622	8.08
640.952	7.52
641.282	7.47
641.612	7.74
641.943	8.07
642.273	7.69
642.603	8.08
642.933	8.04
643.263	8.49
643.592	7.66
643.922	8.19
644.252	7.27
644.582	7.49
644.911	8.15
645.241	8
645.571	7.99
645.9	7.59
646.23	7.55
646.559	7.79
646.888	8.14
647.218	7.74
647.547	7.7
647.876	7.65
648.205	7.89
648.534	7.83
648.863	8.07
649.192	7.4
649.521	7.58
649.85	7.82
650.179	7.23
650.508	7.87
650.837	8.07
651.165	7.62
651.494	7.27
651.822	7.94
652.151	7.93
652.479	7.65
652.808	7.61
653.136	7.44
653.465	7.97
653.793	7.81
654.121	7.98
654.449	8.09
654.777	7.61
655.105	7.54
655.433	8.09
655.761	7.78
656.089	7.77
656.417	7.66
656.745	7.72
657.073	7.18
657.4	8.48
657.728	8.04
658.056	7.64
658.383	7.38
658.711	7.26
659.038	8.1
659.365	7.78
659.693	7.59
660.02	7.61
660.347	7.66
660.674	7.76
661.001	7.22
661.329	7.58
661.656	7.49
661.982	7.98
662.309	7.59
662.636	7.62
662.963	7.48
663.29	7.75
663.616	7.5
663.943	7.6
664.27	7.84
664.596	7.46
664.923	7.72
665.249	7.48
665.576	7.14
665.902	7.62
666.228	7.72
666.554	7.8
666.881	7.23
667.207	7.2
667.533	7.5
667.859	7.57
668.185	7.73
668.511	7.53
668.837	7.67
669.162	8.19
669.488	7.39
669.814	7.32
670.139	7.61
670.465	7.56
670.791	7.72
671.116	7.36
671.442	8.03
671.767	7.48
672.092	7.33
672.418	7.7
672.743	7.54
673.068	7.99
673.393	7.66
673.718	7.34
674.043	7.66
674.368	8.08
674.693	7.49
675.018	7.61
675.343	7.66
675.667	7.6
675.992	7.71
676.317	7.4
676.641	8.1
676.966	8.11
677.29	7.97
677.615	7.76
677.939	7.54
678.264	7.47
678.588	6.92
678.912	8.36
679.236	7.62
679.56	7.44
679.885	7.98
680.209	7.7
680.532	7.12
680.856	7.36
681.18	7.53
681.504	7.7
681.828	7.87
682.152	7.56
682.475	7.17
682.799	7.77
683.122	7.39
683.446	7.79
683.769	7.44
684.093	7.56
684.416	7.61
684.739	6.86
685.062	6.76
685.386	7.16
685.709	7.2
686.032	7.55
686.355	7.93
686.678	7.86
687.001	7.5
687.324	7.28
687.646	7.72
687.969	8.3
688.292	7.53
688.614	7.07
688.937	6.85
689.26	7.18
689.582	7.17
689.904	6.87
690.227	7.66
690.549	7.97
