Data from 0365_forehead_Reflection__3__307.txt Node

Date: Fri Oct 20 23:07:21 CDT 2023
User: ToomeyLab
Spectrometer: FLMS14357
Trigger mode: 0
Integration Time (sec): 1.000000E-2
Scans to average: 100
Electric dark correction enabled: true
Nonlinearity correction enabled: false
Boxcar width: 0
XAxis mode: Wavelengths
Number of Pixels in Spectrum: 2048
>>>>>Begin Spectral Data<<<<<
189.047	76.88
189.435	76.88
189.823	76.88
190.211	58.77
190.599	-330.63
190.987	104.42
191.375	145.29
191.763	71.49
192.151	-128.36
192.538	-43.84
192.926	-2862.16
193.314	75.78
193.702	186.14
194.089	171.92
194.477	405.24
194.864	141.95
195.252	26.59
195.639	-205.52
196.027	-613.07
196.414	106.61
196.801	25.23
197.189	45.8
197.576	55.81
197.963	-431.49
198.351	61.16
198.738	39.56
199.125	26.95
199.512	33.97
199.899	40.86
200.286	18.39
200.673	54.7
201.06	27.99
201.447	21.49
201.833	61.99
202.22	56.03
202.607	54.28
202.994	52.39
203.38	42.98
203.767	65.96
204.154	55.2
204.54	52.29
204.927	68.61
205.313	-11.97
205.699	46.3
206.086	54.02
206.472	63.42
206.858	86.77
207.245	2.13
207.631	47.39
208.017	73.89
208.403	40.01
208.789	64.47
209.175	33.38
209.561	39.61
209.947	25.29
210.333	46.22
210.719	16.12
211.105	26.75
211.491	25.02
211.876	28.85
212.262	26.62
212.648	48.92
213.034	31.47
213.419	40.73
213.805	-7.35
214.19	31.27
214.576	-13.36
214.961	31.7
215.346	35.45
215.732	8.52
216.117	-69.66
216.502	30.99
216.888	16.2
217.273	-5.79
217.658	25.03
218.043	19.55
218.428	44.46
218.813	28.8
219.198	26.45
219.583	-0.4
219.968	10.73
220.353	21.95
220.738	10.82
221.122	-0.87
221.507	17.67
221.892	19.03
222.276	24.08
222.661	30.64
223.046	7.46
223.43	19.18
223.815	26.5
224.199	28.02
224.583	4.78
224.968	15.13
225.352	4.46
225.736	12.57
226.121	14.78
226.505	12.69
226.889	17.77
227.273	14.64
227.657	10.04
228.041	10.24
228.425	11.86
228.809	12.48
229.193	11.76
229.577	13.2
229.961	7.05
230.344	6.73
230.728	6.58
231.112	8.18
231.495	6.84
231.879	7.3
232.263	8.33
232.646	6.29
233.03	5.91
233.413	7.88
233.797	7.49
234.18	5.89
234.563	10.66
234.946	9.24
235.33	7.58
235.713	8.1
236.096	8.7
236.479	7.4
236.862	7.8
237.245	6.08
237.628	6.88
238.011	6.99
238.394	8.12
238.777	9.64
239.16	6.9
239.543	10
239.925	10.12
240.308	5.89
240.691	7.81
241.073	9.01
241.456	10.07
241.838	7.06
242.221	7.22
242.603	6.79
242.986	7.58
243.368	7.19
243.75	7.13
244.133	6.92
244.515	6.59
244.897	6.56
245.279	6.83
245.661	6.25
246.043	6.06
246.425	6.55
246.807	7.53
247.189	6.95
247.571	6.82
247.953	6.65
248.335	6.92
248.717	6.36
249.098	6.07
249.48	6.31
249.862	6.48
250.243	7.13
250.625	6.86
251.006	7.14
251.388	6.87
251.769	7.21
252.151	6.11
252.532	7.15
252.913	7.18
253.295	5.97
253.676	6.84
254.057	6.5
254.438	6.41
254.819	6.75
255.2	6.79
255.581	5.89
255.962	5.82
256.343	6.99
256.724	5.15
257.105	6.47
257.486	7.84
257.867	7.91
258.247	7.29
258.628	6.33
259.009	6.57
259.389	7.06
259.77	6.11
260.15	6.8
260.531	6.57
260.911	6.83
261.292	6.09
261.672	6.53
262.052	6.29
262.432	6.19
262.813	6.4
263.193	6.44
263.573	6.56
263.953	6.65
264.333	6.6
264.713	6.8
265.093	7.04
265.473	6.53
265.853	6.74
266.233	6.45
266.612	6.81
266.992	6.13
267.372	6.04
267.752	6.82
268.131	7.07
268.511	6.93
268.89	6.74
269.27	6.02
269.649	5.96
270.029	6.28
270.408	7.02
270.787	6.42
271.167	6.75
271.546	6.21
271.925	6.86
272.304	6.39
272.683	6.59
273.062	6.2
273.441	6.8
273.82	6.59
274.199	6.77
274.578	6.54
274.957	6.84
275.336	7
275.715	6.49
276.093	6.44
276.472	6.82
276.851	6.76
277.229	6.57
277.608	5.42
277.986	6.04
278.365	6.91
278.743	6.37
279.122	6.66
279.5	6.76
279.878	6.18
280.257	6.55
280.635	6.7
281.013	6.78
281.391	6.79
281.769	6.18
282.147	6.14
282.525	7.11
282.903	6.04
283.281	6.84
283.659	6.01
284.037	6.41
284.415	6.02
284.792	6.53
285.17	6.38
285.548	6.69
285.925	6.22
286.303	6.5
286.68	6.51
287.058	7.13
287.435	6.73
287.813	5.96
288.19	6.52
288.567	5.9
288.945	6.64
289.322	6.89
289.699	6.26
290.076	6.75
290.453	6.36
290.83	6.53
291.207	6.75
291.584	6.29
291.961	6.42
292.338	6.77
292.715	6.42
293.092	6.64
293.469	6.99
293.845	6.55
294.222	7.03
294.599	6.81
294.975	7.54
295.352	7.33
295.728	7.52
296.105	6.86
296.481	7.03
296.858	6.6
297.234	7.28
297.61	7.46
297.986	7.35
298.363	7.37
298.739	7.12
299.115	7.15
299.491	7.29
299.867	7.2
300.243	7.39
300.619	7.23
300.995	7.56
301.371	7.47
301.746	7.92
302.122	7.94
302.498	7.91
302.874	8.1
303.249	7.85
303.625	7.85
304	8.32
304.376	7.97
304.751	8.45
305.127	7.7
305.502	8.87
305.878	8.08
306.253	8.19
306.628	8.68
307.003	8.6
307.378	8.6
307.754	8.69
308.129	8.72
308.504	8.69
308.879	8.79
309.254	9.23
309.629	8.92
310.003	8.66
310.378	9.06
310.753	9.09
311.128	9.28
311.502	9.12
311.877	9.47
312.252	8.91
312.626	9.44
313.001	9.15
313.375	9.15
313.75	9.09
314.124	9.15
314.498	9.55
314.873	9.23
315.247	9.53
315.621	9.85
315.995	10.17
316.369	9.82
316.743	9.97
317.117	9.94
317.491	9.5
317.865	9.95
318.239	10.59
318.613	10.41
318.987	9.97
319.361	9.87
319.734	9.91
320.108	9.76
320.482	10.71
320.855	10.88
321.229	11
321.602	10.95
321.976	11.05
322.349	11.71
322.723	11.3
323.096	10.92
323.469	10.58
323.843	11.58
324.216	11.45
324.589	11.47
324.962	11.16
325.335	11.36
325.708	11.46
326.081	11.27
326.454	11.95
326.827	12.22
327.2	11.72
327.573	12.2
327.945	11.85
328.318	11.76
328.691	12.16
329.063	12.21
329.436	11.56
329.809	12.38
330.181	12.22
330.553	12.12
330.926	11.9
331.298	12.49
331.671	12.19
332.043	12.69
332.415	12.37
332.787	13.17
333.159	11.74
333.532	12.96
333.904	12.61
334.276	12.63
334.648	13.26
335.02	13.18
335.391	12.65
335.763	13.2
336.135	12.82
336.507	13.36
336.879	12.97
337.25	13.53
337.622	13.99
337.993	13.4
338.365	13.41
338.736	13.86
339.108	14.22
339.479	13.36
339.851	13.86
340.222	13.39
340.593	13.39
340.964	13.64
341.336	14.48
341.707	13.62
342.078	13.73
342.449	13.71
342.82	13.83
343.191	14.17
343.562	14.18
343.933	14.28
344.303	14.01
344.674	14.57
345.045	14.28
345.416	14.5
345.786	14.66
346.157	14.8
346.527	14.2
346.898	14.13
347.268	14.62
347.639	14.82
348.009	14.76
348.38	15.01
348.75	14.73
349.12	15.19
349.49	15.29
349.861	14.96
350.231	14.82
350.601	15.57
350.971	15.67
351.341	15.27
351.711	15.67
352.081	15.1
352.45	15.6
352.82	15.75
353.19	16.06
353.56	15.63
353.929	15.3
354.299	15.41
354.669	15.99
355.038	15.88
355.408	16.13
355.777	15.9
356.147	15.67
356.516	15.88
356.885	16.01
357.254	16.1
357.624	16.17
357.993	15.82
358.362	16.33
358.731	16.07
359.1	15.74
359.469	16.42
359.838	16.71
360.207	16.56
360.576	16.93
360.945	16.49
361.314	17.18
361.682	16.83
362.051	16.85
362.42	17.04
362.788	16.99
363.157	16.87
363.525	16.71
363.894	16.82
364.262	16.92
364.631	17.23
364.999	17.16
365.367	17.19
365.735	17.29
366.104	17.01
366.472	17.33
366.84	17.31
367.208	17.54
367.576	17.36
367.944	17.64
368.312	17.9
368.68	17.69
369.048	17.75
369.416	18.22
369.783	17.98
370.151	18.31
370.519	17.69
370.886	18.31
371.254	18.83
371.621	18.79
371.989	18.04
372.356	18.61
372.724	18.97
373.091	18.43
373.458	18.39
373.826	18.52
374.193	18.45
374.56	18.6
374.927	18.43
375.294	18.81
375.661	18.74
376.028	19.11
376.395	19.26
376.762	18.95
377.129	19.55
377.496	19.22
377.863	19.31
378.229	19.48
378.596	19.57
378.963	19.46
379.329	19.29
379.696	19.49
380.062	19.53
380.429	19.34
380.795	19.64
381.161	19.78
381.528	20.03
381.894	19.61
382.26	20.01
382.626	20.14
382.993	20.38
383.359	20.28
383.725	19.92
384.091	20.12
384.457	20.34
384.823	20.19
385.188	20.6
385.554	20.72
385.92	20.55
386.286	20.72
386.651	20.34
387.017	20.66
387.383	20.7
387.748	20.55
388.114	20.92
388.479	21.16
388.845	21.18
389.21	21.07
389.575	20.83
389.94	21.19
390.306	21.44
390.671	21.38
391.036	21.24
391.401	21.34
391.766	21.71
392.131	21.51
392.496	21.4
392.861	21.68
393.226	21.42
393.591	21.56
393.956	21.82
394.32	21.97
394.685	21.71
395.05	21.87
395.414	22.14
395.779	22.06
396.143	21.99
396.508	22.28
396.872	22.24
397.236	22.07
397.601	22.1
397.965	22.27
398.329	22.24
398.694	22.68
399.058	22.54
399.422	22.45
399.786	23.01
400.15	22.59
400.514	22.87
400.878	22.98
401.242	23.15
401.605	23.01
401.969	23.26
402.333	23.02
402.697	23.2
403.06	23.31
403.424	23.49
403.787	23.35
404.151	23.37
404.514	23.33
404.878	23.65
405.241	23.42
405.604	23.27
405.968	23.56
406.331	23.72
406.694	23.66
407.057	23.54
407.42	24.07
407.783	24.12
408.146	24.08
408.509	24.12
408.872	24.16
409.235	24.19
409.598	24.34
409.961	24.54
410.323	24.39
410.686	24.76
411.049	24.65
411.411	24.43
411.774	24.74
412.136	24.42
412.499	24.75
412.861	24.63
413.223	24.53
413.586	24.83
413.948	25.11
414.31	25.28
414.672	25.11
415.035	25.23
415.397	25.51
415.759	25.35
416.121	25.42
416.483	25.55
416.845	25.41
417.206	25.74
417.568	25.63
417.93	25.71
418.292	25.51
418.653	25.72
419.015	25.58
419.377	25.48
419.738	25.6
420.1	25.57
420.461	25.72
420.822	25.77
421.184	25.5
421.545	25.75
421.906	25.69
422.267	25.79
422.629	25.86
422.99	25.75
423.351	25.91
423.712	26
424.073	26.1
424.434	25.98
424.795	26.29
425.155	26.33
425.516	26.25
425.877	26.31
426.238	26.33
426.598	26.28
426.959	26.3
427.32	26.49
427.68	26.52
428.041	26.68
428.401	26.91
428.761	27.04
429.122	27.08
429.482	27.23
429.842	27.56
430.202	27.38
430.563	27.5
430.923	27.8
431.283	27.61
431.643	27.78
432.003	27.87
432.363	27.98
432.722	28.06
433.082	28.05
433.442	27.74
433.802	28.13
434.161	28.22
434.521	28.34
434.881	28.05
435.24	28.14
435.6	28.02
435.959	28.19
436.319	28.3
436.678	28.25
437.037	28.41
437.396	28.44
437.756	28.59
438.115	28.67
438.474	29.04
438.833	29.09
439.192	28.87
439.551	28.86
439.91	29.08
440.269	29.22
440.628	29.05
440.987	29.15
441.345	28.91
441.704	28.95
442.063	29.28
442.421	29.05
442.78	29.29
443.138	29.18
443.497	29.34
443.855	29.57
444.214	29.35
444.572	29.54
444.93	30.02
445.288	29.83
445.647	30.04
446.005	29.6
446.363	30
446.721	29.96
447.079	30.11
447.437	29.82
447.795	29.77
448.153	29.75
448.51	29.92
448.868	29.72
449.226	29.87
449.584	30.11
449.941	30.23
450.299	30.36
450.656	30.57
451.014	30.47
451.371	30.61
451.729	30.85
452.086	30.83
452.443	30.99
452.801	30.96
453.158	31.08
453.515	31.11
453.872	31.29
454.229	31.55
454.586	31.3
454.943	31.16
455.3	31.54
455.657	31.42
456.014	31.43
456.371	31.76
456.727	31.5
457.084	31.69
457.441	31.82
457.797	31.7
458.154	31.9
458.51	32.11
458.867	32.02
459.223	32.12
459.58	32.4
459.936	32.33
460.292	32.35
460.648	32.04
461.005	31.89
461.361	32.37
461.717	31.94
462.073	31.82
462.429	32.09
462.785	32
463.141	32.37
463.496	32.4
463.852	32.78
464.208	32.73
464.564	33.05
464.919	32.89
465.275	33.25
465.631	33.08
465.986	33.2
466.342	33.56
466.697	33.43
467.052	33.43
467.408	33.35
467.763	33.53
468.118	33.8
468.473	33.75
468.829	33.4
469.184	33.59
469.539	33.71
469.894	33.65
470.249	33.82
470.603	33.82
470.958	34.23
471.313	34.12
471.668	34.03
472.023	34.02
472.377	34.01
472.732	34.27
473.086	34.66
473.441	34.56
473.795	34.42
474.15	34.61
474.504	34.34
474.859	34.75
475.213	34.72
475.567	34.78
475.921	34.81
476.275	34.77
476.63	34.76
476.984	34.92
477.338	34.9
477.692	35.01
478.045	34.96
478.399	35.05
478.753	35.17
479.107	35.18
479.461	35.44
479.814	35.43
480.168	35.37
480.521	35.39
480.875	35.44
481.228	35.54
481.582	35.56
481.935	35.84
482.289	35.74
482.642	35.67
482.995	35.66
483.348	35.69
483.701	35.61
484.055	35.76
484.408	35.53
484.761	35.31
485.114	35.22
485.466	35.02
485.819	34.82
486.172	35.01
486.525	35.05
486.878	34.95
487.23	35.07
487.583	35.43
487.936	35.57
488.288	35.78
488.641	35.84
488.993	35.75
489.345	35.59
489.698	35.61
490.05	35.65
490.402	35.61
490.754	35.83
491.107	36
491.459	36.32
491.811	36.32
492.163	36.67
492.515	36.82
492.866	36.78
493.218	36.61
493.57	36.41
493.922	36.44
494.274	36.49
494.625	36.67
494.977	36.71
495.328	37.07
495.68	37.33
496.031	37.52
496.383	37.9
496.734	37.97
497.086	37.91
497.437	37.89
497.788	38
498.139	38.28
498.49	38.14
498.842	38.03
499.193	38.16
499.544	38.19
499.894	38.04
500.245	38.04
500.596	38.34
500.947	38.33
501.298	38.55
501.648	38.67
501.999	38.72
502.35	38.73
502.7	38.99
503.051	38.71
503.401	38.89
503.752	38.93
504.102	39.08
504.452	39.22
504.803	39.25
505.153	39.32
505.503	39.34
505.853	39.36
506.203	39.26
506.553	39.36
506.903	39.44
507.253	39.44
507.603	39.64
507.953	39.68
508.303	39.74
508.652	40.04
509.002	39.85
509.352	39.82
509.701	40.07
510.051	39.78
510.4	39.79
510.75	40
511.099	39.9
511.449	40.04
511.798	40.01
512.147	40.08
512.496	40.28
512.846	40.29
513.195	40.32
513.544	40.38
513.893	40.49
514.242	40.26
514.591	40.39
514.939	40.82
515.288	40.62
515.637	40.79
515.986	40.82
516.334	40.89
516.683	41.18
517.032	41.01
517.38	41.03
517.729	41.26
518.077	41.25
518.426	41.23
518.774	41.42
519.122	41.31
519.47	41.38
519.819	41.22
520.167	41.11
520.515	41
520.863	41.08
521.211	41.21
521.559	41.43
521.907	41.24
522.255	41.33
522.602	41.74
522.95	41.8
523.298	41.77
523.645	42.03
523.993	42.12
524.341	42.16
524.688	42.33
525.036	42.36
525.383	42.29
525.73	42.52
526.078	42.48
526.425	42.61
526.772	42.4
527.119	42.31
527.466	42.24
527.814	42.27
528.161	42.2
528.508	42.32
528.854	42.25
529.201	42.53
529.548	42.49
529.895	42.51
530.242	42.08
530.588	41.83
530.935	42.14
531.282	42.21
531.628	42.22
531.975	42.2
532.321	42.25
532.667	42.6
533.014	42.81
533.36	43.12
533.706	43.21
534.052	43.31
534.399	43.18
534.745	43.28
535.091	43.09
535.437	43.01
535.783	42.91
536.129	42.92
536.474	43.25
536.82	43.48
537.166	43.73
537.512	43.82
537.857	43.84
538.203	43.75
538.549	44
538.894	43.84
539.239	43.94
539.585	43.95
539.93	44.09
540.276	44.12
540.621	44.4
540.966	44.6
541.311	44.77
541.656	44.84
542.001	44.84
542.346	45.02
542.691	44.55
543.036	44.46
543.381	44.23
543.726	44.11
544.071	44.3
544.415	44.24
544.76	44.29
545.105	44.61
545.449	44.8
545.794	45.09
546.138	45.26
546.483	45.31
546.827	45.25
547.171	45.5
547.516	45.6
547.86	45.49
548.204	45.6
548.548	45.74
548.892	45.76
549.236	45.61
549.58	45.83
549.924	45.92
550.268	46.17
550.612	46.17
550.956	46.55
551.3	46.52
551.643	46.82
551.987	46.8
552.33	47.07
552.674	46.83
553.017	47.09
553.361	46.66
553.704	47.25
554.048	47.03
554.391	46.89
554.734	46.99
555.077	47.22
555.42	46.94
555.764	47.18
556.107	47.36
556.45	47.22
556.793	47.32
557.135	47.43
557.478	47.5
557.821	47.58
558.164	47.69
558.507	47.96
558.849	48.03
559.192	48.07
559.534	47.98
559.877	48.11
560.219	48.21
560.562	48.17
560.904	48.06
561.246	48.09
561.589	48.49
561.931	48.3
562.273	48.28
562.615	48.51
562.957	48.58
563.299	48.82
563.641	48.75
563.983	48.4
564.325	48.53
564.667	48.69
565.008	48.92
565.35	48.88
565.692	49
566.033	48.92
566.375	49.16
566.716	49.46
567.058	48.94
567.399	49.21
567.741	48.9
568.082	49.33
568.423	49.06
568.764	49.18
569.105	49.03
569.447	49.27
569.788	49.47
570.129	49.55
570.47	49.57
570.811	49.66
571.151	49.58
571.492	49.8
571.833	49.83
572.174	49.74
572.514	49.85
572.855	49.74
573.195	50.14
573.536	50
573.876	50.06
574.217	49.7
574.557	50.05
574.898	50.1
575.238	50.23
575.578	50.11
575.918	50.22
576.258	50.31
576.598	50.51
576.938	50.43
577.278	50.64
577.618	50.62
577.958	50.56
578.298	50.65
578.638	50.67
578.977	50.7
579.317	51.02
579.657	50.89
579.996	51.21
580.336	51.35
580.675	51.06
581.014	51.51
581.354	51.42
581.693	51.43
582.032	51.63
582.372	51.61
582.711	51.81
583.05	51.89
583.389	51.9
583.728	51.63
584.067	52.2
584.406	51.86
584.745	51.98
585.083	52.45
585.422	52.03
585.761	52.48
586.1	52.66
586.438	51.74
586.777	52.29
587.115	52.28
587.454	52.55
587.792	52.38
588.13	52.39
588.469	52.57
588.807	52.82
589.145	52.84
589.483	52.76
589.821	52.92
590.159	52.94
590.497	52.83
590.835	52.5
591.173	53.08
591.511	52.9
591.849	52.66
592.187	52.81
592.524	53.02
592.862	53.28
593.2	53.48
593.537	53.4
593.875	53.13
594.212	53.17
594.55	53.36
594.887	53.52
595.224	53.44
595.561	53.6
595.899	53.67
596.236	53.89
596.573	54.31
596.91	53.85
597.247	53.62
597.584	53.37
597.921	53.84
598.258	53.71
598.594	53.97
598.931	53.75
599.268	53.55
599.604	53.47
599.941	54.02
600.277	53.89
600.614	54.06
600.95	54.22
601.287	54.1
601.623	54.23
601.959	54.44
602.296	54.72
602.632	54.76
602.968	54.29
603.304	54.78
603.64	54.78
603.976	54.65
604.312	55.34
604.648	54.76
604.984	54.89
605.319	54.88
605.655	54.95
605.991	54.95
606.326	54.82
606.662	54.73
606.998	54.95
607.333	54.7
607.668	55.13
608.004	55.1
608.339	55.25
608.674	55.17
609.01	55.37
609.345	55.55
609.68	55.34
610.015	55.42
610.35	55.51
610.685	55.76
611.02	55.75
611.355	55.62
611.689	55.65
612.024	56.06
612.359	55.82
612.694	55.57
613.028	55.93
613.363	56.04
613.697	56.36
614.032	56.1
614.366	56.31
614.7	56.17
615.035	56.53
615.369	56.57
615.703	56.43
616.037	56.74
616.371	56.82
616.705	56.63
617.039	56.99
617.373	56.35
617.707	56.86
618.041	57.06
618.375	57.07
618.709	57.39
619.042	57.08
619.376	56.9
619.71	57.17
620.043	57.1
620.377	57.65
620.71	57.15
621.043	57.44
621.377	56.97
621.71	57.54
622.043	57.19
622.376	57.81
622.709	57.62
623.043	57.74
623.376	57.47
623.709	57.55
624.041	57.22
624.374	57.96
624.707	57.98
625.04	57.88
625.373	58.23
625.705	57.22
626.038	57.91
626.37	58.13
626.703	57.98
627.035	58.27
627.368	58.29
627.7	58.2
628.032	58.09
628.365	57.97
628.697	58.4
629.029	58.38
629.361	58.11
629.693	58.17
630.025	58.03
630.357	58.43
630.689	58.25
631.021	58.24
631.353	59.21
631.684	58.49
632.016	58.8
632.348	58.55
632.679	58.58
633.011	58.68
633.342	58.73
633.674	58.73
634.005	59.02
634.336	59.22
634.668	58.64
634.999	58.68
635.33	59.54
635.661	59.26
635.992	59.08
636.323	60.03
636.654	59.56
636.985	59.21
637.316	58.99
637.647	59.05
637.977	59.49
638.308	58.83
638.639	59.53
638.969	60.2
639.3	59.54
639.63	59.69
639.961	59.99
640.291	59.8
640.622	59.6
640.952	59.71
641.282	59.75
641.612	60.3
641.943	59.7
642.273	60.12
642.603	60.13
642.933	59.96
643.263	60.83
643.592	59.78
643.922	60.89
644.252	60.01
644.582	60.27
644.911	60.78
645.241	61.12
645.571	61.41
645.9	61.15
646.23	60.47
646.559	60.65
646.888	60.5
647.218	61.02
647.547	60.49
647.876	60.74
648.205	61.13
648.534	60.99
648.863	61.37
649.192	61.23
649.521	60.59
649.85	61.05
650.179	61.04
650.508	61.21
650.837	60.97
651.165	60.8
651.494	61.17
651.822	61.13
652.151	61.47
652.479	60.95
652.808	61.21
653.136	61.39
653.465	61.37
653.793	61.81
654.121	61.73
654.449	61.67
654.777	62.03
655.105	61.88
655.433	61.82
655.761	61.24
656.089	61.44
656.417	61.61
656.745	62.22
657.073	62.12
657.4	62.74
657.728	62.38
658.056	61.73
658.383	63.04
658.711	61.53
659.038	62.26
659.365	61.33
659.693	62.2
660.02	62.56
660.347	61.59
660.674	62.02
661.001	62.21
661.329	62.23
661.656	62.37
661.982	62.19
662.309	62.22
662.636	62.2
662.963	61.8
663.29	63.32
663.616	62.47
663.943	62.39
664.27	62.79
664.596	62.8
664.923	63.42
665.249	62.98
665.576	62.98
665.902	63.02
666.228	63.06
666.554	63.16
666.881	62.69
667.207	62.56
667.533	62.57
667.859	63.07
668.185	63.09
668.511	63.55
668.837	62.95
669.162	62.92
