Data from 0365_chest_Reflection__0__294.txt Node

Date: Fri Oct 20 23:03:54 CDT 2023
User: ToomeyLab
Spectrometer: FLMS14357
Trigger mode: 0
Integration Time (sec): 1.000000E-2
Scans to average: 100
Electric dark correction enabled: true
Nonlinearity correction enabled: false
Boxcar width: 0
XAxis mode: Wavelengths
Number of Pixels in Spectrum: 2048
>>>>>Begin Spectral Data<<<<<
189.047	-8.73
189.435	-8.73
189.823	-8.73
190.211	71.72
190.599	-139.89
190.987	65.11
191.375	119.15
191.763	171.65
192.151	212.78
192.538	-114.46
192.926	454.05
193.314	70.57
193.702	75.79
194.089	150.5
194.477	129.3
194.864	202.93
195.252	42.4
195.639	-803.53
196.027	-491.59
196.414	-10.91
196.801	76.85
197.189	-68.06
197.576	100.57
197.963	-251.92
198.351	40.33
198.738	-33.24
199.125	49.98
199.512	61.99
199.899	-11.75
200.286	-41.14
200.673	36.33
201.06	-2.05
201.447	33.6
201.833	84.28
202.22	45.92
202.607	68.24
202.994	43.28
203.38	-10.53
203.767	16.13
204.154	25.6
204.54	19.84
204.927	32.51
205.313	10.16
205.699	59.12
206.086	-10.5
206.472	50.62
206.858	27.66
207.245	19.79
207.631	29.59
208.017	42.42
208.403	-6.34
208.789	45.57
209.175	-3.8
209.561	7.87
209.947	5.75
210.333	-4.92
210.719	13.87
211.105	14.89
211.491	18.59
211.876	13.56
212.262	60.51
212.648	29.79
213.034	-22.44
213.419	0.69
213.805	0.68
214.19	-6.04
214.576	-21.75
214.961	-6.06
215.346	29.24
215.732	9.89
216.117	-42.92
216.502	18.47
216.888	24.62
217.273	-6.03
217.658	28.81
218.043	7.11
218.428	14.11
218.813	19.12
219.198	16.94
219.583	-10.73
219.968	-33.83
220.353	24.69
220.738	15.67
221.122	-15.06
221.507	20.14
221.892	3.49
222.276	6.3
222.661	17.41
223.046	14.7
223.43	4.8
223.815	6.45
224.199	12.28
224.583	-6.11
224.968	-7.93
225.352	-2.3
225.736	1.22
226.121	1.17
226.505	6.77
226.889	13.21
227.273	4.05
227.657	8.03
228.041	8.45
228.425	2.54
228.809	7.65
229.193	4
229.577	7.06
229.961	3.33
230.344	3.61
230.728	4.09
231.112	5.52
231.495	3.63
231.879	4.31
232.263	6.3
232.646	3.16
233.03	4.07
233.413	2.8
233.797	4.49
234.18	4.19
234.563	4.54
234.946	7.02
235.33	3.75
235.713	2.38
236.096	5.1
236.479	5.46
236.862	5.41
237.245	3.09
237.628	5.37
238.011	4.56
238.394	5.29
238.777	6.91
239.16	4.67
239.543	6.62
239.925	8.11
240.308	5.79
240.691	4.52
241.073	6
241.456	5.73
241.838	4.36
242.221	5.83
242.603	4.55
242.986	5.48
243.368	4.6
243.75	4.63
244.133	4.61
244.515	4.27
244.897	4.56
245.279	4.7
245.661	4.09
246.043	4.78
246.425	4.4
246.807	4.5
247.189	4.5
247.571	3.01
247.953	4.54
248.335	4.86
248.717	4.35
249.098	4.41
249.48	4.45
249.862	4.76
250.243	5.06
250.625	4.66
251.006	4.68
251.388	4.65
251.769	4.46
252.151	3.32
252.532	4.25
252.913	4.69
253.295	3.74
253.676	4.91
254.057	4.73
254.438	4.64
254.819	4.58
255.2	5.23
255.581	4.06
255.962	4.09
256.343	4.63
256.724	3.04
257.105	5.75
257.486	5.63
257.867	4.46
258.247	3.87
258.628	4.41
259.009	3.6
259.389	4.06
259.77	3.79
260.15	4.62
260.531	5.09
260.911	4.61
261.292	4.37
261.672	4.58
262.052	4.35
262.432	4.46
262.813	4.33
263.193	4.49
263.573	3.45
263.953	4
264.333	4.33
264.713	4.97
265.093	4.76
265.473	4.79
265.853	4.49
266.233	4.73
266.612	4.27
266.992	4.06
267.372	4.33
267.752	4.47
268.131	4.5
268.511	4.78
268.89	4.21
269.27	4.47
269.649	4.13
270.029	4.3
270.408	4.85
270.787	4.36
271.167	3.81
271.546	4.67
271.925	4.65
272.304	4.84
272.683	4.61
273.062	4.12
273.441	4.27
273.82	4.66
274.199	4.4
274.578	4.64
274.957	4.18
275.336	4.34
275.715	4.13
276.093	4.11
276.472	4.18
276.851	4.54
277.229	4.22
277.608	4.05
277.986	3.92
278.365	4.34
278.743	4.12
279.122	4.01
279.5	4.44
279.878	3.41
280.257	4.18
280.635	4.31
281.013	4.24
281.391	4.28
281.769	4.2
282.147	4.11
282.525	4.88
282.903	3.93
283.281	4.11
283.659	4.11
284.037	4.2
284.415	3.85
284.792	3.75
285.17	4.48
285.548	4.47
285.925	4.11
286.303	3.7
286.68	4.44
287.058	4.67
287.435	4.28
287.813	3.81
288.19	3.98
288.567	4.42
288.945	4.45
289.322	4.8
289.699	4.14
290.076	4.71
290.453	4.8
290.83	3.75
291.207	4.87
291.584	4.06
291.961	4.3
292.338	4.2
292.715	4.39
293.092	4.39
293.469	4.76
293.845	4.33
294.222	4.56
294.599	4.38
294.975	4.86
295.352	4.76
295.728	5.03
296.105	4.5
296.481	4.72
296.858	4.64
297.234	4.77
297.61	4.34
297.986	4.83
298.363	5.17
298.739	5.08
299.115	4.84
299.491	4.68
299.867	4.69
300.243	4.85
300.619	4.45
300.995	4.41
301.371	4.79
301.746	4.87
302.122	5.21
302.498	4.42
302.874	4.72
303.249	4.73
303.625	4.89
304	5.08
304.376	4.97
304.751	4.74
305.127	4.74
305.502	5.41
305.878	5.49
306.253	4.88
306.628	5.33
307.003	4.77
307.378	4.82
307.754	5.06
308.129	5.74
308.504	5.33
308.879	5.33
309.254	5.77
309.629	5.09
310.003	4.96
310.378	5.3
310.753	5.3
311.128	5.79
311.502	5.35
311.877	5.63
312.252	5.3
312.626	5.35
313.001	5.32
313.375	5.43
313.75	5.24
314.124	5.25
314.498	5.41
314.873	5.06
315.247	5.06
315.621	5.36
315.995	6.05
316.369	5.16
316.743	5.82
317.117	5.45
317.491	4.68
317.865	5.91
318.239	5.95
318.613	5.62
318.987	5.31
319.361	5.36
319.734	5.59
320.108	5.41
320.482	5.76
320.855	5.74
321.229	5.73
321.602	5.67
321.976	5.85
322.349	5.86
322.723	5.26
323.096	5.59
323.469	5.71
323.843	5.44
324.216	5.49
324.589	5.87
324.962	6.11
325.335	5.51
325.708	5.55
326.081	6.04
326.454	5.75
326.827	6.03
327.2	5.89
327.573	6.17
327.945	5.93
328.318	5.04
328.691	5.39
329.063	5.9
329.436	5.32
329.809	5.81
330.181	5.94
330.553	5.59
330.926	5.51
331.298	5.99
331.671	5.39
332.043	5.63
332.415	5.38
332.787	5.87
333.159	5.82
333.532	5.83
333.904	6.12
334.276	5.66
334.648	5.41
335.02	6.26
335.391	5.45
335.763	6.28
336.135	5.69
336.507	5.83
336.879	5.77
337.25	5.33
337.622	6.04
337.993	6.28
338.365	5.85
338.736	5.99
339.108	6
339.479	5.49
339.851	5.92
340.222	5.57
340.593	5.53
340.964	5.53
341.336	6.24
341.707	5.36
342.078	5.55
342.449	5.9
342.82	6.17
343.191	5.76
343.562	5.89
343.933	5.89
344.303	5.88
344.674	6.01
345.045	6.23
345.416	6.18
345.786	5.63
346.157	6.25
346.527	6.15
346.898	5.94
347.268	5.88
347.639	6.01
348.009	5.69
348.38	6.46
348.75	5.92
349.12	5.86
349.49	6
349.861	6.39
350.231	6.04
350.601	5.88
350.971	5.85
351.341	6.14
351.711	6.7
352.081	5.95
352.45	5.84
352.82	5.68
353.19	6.56
353.56	6.24
353.929	5.95
354.299	6.24
354.669	6.1
355.038	6.07
355.408	6.23
355.777	6.34
356.147	5.89
356.516	6.01
356.885	6.25
357.254	5.75
357.624	6.23
357.993	5.9
358.362	6.02
358.731	5.67
359.1	5.56
359.469	5.93
359.838	5.85
360.207	5.91
360.576	6.36
360.945	5.55
361.314	6.06
361.682	5.98
362.051	6.02
362.42	5.95
362.788	6.18
363.157	6.05
363.525	5.77
363.894	6.03
364.262	5.74
364.631	6.2
364.999	5.84
365.367	5.94
365.735	5.82
366.104	5.88
366.472	6.01
366.84	6.09
367.208	6.32
367.576	5.97
367.944	6.06
368.312	6.01
368.68	6.58
369.048	6.09
369.416	6.25
369.783	6.11
370.151	6
370.519	6.22
370.886	6.14
371.254	6.38
371.621	6.6
371.989	5.95
372.356	6.17
372.724	6.14
373.091	6.16
373.458	5.72
373.826	6.01
374.193	5.94
374.56	6.27
374.927	6.32
375.294	6.23
375.661	6.32
376.028	6.19
376.395	6.11
376.762	6.23
377.129	6.11
377.496	6.39
377.863	6.35
378.229	6.53
378.596	6.56
378.963	6.27
379.329	6.26
379.696	6.37
380.062	6.21
380.429	5.92
380.795	6.19
381.161	6.33
381.528	6.4
381.894	6.2
382.26	6.5
382.626	6.3
382.993	6.12
383.359	6.37
383.725	6.62
384.091	6.47
384.457	6.51
384.823	6.36
385.188	6.37
385.554	6.41
385.92	6.49
386.286	6.47
386.651	6.07
387.017	6.58
387.383	6.71
387.748	6.21
388.114	6.26
388.479	6.32
388.845	6.34
389.21	6.33
389.575	5.92
389.94	6.06
390.306	6.43
390.671	6.13
391.036	6.47
391.401	6.73
391.766	6.32
392.131	6.32
392.496	6.36
392.861	6.45
393.226	6.4
393.591	6.31
393.956	6.32
394.32	6.76
394.685	6.61
395.05	6.59
395.414	6.66
395.779	6.24
396.143	6.52
396.508	6.37
396.872	6.33
397.236	6.39
397.601	6.4
397.965	6.16
398.329	6.18
398.694	6.61
399.058	6.33
399.422	6.39
399.786	6.38
400.15	6.6
400.514	6.39
400.878	6.62
401.242	6.69
401.605	6.67
401.969	6.4
402.333	6.52
402.697	6.57
403.06	6.55
403.424	6.31
403.787	6.51
404.151	6.39
404.514	6.77
404.878	6.57
405.241	6.5
405.604	6.29
405.968	6.54
406.331	6.55
406.694	6.56
407.057	6.54
407.42	6.74
407.783	6.67
408.146	6.56
408.509	6.69
408.872	6.85
409.235	6.18
409.598	6.77
409.961	6.77
410.323	6.43
410.686	6.52
411.049	6.66
411.411	6.66
411.774	6.68
412.136	6.51
412.499	6.73
412.861	6.54
413.223	6.54
413.586	6.86
413.948	6.82
414.31	6.75
414.672	6.62
415.035	6.57
415.397	6.79
415.759	6.7
416.121	6.67
416.483	6.89
416.845	6.77
417.206	6.78
417.568	6.94
417.93	6.8
418.292	6.59
418.653	6.78
419.015	6.64
419.377	6.56
419.738	6.61
420.1	6.71
420.461	6.74
420.822	6.58
421.184	6.62
421.545	6.76
421.906	6.66
422.267	6.6
422.629	6.7
422.99	6.61
423.351	6.61
423.712	6.51
424.073	6.66
424.434	6.59
424.795	6.65
425.155	6.71
425.516	6.59
425.877	6.61
426.238	6.55
426.598	6.75
426.959	6.61
427.32	6.76
427.68	6.75
428.041	6.65
428.401	6.87
428.761	6.86
429.122	6.86
429.482	6.8
429.842	6.92
430.202	6.82
430.563	6.88
430.923	6.98
431.283	6.97
431.643	7
432.003	7.21
432.363	6.88
432.722	7.07
433.082	6.9
433.442	6.84
433.802	7.17
434.161	6.93
434.521	7.07
434.881	7.04
435.24	6.78
435.6	6.86
435.959	7
436.319	7.02
436.678	7.07
437.037	6.86
437.396	7.11
437.756	7.14
438.115	7.01
438.474	7.13
438.833	7.08
439.192	7.04
439.551	7.06
439.91	7.08
440.269	7.06
440.628	7.05
440.987	7.04
441.345	6.98
441.704	7.01
442.063	6.96
442.421	7.01
442.78	6.92
443.138	7.13
443.497	7.04
443.855	6.99
444.214	6.94
444.572	7
444.93	7.18
445.288	7.11
445.647	7.44
446.005	6.85
446.363	7.08
446.721	7.05
447.079	7.2
447.437	7.14
447.795	7.05
448.153	7.04
448.51	6.98
448.868	7.02
449.226	6.97
449.584	7.08
449.941	7.03
450.299	7.22
450.656	7.11
451.014	7.16
451.371	7.17
451.729	7.23
452.086	7.24
452.443	7.24
452.801	7.02
453.158	7.19
453.515	7.33
453.872	7.34
454.229	7.35
454.586	7.1
454.943	7.34
455.3	7.24
455.657	7.31
456.014	7.29
456.371	7.29
456.727	7.52
457.084	7.33
457.441	7.44
457.797	7.21
458.154	7.31
458.51	7.34
458.867	7.4
459.223	7.33
459.58	7.31
459.936	7.4
460.292	7.4
460.648	7.26
461.005	7.14
461.361	7.35
461.717	7.19
462.073	7.38
462.429	7.23
462.785	7.39
463.141	7.44
463.496	7.28
463.852	7.5
464.208	7.53
464.564	7.6
464.919	7.52
465.275	7.6
465.631	7.71
465.986	7.69
466.342	7.74
466.697	7.63
467.052	7.58
467.408	7.59
467.763	7.55
468.118	7.88
468.473	7.53
468.829	7.67
469.184	7.55
469.539	7.68
469.894	7.76
470.249	7.61
470.603	7.5
470.958	7.9
471.313	7.85
471.668	7.76
472.023	7.74
472.377	7.55
472.732	7.68
473.086	7.84
473.441	7.74
473.795	7.74
474.15	7.65
474.504	7.62
474.859	7.67
475.213	7.78
475.567	7.78
475.921	7.7
476.275	7.78
476.63	7.84
476.984	7.87
477.338	7.66
477.692	7.7
478.045	7.9
478.399	7.73
478.753	7.68
479.107	7.93
479.461	7.96
479.814	7.98
480.168	7.88
480.521	7.92
480.875	7.95
481.228	7.92
481.582	7.87
481.935	7.95
482.289	8
482.642	7.84
482.995	7.78
483.348	7.88
483.701	7.9
484.055	7.84
484.408	7.78
484.761	7.68
485.114	7.65
485.466	7.58
485.819	7.51
486.172	7.43
486.525	7.44
486.878	7.48
487.23	7.54
487.583	7.63
487.936	7.65
488.288	7.74
488.641	7.76
488.993	7.73
489.345	7.71
489.698	7.65
490.05	7.66
490.402	7.69
490.754	7.67
491.107	7.68
491.459	7.83
491.811	7.92
492.163	7.97
492.515	8.03
492.866	8.01
493.218	7.95
493.57	7.81
493.922	7.88
494.274	7.88
494.625	7.81
494.977	7.95
495.328	8.06
495.68	8.08
496.031	8.06
496.383	8.19
496.734	8.16
497.086	8.37
497.437	8.31
497.788	8.24
498.139	8.38
498.49	8.22
498.842	8.18
499.193	8.38
499.544	8.22
499.894	8.33
500.245	8.25
500.596	8.31
500.947	8.32
501.298	8.29
501.648	8.36
501.999	8.38
502.35	8.48
502.7	8.71
503.051	8.5
503.401	8.55
503.752	8.43
504.102	8.62
504.452	8.47
504.803	8.48
505.153	8.57
505.503	8.72
505.853	8.61
506.203	8.52
506.553	8.56
506.903	8.56
507.253	8.76
507.603	8.52
507.953	8.67
508.303	8.61
508.652	8.75
509.002	8.66
509.352	8.71
509.701	8.72
510.051	8.72
510.4	8.65
510.75	8.69
511.099	8.68
511.449	8.66
511.798	8.79
512.147	8.76
512.496	8.78
512.846	8.74
513.195	8.87
513.544	8.65
513.893	8.77
514.242	8.83
514.591	8.8
514.939	8.78
515.288	8.75
515.637	8.95
515.986	8.98
516.334	8.82
516.683	8.95
517.032	8.84
517.38	8.86
517.729	9.05
518.077	9.06
518.426	9.09
518.774	8.93
519.122	9
519.47	9.01
519.819	8.96
520.167	8.92
520.515	8.96
520.863	9.01
521.211	8.98
521.559	9.04
521.907	8.94
522.255	8.94
522.602	9.28
522.95	9.19
523.298	9.19
523.645	9.26
523.993	9.15
524.341	9.45
524.688	9.28
525.036	9.48
525.383	9.44
525.73	9.49
526.078	9.33
526.425	9.4
526.772	9.26
527.119	9.37
527.466	9.24
527.814	9.29
528.161	9.2
528.508	9.34
528.854	9.32
529.201	9.35
529.548	9.34
529.895	9.34
530.242	9.16
530.588	9.09
530.935	9.12
531.282	9.15
531.628	9.19
531.975	9.13
532.321	9.27
532.667	9.36
533.014	9.47
533.36	9.61
533.706	9.69
534.052	9.68
534.399	9.54
534.745	9.56
535.091	9.53
535.437	9.57
535.783	9.53
536.129	9.57
536.474	9.6
536.82	9.71
537.166	9.67
537.512	9.76
537.857	9.8
538.203	9.88
538.549	9.93
538.894	9.77
539.239	9.85
539.585	9.84
539.93	9.91
540.276	10.05
540.621	9.98
540.966	10.16
541.311	10.26
541.656	10.19
542.001	10.28
542.346	10.29
542.691	10.11
543.036	10.08
543.381	9.9
543.726	9.9
544.071	9.93
544.415	9.98
544.76	9.96
545.105	10.15
545.449	10.16
545.794	10.33
546.138	10.36
546.483	10.33
546.827	10.39
547.171	10.47
547.516	10.49
547.86	10.43
548.204	10.39
548.548	10.51
548.892	10.56
549.236	10.58
549.58	10.64
549.924	10.54
550.268	10.51
550.612	10.73
550.956	10.91
551.3	10.75
551.643	10.95
551.987	10.94
552.33	11
552.674	11.2
553.017	11.09
553.361	11.21
553.704	11.21
554.048	11.08
554.391	11.29
554.734	11.24
555.077	11.08
555.42	11.12
555.764	11.19
556.107	11.3
556.45	11.18
556.793	11.2
557.135	11.43
557.478	11.25
557.821	11.49
558.164	11.68
558.507	11.56
558.849	11.53
559.192	11.47
559.534	11.74
559.877	11.54
560.219	11.68
560.562	11.73
560.904	11.53
561.246	11.81
561.589	11.61
561.931	11.72
562.273	11.99
562.615	11.76
562.957	11.83
563.299	11.81
563.641	11.89
563.983	11.95
564.325	11.89
564.667	12.08
565.008	11.94
565.35	12.04
565.692	11.97
566.033	11.99
566.375	12.23
566.716	11.97
567.058	12.12
567.399	12.12
567.741	12.05
568.082	12.3
568.423	12.13
568.764	12.11
569.105	12.38
569.447	12.2
569.788	12.34
570.129	12.26
570.47	12.42
570.811	12.48
571.151	12.56
571.492	12.72
571.833	12.7
572.174	12.57
572.514	12.55
572.855	12.41
573.195	12.73
573.536	12.49
573.876	12.82
574.217	12.7
574.557	12.51
574.898	12.5
575.238	12.65
575.578	12.81
575.918	12.62
576.258	12.7
576.598	13.01
576.938	12.83
577.278	13.08
577.618	12.89
577.958	12.9
578.298	12.93
578.638	13.05
578.977	13.02
579.317	13.2
579.657	13.3
579.996	13.36
580.336	13.33
580.675	13.27
581.014	13.66
581.354	13.39
581.693	13.51
582.032	13.53
582.372	13.44
582.711	13.75
583.05	13.91
583.389	13.51
583.728	13.77
584.067	13.92
584.406	13.89
584.745	13.77
585.083	14
585.422	13.8
585.761	13.9
586.1	14
586.438	13.49
586.777	14.09
587.115	14.19
587.454	14.03
587.792	14.28
588.13	14.02
588.469	14.14
588.807	13.96
589.145	14.54
589.483	14.21
589.821	14.1
590.159	14.39
590.497	14.61
590.835	14.41
591.173	14.71
591.511	14.27
591.849	14.12
592.187	14.52
592.524	14.35
592.862	14.69
593.2	14.85
593.537	14.49
593.875	14.42
594.212	14.77
594.55	15.06
594.887	14.96
595.224	14.65
595.561	14.7
595.899	14.74
596.236	14.83
596.573	15.09
596.91	14.9
597.247	14.8
597.584	14.69
597.921	15.21
598.258	15.03
598.594	14.97
598.931	14.9
599.268	14.99
599.604	15.06
599.941	14.96
600.277	15.26
600.614	15.36
600.95	15.3
601.287	15.23
601.623	15.27
601.959	15.5
602.296	15.49
602.632	15.63
602.968	15.37
603.304	15.82
603.64	15.57
603.976	15.44
604.312	16.08
604.648	15.76
604.984	16
605.319	15.73
605.655	15.71
605.991	15.8
606.326	15.81
606.662	15.55
606.998	15.81
607.333	15.72
607.668	15.72
608.004	15.82
608.339	15.71
608.674	16.05
609.01	16.17
609.345	16.13
609.68	16.21
610.015	16.12
610.35	16.43
610.685	16.52
611.02	16.34
611.355	16.27
611.689	16.29
612.024	16.38
612.359	16.49
612.694	16.42
613.028	16.58
613.363	16.57
613.697	16.76
614.032	16.53
614.366	16.8
614.7	17.04
615.035	17.32
615.369	16.75
615.703	16.46
616.037	16.94
616.371	17.04
616.705	16.95
617.039	17.11
617.373	16.93
617.707	17.14
618.041	17.11
618.375	17.14
618.709	17.17
619.042	17.26
619.376	17.67
619.71	17.43
620.043	17.75
620.377	17.36
620.71	17.55
621.043	17.32
621.377	17.17
621.71	17.43
622.043	17.64
622.376	17.99
622.709	17.8
623.043	17.85
623.376	17.66
623.709	17.3
624.041	17.88
624.374	18.18
624.707	17.62
625.04	17.75
625.373	17.89
625.705	17.83
626.038	17.69
626.37	17.69
626.703	18.11
627.035	17.82
627.368	18.29
627.7	18.56
628.032	18.1
628.365	18.26
628.697	18.38
629.029	18.35
629.361	18.24
629.693	18.13
630.025	18.22
630.357	18.58
630.689	18.47
631.021	18.44
631.353	18.2
631.684	18.45
632.016	18.55
632.348	18.42
632.679	18.18
633.011	18.84
633.342	18.26
633.674	18.77
634.005	18.91
634.336	19.13
634.668	18.67
634.999	18.42
635.33	18.6
635.661	18.95
635.992	19.35
636.323	19.03
636.654	19.43
636.985	18.83
637.316	18.88
637.647	19.21
637.977	19.29
638.308	19.07
638.639	19.07
638.969	19.69
639.3	18.99
639.63	19.41
639.961	19.21
640.291	19.34
640.622	19.23
640.952	19.51
641.282	19.17
641.612	19.79
641.943	19.63
642.273	19.48
642.603	20.01
642.933	19.64
643.263	19.94
643.592	19.4
643.922	20.17
644.252	19.54
644.582	19.96
644.911	19.66
645.241	20.55
645.571	20.46
645.9	19.86
646.23	19.45
646.559	19.95
646.888	20.28
647.218	19.98
647.547	20.36
647.876	20.28
648.205	20.77
648.534	20.44
648.863	20.36
649.192	20.44
649.521	20.2
649.85	20.82
650.179	20.55
650.508	20.32
650.837	20.37
651.165	20.92
651.494	20.47
651.822	20.64
652.151	20.86
652.479	20.68
652.808	20.87
653.136	20.62
653.465	21.06
653.793	20.93
654.121	20.66
654.449	21.02
654.777	20.89
655.105	20.86
655.433	21.4
655.761	20.75
656.089	21.26
656.417	21.58
656.745	21.14
657.073	20.96
657.4	21.91
657.728	21.75
658.056	21.21
658.383	21.59
658.711	21.34
659.038	21.9
659.365	21.5
659.693	21.35
660.02	21.24
660.347	21.65
660.674	21.4
661.001	21.04
661.329	21.34
661.656	21.74
661.982	21.09
662.309	21.46
662.636	21.35
662.963	21.13
663.29	21.88
663.616	22.1
663.943	21.21
664.27	21.66
664.596	22.2
664.923	21.72
665.249	21.76
665.576	21.45
665.902	22.02
666.228	21.88
666.554	22.57
666.881	21.41
667.207	22.16
667.533	22.5
667.859	22.14
668.185	22.55
668.511	22.98
668.837	22.18
669.162	22.52
669.488	23.19
669.814	22.35
670.139	21.95
670.465	22.46
670.791	23.02
671.116	22.63
671.442	22.54
671.767	22.81
672.092	22.9
672.418	22.77
672.743	22.88
673.068	23.24
673.393	22.78
673.718	22.84
674.043	22.52
674.368	22.6
674.693	23.02
675.018	23.3
675.343	22.88
675.667	23.26
675.992	23.49
676.317	22.94
676.641	23.1
676.966	22.74
677.29	22.94
677.615	23.11
677.939	22.95
678.264	23.25
678.588	22.48
678.912	23.33
679.236	23.33
679.56	23.43
679.885	23.59
680.209	23.36
680.532	23.59
680.856	23.49
681.18	23.65
681.504	23.79
681.828	23.75
682.152	23.89
682.475	23.15
682.799	23.76
