Data from 0365_crown_Reflection__4__303.txt Node

Date: Fri Oct 20 23:06:22 CDT 2023
User: ToomeyLab
Spectrometer: FLMS14357
Trigger mode: 0
Integration Time (sec): 1.000000E-2
Scans to average: 100
Electric dark correction enabled: true
Nonlinearity correction enabled: false
Boxcar width: 0
XAxis mode: Wavelengths
Number of Pixels in Spectrum: 2048
>>>>>Begin Spectral Data<<<<<
189.047	-68.08
189.435	-68.08
189.823	-68.08
190.211	164.05
190.599	-348.8
190.987	49.46
191.375	29.86
191.763	215.82
192.151	-106.88
192.538	-152.72
192.926	-3210.81
193.314	78.77
193.702	162.72
194.089	175.36
194.477	5.02
194.864	123.76
195.252	57.62
195.639	-1028.7
196.027	71.93
196.414	133.81
196.801	106.39
197.189	90.68
197.576	260.46
197.963	-112.54
198.351	43.49
198.738	-24.39
199.125	26.58
199.512	28.97
199.899	68.55
200.286	-16.96
200.673	30.88
201.06	-8.82
201.447	-1.91
201.833	43.56
202.22	14.89
202.607	27.86
202.994	14
203.38	-14.32
203.767	21.17
204.154	43.16
204.54	31.47
204.927	16.38
205.313	-4.37
205.699	38.52
206.086	17.57
206.472	55.08
206.858	81.54
207.245	-13.6
207.631	52.95
208.017	42.19
208.403	19.52
208.789	50.76
209.175	21.03
209.561	18.47
209.947	-4.32
210.333	16.55
210.719	-16.05
211.105	29.53
211.491	1.65
211.876	-44.52
212.262	55.99
212.648	25.75
213.034	4.71
213.419	18.86
213.805	-7.53
214.19	-9.18
214.576	32.9
214.961	1.07
215.346	46.03
215.732	22.72
216.117	-5.86
216.502	-10.67
216.888	23.08
217.273	-16.81
217.658	37.71
218.043	-13.81
218.428	1.57
218.813	7.18
219.198	1.36
219.583	-16.86
219.968	-6.01
220.353	26.15
220.738	8.35
221.122	-0.09
221.507	7.05
221.892	-4.11
222.276	-1.49
222.661	19.1
223.046	7.35
223.43	24.43
223.815	14.77
224.199	29.45
224.583	2.05
224.968	6.33
225.352	2.1
225.736	3.75
226.121	13.08
226.505	7.98
226.889	14.34
227.273	6.9
227.657	18.36
228.041	18.84
228.425	9.6
228.809	11.71
229.193	4.78
229.577	12.9
229.961	8.31
230.344	9.23
230.728	9.31
231.112	10.51
231.495	8.74
231.879	10.22
232.263	9.86
232.646	8.32
233.03	8.85
233.413	9.42
233.797	9.63
234.18	9.92
234.563	11.72
234.946	9.98
235.33	11.43
235.713	9.57
236.096	11.19
236.479	11.16
236.862	9.51
237.245	8.21
237.628	9.45
238.011	10.06
238.394	8.27
238.777	10.61
239.16	10.78
239.543	11.42
239.925	10.87
240.308	11.37
240.691	9.54
241.073	9.03
241.456	9.27
241.838	8.91
242.221	9.92
242.603	8.97
242.986	10.15
243.368	9.92
243.75	8.9
244.133	8.71
244.515	8.92
244.897	8.97
245.279	9.46
245.661	8.87
246.043	9.49
246.425	8.26
246.807	9.17
247.189	8.5
247.571	8.38
247.953	9.12
248.335	9.4
248.717	8.93
249.098	8.45
249.48	8.63
249.862	8.72
250.243	8.91
250.625	8.38
251.006	9.17
251.388	8.91
251.769	9.26
252.151	8.17
252.532	8.89
252.913	9.07
253.295	8.62
253.676	8.57
254.057	8.83
254.438	8.8
254.819	8.44
255.2	8.44
255.581	7.99
255.962	8.43
256.343	9.44
256.724	7.1
257.105	8.22
257.486	8.45
257.867	8.12
258.247	8.1
258.628	7.79
259.009	8.16
259.389	8.05
259.77	7.35
260.15	8.26
260.531	8.81
260.911	8.24
261.292	7.81
261.672	8.41
262.052	8.14
262.432	8.06
262.813	8.25
263.193	7.96
263.573	7.37
263.953	8.33
264.333	8.79
264.713	8.56
265.093	7.74
265.473	8.75
265.853	8.2
266.233	7.74
266.612	7.63
266.992	7.26
267.372	6.51
267.752	7.98
268.131	8.41
268.511	8.03
268.89	7.86
269.27	7.65
269.649	7.26
270.029	7.39
270.408	8.12
270.787	8.41
271.167	7.2
271.546	7.8
271.925	7.84
272.304	8.31
272.683	7.52
273.062	7.79
273.441	7.63
273.82	7.8
274.199	7.74
274.578	7.79
274.957	7.76
275.336	7.62
275.715	7.87
276.093	7.46
276.472	7.22
276.851	7.64
277.229	7.32
277.608	7.29
277.986	7.38
278.365	7.75
278.743	6.96
279.122	7.66
279.5	7.24
279.878	6.66
280.257	7.13
280.635	7.43
281.013	7.22
281.391	7.58
281.769	7.15
282.147	6.86
282.525	7.13
282.903	7.39
283.281	7.58
283.659	7.34
284.037	7.16
284.415	6.73
284.792	6.77
285.17	7.17
285.548	7.06
285.925	6.48
286.303	6.92
286.68	6.71
287.058	7.15
287.435	7.37
287.813	6.5
288.19	7.12
288.567	6.96
288.945	7.17
289.322	6.91
289.699	6.37
290.076	7.37
290.453	7.01
290.83	6.75
291.207	7.32
291.584	6.41
291.961	6.7
292.338	6.69
292.715	6.81
293.092	6.53
293.469	7.12
293.845	6.31
294.222	6.75
294.599	6.27
294.975	7.52
295.352	6.7
295.728	6.69
296.105	6.65
296.481	6.81
296.858	6.55
297.234	6.72
297.61	6.08
297.986	6.26
298.363	6.72
298.739	6.33
299.115	6.38
299.491	6.48
299.867	6.53
300.243	6.34
300.619	6.49
300.995	6.09
301.371	6.52
301.746	6.48
302.122	6.5
302.498	6.37
302.874	6.5
303.249	6.36
303.625	6.59
304	6.52
304.376	6.06
304.751	5.75
305.127	6.17
305.502	6.93
305.878	6.44
306.253	6.05
306.628	6.34
307.003	6.26
307.378	6.22
307.754	6.15
308.129	6.57
308.504	6.55
308.879	6.26
309.254	6.55
309.629	6.16
310.003	5.49
310.378	6.64
310.753	6.14
311.128	6.48
311.502	6.27
311.877	6.52
312.252	5.69
312.626	6.24
313.001	6.09
313.375	5.97
313.75	6.17
314.124	5.89
314.498	5.89
314.873	5.52
315.247	5.76
315.621	6.02
315.995	6.58
316.369	6.12
316.743	6.48
317.117	5.72
317.491	5.56
317.865	6.18
318.239	6.07
318.613	5.51
318.987	5.83
319.361	5.12
319.734	5.85
320.108	5.3
320.482	6.05
320.855	6.45
321.229	6.66
321.602	6.03
321.976	5.18
322.349	5.71
322.723	6.01
323.096	5.5
323.469	5.93
323.843	5.88
324.216	5.94
324.589	5.76
324.962	5.78
325.335	5.85
325.708	5.93
326.081	5.98
326.454	5.94
326.827	6.01
327.2	6.18
327.573	6.15
327.945	5.7
328.318	5.75
328.691	5.68
329.063	6.05
329.436	5.74
329.809	6.44
330.181	6.26
330.553	5.71
330.926	5.89
331.298	5.38
331.671	5.12
332.043	5.8
332.415	5.58
332.787	5.92
333.159	5.56
333.532	6
333.904	5.36
334.276	5.67
334.648	5.99
335.02	5.88
335.391	5.76
335.763	6.38
336.135	5.91
336.507	5.89
336.879	5.85
337.25	5.87
337.622	5.9
337.993	5.86
338.365	5.91
338.736	5.88
339.108	6.21
339.479	5.91
339.851	6.18
340.222	5.75
340.593	5.87
340.964	5.94
341.336	6.07
341.707	5.8
342.078	5.92
342.449	5.93
342.82	5.81
343.191	5.82
343.562	6.16
343.933	5.84
344.303	6.41
344.674	6.55
345.045	5.78
345.416	5.93
345.786	5.86
346.157	6.17
346.527	5.8
346.898	6.12
347.268	6.23
347.639	6.13
348.009	5.68
348.38	5.84
348.75	5.77
349.12	5.98
349.49	5.94
349.861	6.17
350.231	5.78
350.601	6.1
350.971	6.45
351.341	6.06
351.711	6.77
352.081	5.9
352.45	5.91
352.82	6.08
353.19	6.63
353.56	6.43
353.929	5.89
354.299	6.09
354.669	5.88
355.038	6.26
355.408	6.42
355.777	5.85
356.147	5.89
356.516	6.23
356.885	6.41
357.254	5.91
357.624	5.77
357.993	5.88
358.362	6.36
358.731	5.96
359.1	5.81
359.469	5.85
359.838	6.04
360.207	6.25
360.576	6.36
360.945	6
361.314	6.22
361.682	5.92
362.051	5.91
362.42	6.11
362.788	6.13
363.157	6.44
363.525	5.91
363.894	5.95
364.262	6.05
364.631	6.37
364.999	6.4
365.367	6.5
365.735	6.16
366.104	6.2
366.472	6.44
366.84	6.19
367.208	6.37
367.576	6.26
367.944	6.27
368.312	6.02
368.68	6.56
369.048	6.46
369.416	6.68
369.783	6.65
370.151	6.34
370.519	6.45
370.886	6.96
371.254	6.23
371.621	6.43
371.989	6.08
372.356	6.41
372.724	6.59
373.091	6.24
373.458	6.44
373.826	6.43
374.193	6.38
374.56	6.65
374.927	6.6
375.294	6.61
375.661	6.62
376.028	6.56
376.395	6.97
376.762	6.58
377.129	6.76
377.496	6.53
377.863	6.55
378.229	6.96
378.596	6.65
378.963	6.66
379.329	6.71
379.696	6.66
380.062	6.51
380.429	6.61
380.795	6.39
381.161	6.24
381.528	6.82
381.894	6.47
382.26	6.66
382.626	6.97
382.993	6.6
383.359	6.82
383.725	6.66
384.091	6.78
384.457	6.88
384.823	6.64
385.188	7.03
385.554	6.63
385.92	6.91
386.286	6.71
386.651	6.55
387.017	6.66
387.383	6.76
387.748	6.86
388.114	6.69
388.479	6.67
388.845	6.93
389.21	6.74
389.575	6.41
389.94	6.86
390.306	6.56
390.671	6.62
391.036	6.82
391.401	7.07
391.766	6.89
392.131	6.61
392.496	6.89
392.861	6.96
393.226	6.87
393.591	6.74
393.956	6.93
394.32	7.01
394.685	6.78
395.05	7.02
395.414	7.17
395.779	6.7
396.143	6.75
396.508	6.78
396.872	6.98
397.236	6.97
397.601	6.86
397.965	6.81
398.329	6.91
398.694	7.23
399.058	6.82
399.422	6.87
399.786	7.06
400.15	6.79
400.514	6.94
400.878	7.15
401.242	7.16
401.605	7.03
401.969	6.81
402.333	6.79
402.697	7
403.06	7.13
403.424	7.01
403.787	7.33
404.151	7.06
404.514	7.08
404.878	7.36
405.241	7.26
405.604	7.09
405.968	7.17
406.331	7.16
406.694	6.94
407.057	7.16
407.42	7.34
407.783	6.94
408.146	7.06
408.509	6.99
408.872	7.4
409.235	7.32
409.598	7.12
409.961	7.12
410.323	7.22
410.686	7.16
411.049	7.35
411.411	7.23
411.774	7.31
412.136	7.23
412.499	7.24
412.861	7.48
413.223	6.99
413.586	7.12
413.948	7.31
414.31	7.28
414.672	7.15
415.035	7.3
415.397	7.39
415.759	7.48
416.121	7.28
416.483	7.25
416.845	7.1
417.206	7.2
417.568	7.37
417.93	7.36
418.292	7
418.653	7.46
419.015	7.15
419.377	7.11
419.738	7.09
420.1	7.18
420.461	7.38
420.822	7.09
421.184	7.13
421.545	7.26
421.906	7.08
422.267	7.09
422.629	7.2
422.99	7.05
423.351	7.17
423.712	7.17
424.073	7.13
424.434	7.16
424.795	7.06
425.155	7.24
425.516	7.19
425.877	7.25
426.238	6.96
426.598	7.19
426.959	7.12
427.32	7.23
427.68	7.2
428.041	7.19
428.401	7.27
428.761	7.26
429.122	7.36
429.482	7.3
429.842	7.25
430.202	7.38
430.563	7.55
430.923	7.45
431.283	7.36
431.643	7.41
432.003	7.54
432.363	7.45
432.722	7.43
433.082	7.31
433.442	7.34
433.802	7.67
434.161	7.27
434.521	7.56
434.881	7.45
435.24	7.45
435.6	7.44
435.959	7.39
436.319	7.41
436.678	7.49
437.037	7.49
437.396	7.68
437.756	7.58
438.115	7.34
438.474	7.44
438.833	7.5
439.192	7.48
439.551	7.39
439.91	7.33
440.269	7.54
440.628	7.56
440.987	7.48
441.345	7.39
441.704	7.52
442.063	7.43
442.421	7.45
442.78	7.25
443.138	7.56
443.497	7.59
443.855	7.41
444.214	7.46
444.572	7.57
444.93	7.55
445.288	7.68
445.647	7.75
446.005	7.26
446.363	7.62
446.721	7.51
447.079	7.58
447.437	7.46
447.795	7.28
448.153	7.36
448.51	7.42
448.868	7.4
449.226	7.42
449.584	7.44
449.941	7.4
450.299	7.57
450.656	7.5
451.014	7.42
451.371	7.53
451.729	7.52
452.086	7.5
452.443	7.65
452.801	7.57
453.158	7.84
453.515	7.57
453.872	7.65
454.229	7.81
454.586	7.58
454.943	7.61
455.3	7.67
455.657	7.62
456.014	7.51
456.371	7.62
456.727	7.65
457.084	7.59
457.441	7.65
457.797	7.73
458.154	7.53
458.51	7.48
458.867	7.52
459.223	7.61
459.58	7.54
459.936	7.67
460.292	7.66
460.648	7.53
461.005	7.4
461.361	7.58
461.717	7.35
462.073	7.55
462.429	7.45
462.785	7.5
463.141	7.57
463.496	7.55
463.852	7.69
464.208	7.71
464.564	7.79
464.919	7.78
465.275	7.67
465.631	7.73
465.986	7.84
466.342	7.7
466.697	7.62
467.052	7.61
467.408	7.69
467.763	7.72
468.118	7.89
468.473	7.81
468.829	7.72
469.184	7.68
469.539	7.77
469.894	7.58
470.249	7.61
470.603	7.58
470.958	7.86
471.313	8.02
471.668	7.67
472.023	7.75
472.377	7.57
472.732	7.57
473.086	7.83
473.441	7.85
473.795	8.06
474.15	7.61
474.504	7.58
474.859	7.7
475.213	7.86
475.567	7.81
475.921	7.77
476.275	7.67
476.63	7.74
476.984	7.72
477.338	7.69
477.692	7.64
478.045	7.68
478.399	7.58
478.753	7.76
479.107	7.68
479.461	7.72
479.814	7.83
480.168	7.83
480.521	7.69
480.875	7.79
481.228	7.74
481.582	7.76
481.935	7.77
482.289	7.77
482.642	7.56
482.995	7.62
483.348	7.76
483.701	7.67
484.055	7.58
484.408	7.56
484.761	7.52
485.114	7.43
485.466	7.42
485.819	7.21
486.172	7.22
486.525	7.24
486.878	7.3
487.23	7.37
487.583	7.45
487.936	7.46
488.288	7.49
488.641	7.5
488.993	7.48
489.345	7.37
489.698	7.39
490.05	7.32
490.402	7.34
490.754	7.43
491.107	7.4
491.459	7.58
491.811	7.59
492.163	7.66
492.515	7.53
492.866	7.55
493.218	7.49
493.57	7.38
493.922	7.41
494.274	7.46
494.625	7.47
494.977	7.52
495.328	7.58
495.68	7.7
496.031	7.64
496.383	7.81
496.734	7.75
497.086	7.7
497.437	7.77
497.788	7.7
498.139	8.01
498.49	7.77
498.842	7.57
499.193	7.78
499.544	7.69
499.894	7.7
500.245	7.67
500.596	7.75
500.947	7.63
501.298	7.76
501.648	7.72
501.999	7.74
502.35	7.66
502.7	7.97
503.051	7.81
503.401	7.77
503.752	7.72
504.102	7.85
504.452	7.71
504.803	7.67
505.153	7.77
505.503	7.74
505.853	7.86
506.203	7.63
506.553	7.7
506.903	7.66
507.253	7.69
507.603	7.57
507.953	7.7
508.303	7.6
508.652	7.85
509.002	7.81
509.352	7.8
509.701	7.74
510.051	7.73
510.4	7.69
510.75	7.63
511.099	7.69
511.449	7.74
511.798	7.86
512.147	7.72
512.496	7.71
512.846	7.68
513.195	7.74
513.544	7.63
513.893	7.72
514.242	7.69
514.591	7.73
514.939	7.71
515.288	7.59
515.637	7.76
515.986	7.81
516.334	7.75
516.683	7.61
517.032	7.71
517.38	7.64
517.729	7.85
518.077	7.66
518.426	7.71
518.774	7.71
519.122	7.71
519.47	7.79
519.819	7.64
520.167	7.57
520.515	7.66
520.863	7.63
521.211	7.61
521.559	7.69
521.907	7.63
522.255	7.58
522.602	7.74
522.95	7.63
523.298	7.71
523.645	7.73
523.993	7.66
524.341	7.76
524.688	7.77
525.036	7.74
525.383	7.61
525.73	7.76
526.078	7.78
526.425	7.8
526.772	7.72
527.119	7.65
527.466	7.57
527.814	7.62
528.161	7.6
528.508	7.55
528.854	7.53
529.201	7.5
529.548	7.54
529.895	7.59
530.242	7.52
530.588	7.31
530.935	7.26
531.282	7.35
531.628	7.38
531.975	7.35
532.321	7.49
532.667	7.47
533.014	7.49
533.36	7.56
533.706	7.61
534.052	7.63
534.399	7.45
534.745	7.55
535.091	7.48
535.437	7.47
535.783	7.43
536.129	7.43
536.474	7.47
536.82	7.62
537.166	7.53
537.512	7.66
537.857	7.66
538.203	7.54
538.549	7.6
538.894	7.53
539.239	7.56
539.585	7.5
539.93	7.56
540.276	7.69
540.621	7.65
540.966	7.79
541.311	7.66
541.656	7.72
542.001	7.7
542.346	7.68
542.691	7.52
543.036	7.43
543.381	7.36
543.726	7.36
544.071	7.34
544.415	7.4
544.76	7.44
545.105	7.35
545.449	7.46
545.794	7.5
546.138	7.55
546.483	7.52
546.827	7.58
547.171	7.71
547.516	7.51
547.86	7.65
548.204	7.42
548.548	7.48
548.892	7.49
549.236	7.51
549.58	7.55
549.924	7.52
550.268	7.4
550.612	7.57
550.956	7.67
551.3	7.46
551.643	7.65
551.987	7.76
552.33	7.78
552.674	7.65
553.017	7.5
553.361	7.6
553.704	7.75
554.048	7.63
554.391	7.72
554.734	7.58
555.077	7.54
555.42	7.46
555.764	7.48
556.107	7.65
556.45	7.58
556.793	7.48
557.135	7.29
557.478	7.62
557.821	7.61
558.164	7.66
558.507	7.68
558.849	7.66
559.192	7.78
559.534	7.62
559.877	7.49
560.219	7.55
560.562	7.56
560.904	7.49
561.246	7.75
561.589	7.41
561.931	7.64
562.273	7.81
562.615	7.61
562.957	7.61
563.299	7.32
563.641	7.65
563.983	7.4
564.325	7.61
564.667	7.54
565.008	7.47
565.35	7.58
565.692	7.66
566.033	7.51
566.375	7.46
566.716	7.56
567.058	7.53
567.399	7.6
567.741	7.49
568.082	7.55
568.423	7.47
568.764	7.44
569.105	7.55
569.447	7.49
569.788	7.44
570.129	7.48
570.47	7.48
570.811	7.6
571.151	7.37
571.492	7.6
571.833	7.63
572.174	7.57
572.514	7.66
572.855	7.3
573.195	7.57
573.536	7.33
573.876	7.63
574.217	7.25
574.557	7.31
574.898	7.35
575.238	7.35
575.578	7.36
575.918	7.3
576.258	7.7
576.598	7.47
576.938	7.35
577.278	7.46
577.618	7.22
577.958	7.47
578.298	7.35
578.638	7.43
578.977	7.41
579.317	7.28
579.657	7.42
579.996	7.33
580.336	7.62
580.675	7.38
581.014	7.54
581.354	7.41
581.693	7.34
582.032	7.44
582.372	7.16
582.711	7.52
583.05	7.55
583.389	7.6
583.728	7.34
584.067	7.48
584.406	7.33
584.745	7.38
585.083	7.33
585.422	7.4
585.761	7.44
586.1	7.64
586.438	7.12
586.777	7.35
587.115	7.56
587.454	7.48
587.792	7.26
588.13	7.62
588.469	7.59
588.807	7.18
589.145	7.26
589.483	7.21
589.821	7.15
590.159	7.28
590.497	7.33
590.835	7.12
591.173	7.19
591.511	7.41
591.849	7.2
592.187	7.32
592.524	7.18
592.862	7.16
593.2	7.6
593.537	7.14
593.875	7.15
594.212	7.2
594.55	7.26
594.887	7.18
595.224	6.99
595.561	7.19
595.899	7.01
596.236	7.35
596.573	7.22
596.91	7.28
597.247	7.12
597.584	7.01
597.921	7.37
598.258	7.32
598.594	7.52
598.931	6.96
599.268	6.94
599.604	7.03
599.941	7.17
600.277	7.16
600.614	7.38
600.95	7.32
601.287	6.82
601.623	7.43
601.959	7.5
602.296	7.23
602.632	7.35
602.968	7
603.304	7.37
603.64	6.74
603.976	7.26
604.312	7.31
604.648	7.2
604.984	7.18
605.319	7.06
605.655	6.98
605.991	6.95
606.326	6.84
606.662	6.83
606.998	6.94
607.333	6.78
607.668	6.96
608.004	6.86
608.339	6.9
608.674	7.28
609.01	7.23
609.345	6.99
609.68	7.1
610.015	6.85
610.35	7.07
610.685	7.16
611.02	7.05
611.355	6.82
611.689	6.87
612.024	7.05
612.359	6.9
612.694	7.09
613.028	6.97
613.363	6.96
613.697	6.77
614.032	7.13
614.366	6.76
614.7	7.2
615.035	7
615.369	7.1
615.703	6.62
616.037	7.32
616.371	7.18
616.705	7.42
617.039	7.01
617.373	6.94
617.707	6.97
618.041	6.88
618.375	6.64
618.709	6.92
619.042	7.01
619.376	7.17
619.71	7.27
620.043	7.02
620.377	6.81
620.71	6.72
621.043	7.09
621.377	6.97
621.71	7.09
622.043	6.87
622.376	7.32
622.709	7.06
623.043	7.29
623.376	6.86
623.709	6.76
624.041	7.09
624.374	7.1
624.707	6.7
625.04	6.74
625.373	6.88
625.705	6.75
626.038	7.2
626.37	6.51
626.703	7.12
627.035	6.7
627.368	6.95
627.7	7.09
628.032	6.79
628.365	6.73
628.697	6.9
629.029	6.87
629.361	7.03
629.693	6.55
630.025	6.78
630.357	6.73
630.689	6.72
631.021	7.01
631.353	6.74
631.684	6.56
632.016	6.86
632.348	6.87
632.679	6.72
633.011	6.84
633.342	6.49
633.674	6.86
634.005	6.92
634.336	7.34
634.668	6.48
634.999	6.64
635.33	6.82
635.661	6.95
635.992	7.03
636.323	7.04
636.654	6.85
636.985	6.96
637.316	6.86
637.647	6.63
637.977	6.62
638.308	6.92
638.639	6.77
638.969	6.74
639.3	6.48
639.63	6.71
639.961	6.82
640.291	6.35
640.622	6.77
640.952	6.73
641.282	6.37
641.612	6.6
641.943	6.86
642.273	6.89
642.603	6.85
642.933	6.61
643.263	7.18
643.592	6.8
643.922	7.13
644.252	6.35
644.582	6.44
644.911	6.77
645.241	6.9
645.571	7.22
645.9	6.8
646.23	6.5
646.559	6.57
646.888	6.95
647.218	7.2
647.547	6.58
647.876	6.7
648.205	6.62
648.534	6.45
648.863	7.04
649.192	5.99
649.521	6.38
649.85	6.47
650.179	6.73
650.508	6.75
650.837	6.59
651.165	6.96
651.494	6.5
651.822	7.02
652.151	6.64
652.479	6.72
652.808	6.48
653.136	6.26
653.465	6.67
653.793	6.37
654.121	6.95
654.449	6.39
654.777	6.39
655.105	6.6
655.433	7.16
655.761	6.9
656.089	6.97
656.417	6.46
656.745	7.11
657.073	6.58
657.4	7.26
657.728	6.51
658.056	6.64
658.383	6.77
658.711	6.42
659.038	6.71
659.365	6.59
659.693	6.16
660.02	6.99
660.347	6.61
660.674	6.28
661.001	6.31
661.329	6.29
661.656	6.56
661.982	6.62
662.309	6.73
662.636	6.79
662.963	6.62
663.29	6.69
663.616	6.83
663.943	6.16
664.27	6.6
664.596	6.62
664.923	6.15
665.249	6.42
665.576	6.12
665.902	6.5
666.228	6.84
666.554	6.64
666.881	5.84
667.207	6.1
667.533	6.3
667.859	6.56
668.185	6.78
668.511	6.37
668.837	6.61
669.162	7.07
669.488	6.73
669.814	6.31
670.139	6.98
670.465	6.55
670.791	6.84
671.116	6.71
671.442	6.46
671.767	6.34
672.092	6.93
672.418	7.04
672.743	6.52
673.068	6.62
673.393	6.66
673.718	6.13
674.043	6.46
674.368	6.49
674.693	6.73
675.018	7.33
675.343	6.14
675.667	6.44
675.992	6.65
676.317	6.46
676.641	6.49
676.966	6.98
677.29	6.99
677.615	6.96
677.939	5.7
678.264	6.01
678.588	6.19
678.912	7.11
679.236	6.38
679.56	6.24
679.885	6.49
680.209	6.95
680.532	6.06
680.856	6.15
681.18	6.85
681.504	6.96
681.828	6.65
682.152	6.71
682.475	5.99
682.799	6.51
683.122	6.5
683.446	6.57
683.769	6.95
684.093	6.79
684.416	6.51
684.739	6.3
685.062	5.84
685.386	6.55
685.709	6.24
686.032	6.67
686.355	6.97
686.678	6.54
687.001	6.32
687.324	5.57
687.646	6.62
687.969	6.63
688.292	7.27
688.614	5.93
688.937	6.97
689.26	6.11
689.582	5.76
689.904	5.28
690.227	7.2
690.549	6.64
690.871	6.91
691.194	6.61
691.516	6.22
691.838	6.86
