Data from 0365_chest_Reflection__1__295.txt Node

Date: Fri Oct 20 23:04:06 CDT 2023
User: ToomeyLab
Spectrometer: FLMS14357
Trigger mode: 0
Integration Time (sec): 1.000000E-2
Scans to average: 100
Electric dark correction enabled: true
Nonlinearity correction enabled: false
Boxcar width: 0
XAxis mode: Wavelengths
Number of Pixels in Spectrum: 2048
>>>>>Begin Spectral Data<<<<<
189.047	-233.98
189.435	-233.98
189.823	-233.98
190.211	115.24
190.599	83.54
190.987	14.72
191.375	-47.13
191.763	72.5
192.151	165.25
192.538	-160.75
192.926	8618.92
193.314	100.9
193.702	125.64
194.089	106.15
194.477	25.61
194.864	-64.01
195.252	39.48
195.639	-323.84
196.027	-169.08
196.414	93.21
196.801	-13.42
197.189	104.08
197.576	205.79
197.963	-484.4
198.351	30.08
198.738	24.85
199.125	21.28
199.512	23.69
199.899	31.02
200.286	-14.57
200.673	52.5
201.06	6.25
201.447	-13.67
201.833	36.5
202.22	37.26
202.607	35.98
202.994	36.45
203.38	12.59
203.767	10.97
204.154	12.96
204.54	68.13
204.927	23.54
205.313	-5.94
205.699	37.99
206.086	22.12
206.472	38.46
206.858	50.02
207.245	-19.1
207.631	15.34
208.017	23.85
208.403	-28.38
208.789	14.02
209.175	13.38
209.561	40.66
209.947	-5.19
210.333	0.16
210.719	3.64
211.105	36.8
211.491	18.21
211.876	36.21
212.262	30.43
212.648	34.57
213.034	17.67
213.419	-6.58
213.805	0.66
214.19	-11.15
214.576	-11.79
214.961	22.54
215.346	9
215.732	6.81
216.117	-71.69
216.502	9.19
216.888	18.9
217.273	13.67
217.658	12.84
218.043	-1.44
218.428	-20.58
218.813	10.96
219.198	-7.78
219.583	-15.77
219.968	6.02
220.353	-4.69
220.738	13.55
221.122	-13.72
221.507	-0.74
221.892	-9.68
222.276	-4.99
222.661	15.37
223.046	1.64
223.43	-0.95
223.815	18.01
224.199	17.37
224.583	4.8
224.968	-1.95
225.352	-5.6
225.736	1.97
226.121	7.99
226.505	-0.02
226.889	12.55
227.273	2.16
227.657	7.5
228.041	1.42
228.425	2.4
228.809	3.87
229.193	2.16
229.577	5.69
229.961	4.01
230.344	2.25
230.728	3.31
231.112	4.17
231.495	4.19
231.879	4.64
232.263	4.75
232.646	2.18
233.03	2.98
233.413	4.64
233.797	3.14
234.18	3.73
234.563	5.6
234.946	5.27
235.33	2.46
235.713	4.79
236.096	4.26
236.479	5.65
236.862	3.24
237.245	2.61
237.628	4.41
238.011	2.88
238.394	4.19
238.777	4.58
239.16	3.89
239.543	5.41
239.925	5.9
240.308	5.19
240.691	3.12
241.073	5.27
241.456	4.76
241.838	3.92
242.221	5.37
242.603	4.29
242.986	4.06
243.368	4.66
243.75	4.39
244.133	4.03
244.515	4.05
244.897	3.87
245.279	3.8
245.661	2.89
246.043	3.21
246.425	3.61
246.807	4.85
247.189	3.55
247.571	3.22
247.953	3.4
248.335	4.25
248.717	3.56
249.098	3.64
249.48	3.58
249.862	4.01
250.243	3.98
250.625	3.78
251.006	4.14
251.388	3.74
251.769	4.26
252.151	2.59
252.532	3.76
252.913	3.67
253.295	2.87
253.676	3.3
254.057	3.1
254.438	3.92
254.819	3.87
255.2	3.79
255.581	3.68
255.962	3.4
256.343	3.5
256.724	2.3
257.105	4.05
257.486	3.79
257.867	4.4
258.247	3.73
258.628	4.36
259.009	3.25
259.389	3
259.77	2.96
260.15	3.9
260.531	3.94
260.911	3.78
261.292	3.51
261.672	3.83
262.052	3.68
262.432	3.45
262.813	3.47
263.193	3.4
263.573	3.61
263.953	3.63
264.333	3.89
264.713	3.68
265.093	3.94
265.473	3.72
265.853	3.12
266.233	3.48
266.612	3.13
266.992	3.33
267.372	2.8
267.752	2.73
268.131	3.76
268.511	3.48
268.89	3.75
269.27	3.47
269.649	3.34
270.029	3.63
270.408	3.8
270.787	3.77
271.167	3.41
271.546	3.95
271.925	3.51
272.304	3.52
272.683	3.65
273.062	3.35
273.441	3.88
273.82	3.53
274.199	3.84
274.578	3.22
274.957	3.78
275.336	3.95
275.715	3.68
276.093	3.67
276.472	3.53
276.851	4.03
277.229	3.77
277.608	3.29
277.986	3.12
278.365	3.25
278.743	3.11
279.122	3.22
279.5	3.42
279.878	3.04
280.257	3.52
280.635	3.8
281.013	3.67
281.391	3.6
281.769	2.98
282.147	3.16
282.525	3.34
282.903	2.88
283.281	3.42
283.659	3.63
284.037	3.79
284.415	2.54
284.792	3.47
285.17	3.49
285.548	3.76
285.925	2.98
286.303	2.95
286.68	3.47
287.058	3.46
287.435	3.6
287.813	2.62
288.19	3.6
288.567	3.36
288.945	3.47
289.322	3.79
289.699	2.86
290.076	3.86
290.453	3.07
290.83	3.19
291.207	3.72
291.584	3.47
291.961	3.39
292.338	3.25
292.715	3.46
293.092	3.37
293.469	3.81
293.845	3.38
294.222	3.84
294.599	2.74
294.975	3.86
295.352	3.39
295.728	3.32
296.105	3.14
296.481	3.33
296.858	2.92
297.234	3.65
297.61	3.3
297.986	3.4
298.363	3.47
298.739	3.62
299.115	3.5
299.491	3.63
299.867	3.34
300.243	3.13
300.619	3.37
300.995	3.12
301.371	4.03
301.746	3.39
302.122	4.15
302.498	3.75
302.874	3.78
303.249	3.56
303.625	3.35
304	4.26
304.376	3.26
304.751	3.15
305.127	3.58
305.502	4
305.878	3.52
306.253	3.91
306.628	3.71
307.003	3.85
307.378	3.83
307.754	3.46
308.129	4.02
308.504	4.26
308.879	3.95
309.254	3.98
309.629	3.49
310.003	3.01
310.378	3.79
310.753	4.02
311.128	3.47
311.502	3.2
311.877	3.36
312.252	3.14
312.626	3.59
313.001	3.68
313.375	3.52
313.75	3.49
314.124	3.64
314.498	3.46
314.873	3.16
315.247	3.96
315.621	3.59
315.995	4.34
316.369	3.76
316.743	3.74
317.117	4.25
317.491	3.18
317.865	3.63
318.239	4.4
318.613	4.05
318.987	3.71
319.361	2.77
319.734	3.32
320.108	3.31
320.482	4.38
320.855	3.88
321.229	3.99
321.602	3.83
321.976	3.9
322.349	4.12
322.723	3.64
323.096	3.9
323.469	3.68
323.843	3.57
324.216	3.76
324.589	4.02
324.962	4.03
325.335	3.58
325.708	4.13
326.081	3.89
326.454	4.24
326.827	4.28
327.2	3.82
327.573	4.02
327.945	4.13
328.318	3.48
328.691	3.98
329.063	4.15
329.436	3.55
329.809	3.92
330.181	3.9
330.553	4.2
330.926	3.97
331.298	3.48
331.671	3.28
332.043	3.35
332.415	3.87
332.787	3.79
333.159	3.35
333.532	4.11
333.904	3.64
334.276	3.45
334.648	4.06
335.02	4
335.391	3.61
335.763	3.81
336.135	3.86
336.507	3.75
336.879	3.63
337.25	3.75
337.622	3.86
337.993	3.97
338.365	3.46
338.736	4.2
339.108	4.02
339.479	3.76
339.851	3.67
340.222	3.42
340.593	3.76
340.964	3.91
341.336	3.94
341.707	3.91
342.078	4.23
342.449	3.6
342.82	3.44
343.191	3.84
343.562	4.23
343.933	3.85
344.303	3.59
344.674	4.18
345.045	3.83
345.416	4.57
345.786	3.99
346.157	4.33
346.527	3.65
346.898	4.05
347.268	3.98
347.639	4.33
348.009	3.75
348.38	4.29
348.75	3.52
349.12	4.12
349.49	3.99
349.861	4.54
350.231	3.73
350.601	4.04
350.971	4.26
351.341	3.79
351.711	4.61
352.081	4.04
352.45	3.95
352.82	4.4
353.19	4.34
353.56	4.36
353.929	4.11
354.299	3.58
354.669	3.6
355.038	4.27
355.408	3.9
355.777	3.81
356.147	3.96
356.516	3.75
356.885	3.47
357.254	4.06
357.624	3.9
357.993	3.86
358.362	3.73
358.731	3.36
359.1	3.59
359.469	3.73
359.838	3.82
360.207	3.92
360.576	4.25
360.945	3.68
361.314	3.87
361.682	3.67
362.051	3.62
362.42	3.78
362.788	3.94
363.157	3.93
363.525	3.77
363.894	3.68
364.262	3.94
364.631	3.76
364.999	3.93
365.367	4.07
365.735	4.03
366.104	3.97
366.472	3.99
366.84	4.12
367.208	4.09
367.576	4.03
367.944	4.23
368.312	3.88
368.68	3.94
369.048	3.86
369.416	4.33
369.783	4.12
370.151	3.83
370.519	4.02
370.886	4.08
371.254	4.17
371.621	4.26
371.989	3.85
372.356	3.99
372.724	4.22
373.091	4.01
373.458	3.73
373.826	3.68
374.193	4
374.56	4.06
374.927	3.95
375.294	4.14
375.661	4.42
376.028	4.17
376.395	4.17
376.762	3.96
377.129	4.14
377.496	4.29
377.863	4.46
378.229	4.28
378.596	3.75
378.963	3.96
379.329	4.22
379.696	3.88
380.062	4.09
380.429	3.7
380.795	3.65
381.161	4.13
381.528	4.32
381.894	3.98
382.26	4.38
382.626	4.26
382.993	4.22
383.359	4.27
383.725	4.21
384.091	4.18
384.457	4.08
384.823	3.86
385.188	4.26
385.554	3.95
385.92	3.94
386.286	4.32
386.651	3.92
387.017	4.26
387.383	4.09
387.748	4.05
388.114	4.01
388.479	4.28
388.845	4.33
389.21	4.11
389.575	3.91
389.94	4
390.306	4
390.671	3.97
391.036	4.08
391.401	4.26
391.766	4.06
392.131	4.29
392.496	4.2
392.861	4.4
393.226	4.14
393.591	4.25
393.956	4.27
394.32	4.28
394.685	4.09
395.05	4.42
395.414	4.39
395.779	4.12
396.143	4.14
396.508	4.15
396.872	4.16
397.236	4.19
397.601	4.1
397.965	3.9
398.329	3.92
398.694	4.27
399.058	4.07
399.422	4.23
399.786	4.14
400.15	4.27
400.514	3.84
400.878	4.14
401.242	4.2
401.605	4.3
401.969	4.16
402.333	4.34
402.697	4.19
403.06	4.15
403.424	4.28
403.787	4.12
404.151	4.04
404.514	4.21
404.878	4.2
405.241	4.18
405.604	4.06
405.968	4.33
406.331	4.14
406.694	4.3
407.057	3.98
407.42	4.5
407.783	4.45
408.146	4.13
408.509	4.19
408.872	4.37
409.235	4.24
409.598	4.28
409.961	4.37
410.323	4.06
410.686	4.05
411.049	4.05
411.411	4.23
411.774	4.1
412.136	4.34
412.499	4.23
412.861	4.33
413.223	4.26
413.586	4.41
413.948	4.48
414.31	4.54
414.672	4.08
415.035	4.29
415.397	4.41
415.759	4.47
416.121	4.25
416.483	4.53
416.845	4.33
417.206	4.26
417.568	4.32
417.93	4.28
418.292	4.16
418.653	4.42
419.015	4.34
419.377	4.23
419.738	4.22
420.1	4.12
420.461	4.19
420.822	4.32
421.184	4.2
421.545	4.26
421.906	4.25
422.267	4.26
422.629	4.2
422.99	4.21
423.351	4.29
423.712	4.15
424.073	4.25
424.434	4.17
424.795	4.22
425.155	4.32
425.516	4.24
425.877	4.16
426.238	4.14
426.598	4.36
426.959	4.13
427.32	4.23
427.68	4.28
428.041	4.16
428.401	4.24
428.761	4.3
429.122	4.27
429.482	4.35
429.842	4.4
430.202	4.25
430.563	4.32
430.923	4.47
431.283	4.38
431.643	4.52
432.003	4.58
432.363	4.37
432.722	4.39
433.082	4.46
433.442	4.5
433.802	4.77
434.161	4.37
434.521	4.51
434.881	4.32
435.24	4.38
435.6	4.35
435.959	4.33
436.319	4.48
436.678	4.36
437.037	4.45
437.396	4.53
437.756	4.56
438.115	4.33
438.474	4.38
438.833	4.52
439.192	4.29
439.551	4.35
439.91	4.32
440.269	4.52
440.628	4.57
440.987	4.43
441.345	4.44
441.704	4.46
442.063	4.44
442.421	4.26
442.78	4.48
443.138	4.5
443.497	4.5
443.855	4.4
444.214	4.44
444.572	4.44
444.93	4.57
445.288	4.51
445.647	4.73
446.005	4.34
446.363	4.53
446.721	4.45
447.079	4.57
447.437	4.52
447.795	4.35
448.153	4.47
448.51	4.49
448.868	4.33
449.226	4.41
449.584	4.44
449.941	4.4
450.299	4.43
450.656	4.36
451.014	4.56
451.371	4.39
451.729	4.4
452.086	4.54
452.443	4.55
452.801	4.42
453.158	4.51
453.515	4.68
453.872	4.58
454.229	4.73
454.586	4.61
454.943	4.47
455.3	4.44
455.657	4.61
456.014	4.47
456.371	4.53
456.727	4.58
457.084	4.58
457.441	4.7
457.797	4.54
458.154	4.59
458.51	4.6
458.867	4.58
459.223	4.58
459.58	4.63
459.936	4.56
460.292	4.59
460.648	4.44
461.005	4.59
461.361	4.59
461.717	4.4
462.073	4.55
462.429	4.54
462.785	4.56
463.141	4.63
463.496	4.65
463.852	4.62
464.208	4.68
464.564	4.69
464.919	4.74
465.275	4.87
465.631	4.62
465.986	4.7
466.342	4.98
466.697	4.67
467.052	4.67
467.408	4.95
467.763	4.8
468.118	4.93
468.473	4.75
468.829	4.76
469.184	4.68
469.539	4.66
469.894	4.77
470.249	4.68
470.603	4.76
470.958	4.76
471.313	4.97
471.668	4.91
472.023	4.8
472.377	4.74
472.732	4.75
473.086	4.69
473.441	4.92
473.795	4.99
474.15	4.64
474.504	4.74
474.859	4.73
475.213	4.91
475.567	4.75
475.921	4.84
476.275	4.76
476.63	4.98
476.984	4.99
477.338	4.86
477.692	4.77
478.045	4.82
478.399	4.86
478.753	4.85
479.107	4.85
479.461	4.85
479.814	4.97
480.168	4.92
480.521	4.85
480.875	5.02
481.228	5
481.582	4.91
481.935	4.89
482.289	5.07
482.642	4.88
482.995	4.84
483.348	4.91
483.701	4.9
484.055	4.87
484.408	4.83
484.761	4.79
485.114	4.66
485.466	4.65
485.819	4.56
486.172	4.49
486.525	4.55
486.878	4.63
487.23	4.61
487.583	4.68
487.936	4.69
488.288	4.82
488.641	4.82
488.993	4.72
489.345	4.72
489.698	4.74
490.05	4.7
490.402	4.65
490.754	4.7
491.107	4.69
491.459	4.89
491.811	4.88
492.163	4.81
492.515	4.93
492.866	4.92
493.218	4.75
493.57	4.8
493.922	4.77
494.274	4.88
494.625	4.81
494.977	4.89
495.328	4.92
495.68	5.11
496.031	4.79
496.383	5.02
496.734	5.1
497.086	5.07
497.437	5.1
497.788	4.94
498.139	5.27
498.49	5.07
498.842	4.97
499.193	5.12
499.544	5.07
499.894	5.02
500.245	4.96
500.596	5.15
500.947	5.06
501.298	5.18
501.648	5.06
501.999	5.06
502.35	5.17
502.7	5.24
503.051	5.18
503.401	5.21
503.752	5.22
504.102	5.27
504.452	5.21
504.803	5.18
505.153	5.19
505.503	5.23
505.853	5.34
506.203	5.16
506.553	5.22
506.903	5.14
507.253	5.09
507.603	5.3
507.953	5.32
508.303	5.17
508.652	5.43
509.002	5.34
509.352	5.39
509.701	5.38
510.051	5.27
510.4	5.29
510.75	5.22
511.099	5.21
511.449	5.34
511.798	5.32
512.147	5.28
512.496	5.28
512.846	5.27
513.195	5.37
513.544	5.25
513.893	5.28
514.242	5.2
514.591	5.33
514.939	5.3
515.288	5.31
515.637	5.37
515.986	5.4
516.334	5.3
516.683	5.41
517.032	5.34
517.38	5.25
517.729	5.51
518.077	5.51
518.426	5.45
518.774	5.35
519.122	5.49
519.47	5.51
519.819	5.3
520.167	5.4
520.515	5.4
520.863	5.46
521.211	5.43
521.559	5.44
521.907	5.42
522.255	5.39
522.602	5.46
522.95	5.46
523.298	5.57
523.645	5.6
523.993	5.55
524.341	5.61
524.688	5.63
525.036	5.72
525.383	5.64
525.73	5.68
526.078	5.78
526.425	5.62
526.772	5.48
527.119	5.62
527.466	5.52
527.814	5.59
528.161	5.57
528.508	5.51
528.854	5.61
529.201	5.65
529.548	5.67
529.895	5.65
530.242	5.57
530.588	5.41
530.935	5.43
531.282	5.48
531.628	5.56
531.975	5.48
532.321	5.55
532.667	5.55
533.014	5.69
533.36	5.82
533.706	5.75
534.052	5.73
534.399	5.64
534.745	5.7
535.091	5.78
535.437	5.7
535.783	5.72
536.129	5.64
536.474	5.8
536.82	5.78
537.166	5.81
537.512	5.95
537.857	5.98
538.203	5.97
538.549	6.02
538.894	5.86
539.239	5.93
539.585	5.99
539.93	5.96
540.276	6.2
540.621	6
540.966	6.11
541.311	6.13
541.656	6.18
542.001	6.24
542.346	6.26
542.691	5.98
543.036	6.02
543.381	5.96
543.726	5.89
544.071	5.95
544.415	6.01
544.76	6.07
545.105	6.1
545.449	6.1
545.794	6.28
546.138	6.15
546.483	6.26
546.827	6.25
547.171	6.5
547.516	6.38
547.86	6.42
548.204	6.32
548.548	6.34
548.892	6.27
549.236	6.46
549.58	6.36
549.924	6.43
550.268	6.44
550.612	6.35
550.956	6.74
551.3	6.53
551.643	6.5
551.987	6.75
552.33	6.59
552.674	6.49
553.017	6.68
553.361	6.92
553.704	6.76
554.048	6.81
554.391	6.73
554.734	6.88
555.077	6.84
555.42	6.56
555.764	6.69
556.107	7.04
556.45	6.8
556.793	6.68
557.135	6.86
557.478	6.97
557.821	7.05
558.164	7.13
558.507	7.14
558.849	7.08
559.192	7.09
559.534	7.22
559.877	6.98
560.219	7.19
560.562	7.27
560.904	6.92
561.246	7.12
561.589	7.17
561.931	7.12
562.273	7.16
562.615	7.31
562.957	7.23
563.299	7.14
563.641	7.42
563.983	7.15
564.325	7.02
564.667	7.15
565.008	7.3
565.35	7.33
565.692	7.4
566.033	7.57
566.375	7.48
566.716	7.51
567.058	7.46
567.399	7.33
567.741	7.38
568.082	7.51
568.423	7.43
568.764	7.47
569.105	7.67
569.447	7.41
569.788	7.53
570.129	7.77
570.47	7.49
570.811	7.97
571.151	7.63
571.492	7.84
571.833	7.93
572.174	7.88
572.514	7.82
572.855	7.8
573.195	7.86
573.536	7.63
573.876	7.78
574.217	7.85
574.557	7.69
574.898	7.67
575.238	7.89
575.578	7.87
575.918	7.79
576.258	7.84
576.598	8.1
576.938	8.09
577.278	8.13
577.618	7.8
577.958	8.1
578.298	8.09
578.638	8.15
578.977	8.28
579.317	8.03
579.657	8.2
579.996	8.25
580.336	8.32
580.675	8.28
581.014	8.35
581.354	8.5
581.693	8.37
582.032	8.5
582.372	8.44
582.711	8.73
583.05	8.61
583.389	8.45
583.728	8.69
584.067	8.43
584.406	8.54
584.745	8.8
585.083	8.49
585.422	8.64
585.761	8.8
586.1	9.02
586.438	8.44
586.777	8.69
587.115	9.01
587.454	8.96
587.792	8.73
588.13	9.03
588.469	8.75
588.807	8.58
589.145	8.93
589.483	9.06
589.821	8.95
590.159	9.23
590.497	9.17
590.835	9.3
591.173	9.01
591.511	9.19
591.849	9.2
592.187	9.17
592.524	9.06
592.862	9.15
593.2	9.2
593.537	9.21
593.875	9.17
594.212	9.52
594.55	9.53
594.887	9.52
595.224	9.44
595.561	9.35
595.899	9.27
596.236	9.57
596.573	9.59
596.91	9.69
597.247	9.63
597.584	9.45
597.921	9.76
598.258	9.64
598.594	9.74
598.931	9.63
599.268	9.46
599.604	9.56
599.941	9.6
600.277	9.67
600.614	9.73
600.95	10.03
601.287	9.77
601.623	9.9
601.959	10.18
602.296	10.03
602.632	9.94
602.968	9.65
603.304	10.07
603.64	9.91
603.976	9.99
604.312	10.2
604.648	10.23
604.984	10.27
605.319	10.05
605.655	9.99
605.991	10.37
606.326	10.1
606.662	10.02
606.998	10.09
607.333	10.17
607.668	10.16
608.004	10.4
608.339	10.25
608.674	10.49
609.01	10.24
609.345	10.4
609.68	10.74
610.015	10.45
610.35	10.77
610.685	10.62
611.02	10.74
611.355	10.62
611.689	10.58
612.024	10.94
612.359	10.64
612.694	10.78
613.028	10.86
613.363	10.79
613.697	11.04
614.032	10.93
614.366	10.99
614.7	11.12
615.035	10.84
615.369	11.22
615.703	11.13
616.037	11.25
616.371	10.92
616.705	11.15
617.039	11.13
617.373	11.37
617.707	11.43
618.041	11.36
618.375	11.33
618.709	11.23
619.042	11.19
619.376	11.6
619.71	11.64
620.043	12
620.377	11.22
620.71	11.53
621.043	11.46
621.377	11.1
621.71	11.67
622.043	11.69
622.376	12.23
622.709	11.57
623.043	11.83
623.376	11.69
623.709	11.75
624.041	11.95
624.374	11.99
624.707	11.79
625.04	11.63
625.373	12.45
625.705	12.1
626.038	11.92
626.37	11.81
626.703	11.91
627.035	11.7
627.368	12.09
627.7	12.48
628.032	12.23
628.365	12.41
628.697	12.23
629.029	12.28
629.361	12.47
629.693	12.07
630.025	12.21
630.357	12.32
630.689	12.21
631.021	12.58
631.353	12.65
631.684	12.26
632.016	12.76
632.348	12.2
632.679	12.48
633.011	12.64
633.342	12.47
633.674	12.57
634.005	12.82
634.336	13.01
634.668	12.77
634.999	12.9
635.33	12.4
635.661	12.97
635.992	12.88
636.323	13.23
636.654	12.92
636.985	12.78
637.316	13.03
637.647	12.96
637.977	12.82
638.308	13.17
638.639	12.76
638.969	13.61
639.3	12.82
639.63	13.07
639.961	13.06
640.291	12.9
640.622	12.98
640.952	13.56
641.282	13.43
641.612	13.26
641.943	13.62
642.273	13.58
642.603	13.84
642.933	13.39
643.263	14.09
643.592	13.37
643.922	14.31
644.252	13.5
644.582	13.41
644.911	13.79
645.241	14.45
645.571	14.77
645.9	13.83
646.23	13.74
646.559	13.72
646.888	14.14
647.218	14.19
647.547	13.61
647.876	14.24
648.205	14.17
648.534	13.79
648.863	14.76
649.192	13.94
649.521	14.22
649.85	14.47
650.179	14.35
650.508	13.83
650.837	14.39
651.165	14.78
651.494	13.77
651.822	14.45
652.151	14.87
652.479	13.94
652.808	14.22
653.136	14.37
653.465	14.48
653.793	14.87
654.121	14.64
654.449	14.45
654.777	14.86
655.105	14.36
655.433	14.93
655.761	14.46
656.089	15.12
656.417	15.2
656.745	15.09
657.073	14.86
657.4	15.78
657.728	15.37
658.056	15.28
658.383	15.19
658.711	14.71
659.038	15.24
659.365	15.07
659.693	15.18
660.02	15.02
660.347	15.28
660.674	15.1
661.001	14.89
661.329	15.38
661.656	15.31
661.982	15.19
662.309	15.18
662.636	15.11
662.963	15.26
663.29	15.55
663.616	15.71
663.943	14.86
664.27	16.09
664.596	15.94
664.923	15.31
665.249	15.85
665.576	15.26
665.902	15.88
666.228	16.02
666.554	16.02
666.881	14.94
667.207	15.34
667.533	15.46
667.859	16
668.185	15.95
668.511	16.51
668.837	16.44
669.162	16.41
669.488	16.25
669.814	15.76
670.139	16.23
670.465	16.12
670.791	16.77
671.116	16.17
671.442	16.12
671.767	15.98
672.092	16.43
672.418	16.49
672.743	16.41
673.068	16.97
673.393	16.59
673.718	17.02
674.043	16.57
674.368	16.36
674.693	17.21
675.018	17.18
675.343	16.9
675.667	16.8
675.992	16.7
676.317	16.59
676.641	16.97
676.966	16.83
677.29	17.1
677.615	17.23
677.939	16.02
678.264	17.03
678.588	16.54
678.912	17.4
679.236	17.05
679.56	17.45
679.885	16.75
680.209	16.77
680.532	16.34
680.856	17.03
681.18	17.51
681.504	17.9
681.828	17.73
682.152	17.1
682.475	17.43
682.799	17.43
683.122	16.49
683.446	17.53
683.769	17.33
684.093	17.96
684.416	17.46
684.739	17.01
685.062	17.44
685.386	17.56
685.709	17.89
686.032	17.46
686.355	17.8
686.678	17.59
