Data from 0365_forehead_Reflection__0__304.txt Node

Date: Fri Oct 20 23:06:51 CDT 2023
User: ToomeyLab
Spectrometer: FLMS14357
Trigger mode: 0
Integration Time (sec): 1.000000E-2
Scans to average: 100
Electric dark correction enabled: true
Nonlinearity correction enabled: false
Boxcar width: 0
XAxis mode: Wavelengths
Number of Pixels in Spectrum: 2048
>>>>>Begin Spectral Data<<<<<
189.047	-109.83
189.435	-109.83
189.823	-109.83
190.211	68.69
190.599	47.31
190.987	59.21
191.375	245.29
191.763	121.76
192.151	-47.84
192.538	-129.92
192.926	-12318.92
193.314	126.73
193.702	119.26
194.089	134.23
194.477	165.17
194.864	-25.6
195.252	130.7
195.639	-547.02
196.027	-1.81
196.414	98.28
196.801	26.61
197.189	-121.55
197.576	277.6
197.963	-688.45
198.351	50.12
198.738	76.22
199.125	56.77
199.512	73.59
199.899	47.8
200.286	28.33
200.673	52.07
201.06	28.96
201.447	22.79
201.833	61.9
202.22	22.13
202.607	46.71
202.994	47.99
203.38	59.05
203.767	70.74
204.154	44.37
204.54	44.7
204.927	53.85
205.313	12.29
205.699	69.8
206.086	56.09
206.472	85.94
206.858	69.03
207.245	44.66
207.631	31.37
208.017	45.52
208.403	59.62
208.789	71.35
209.175	-1.98
209.561	41.74
209.947	46.34
210.333	28.06
210.719	21.84
211.105	40.21
211.491	23.47
211.876	21.64
212.262	61.84
212.648	49.68
213.034	-7.77
213.419	29.89
213.805	11.41
214.19	34.47
214.576	27.23
214.961	33.46
215.346	33.7
215.732	19.23
216.117	16.42
216.502	34.63
216.888	40.41
217.273	12.71
217.658	7.43
218.043	19.23
218.428	29.52
218.813	49.88
219.198	19.97
219.583	-14.08
219.968	8.89
220.353	22.92
220.738	23.17
221.122	18.59
221.507	9.99
221.892	43.92
222.276	9.29
222.661	29.44
223.046	23.01
223.43	19.63
223.815	17.06
224.199	37.58
224.583	11.43
224.968	4.77
225.352	12.83
225.736	8.07
226.121	6.38
226.505	0.84
226.889	8.62
227.273	7.18
227.657	13.22
228.041	9.87
228.425	11.06
228.809	10.45
229.193	6.72
229.577	8.5
229.961	6.1
230.344	4.56
230.728	5.39
231.112	5.14
231.495	4.74
231.879	5.45
232.263	6.55
232.646	5.75
233.03	5.54
233.413	4.31
233.797	5.23
234.18	5.84
234.563	6.68
234.946	6.32
235.33	7.47
235.713	5.54
236.096	6.44
236.479	5.21
236.862	5.2
237.245	5.28
237.628	4.67
238.011	6.67
238.394	4.06
238.777	6.99
239.16	7.68
239.543	7.4
239.925	7.72
240.308	5.71
240.691	4.15
241.073	7.09
241.456	6.18
241.838	5.77
242.221	7.12
242.603	5.96
242.986	5.46
243.368	5.26
243.75	4.71
244.133	4.58
244.515	4.63
244.897	4.87
245.279	4.98
245.661	5
246.043	5.41
246.425	4.6
246.807	5.42
247.189	5.05
247.571	5.11
247.953	4.6
248.335	5.28
248.717	4.71
249.098	4.47
249.48	4.73
249.862	4.88
250.243	5.53
250.625	4.78
251.006	5.02
251.388	5.14
251.769	5.87
252.151	5.52
252.532	5.73
252.913	5.35
253.295	4.81
253.676	5.98
254.057	5.37
254.438	5.06
254.819	5.3
255.2	4.68
255.581	5.09
255.962	4.71
256.343	5.72
256.724	4.67
257.105	4.04
257.486	6.04
257.867	6.62
258.247	5.07
258.628	4.58
259.009	4.39
259.389	5.21
259.77	5.07
260.15	5.33
260.531	4.56
260.911	4.73
261.292	4.59
261.672	5
262.052	4.78
262.432	4.77
262.813	4.84
263.193	4.71
263.573	5.32
263.953	4.57
264.333	5.54
264.713	6.49
265.093	5.47
265.473	5.04
265.853	5.01
266.233	4.81
266.612	4.4
266.992	5.31
267.372	4.28
267.752	5.06
268.131	5.32
268.511	5.53
268.89	5.35
269.27	4.94
269.649	4.17
270.029	4.99
270.408	5.4
270.787	4.99
271.167	5.37
271.546	5.38
271.925	5.54
272.304	5.44
272.683	5.23
273.062	5.1
273.441	5.18
273.82	4.81
274.199	5.25
274.578	4.87
274.957	4.69
275.336	5.35
275.715	4.88
276.093	4.69
276.472	5.52
276.851	4.95
277.229	5.06
277.608	4.84
277.986	4.69
278.365	5.12
278.743	4.73
279.122	4.65
279.5	4.65
279.878	4.51
280.257	5.27
280.635	5.29
281.013	5.29
281.391	4.81
281.769	5.38
282.147	4.52
282.525	5.24
282.903	4.76
283.281	5.17
283.659	5.09
284.037	5.08
284.415	4.58
284.792	4.84
285.17	4.92
285.548	5.19
285.925	4.98
286.303	4.89
286.68	4.89
287.058	5.43
287.435	5.31
287.813	4.49
288.19	4.82
288.567	5.08
288.945	4.89
289.322	5.27
289.699	4.61
290.076	5.56
290.453	5.42
290.83	5.12
291.207	5.28
291.584	4.68
291.961	5.26
292.338	5.03
292.715	5.3
293.092	5.63
293.469	5.74
293.845	5.1
294.222	5.56
294.599	5.53
294.975	6.09
295.352	5.57
295.728	5.4
296.105	5.75
296.481	6.03
296.858	5.41
297.234	5.76
297.61	5.11
297.986	5.48
298.363	5.76
298.739	6.25
299.115	5.64
299.491	5.76
299.867	5.92
300.243	5.81
300.619	5.58
300.995	6.07
301.371	6.18
301.746	6.37
302.122	6.11
302.498	5.98
302.874	6.07
303.249	6
303.625	6.59
304	7.03
304.376	6.49
304.751	5.79
305.127	6.58
305.502	7.02
305.878	6.55
306.253	6.98
306.628	7.25
307.003	7.05
307.378	6.36
307.754	7.35
308.129	7.67
308.504	7.25
308.879	7.73
309.254	7.27
309.629	7.35
310.003	6.92
310.378	7.3
310.753	7.44
311.128	7.75
311.502	7.55
311.877	7.28
312.252	7.61
312.626	7.5
313.001	7.32
313.375	7.92
313.75	7.91
314.124	7.66
314.498	7.84
314.873	7.79
315.247	8.06
315.621	8.04
315.995	8.71
316.369	8.09
316.743	8.1
317.117	8.26
317.491	7.76
317.865	8.28
318.239	8.74
318.613	8.81
318.987	8.07
319.361	7.83
319.734	8.65
320.108	8.5
320.482	9.31
320.855	9.32
321.229	9.49
321.602	8.92
321.976	8.83
322.349	9.44
322.723	8.81
323.096	9.42
323.469	8.95
323.843	9.36
324.216	9.37
324.589	9.78
324.962	9.95
325.335	9.96
325.708	9.36
326.081	9.44
326.454	9.68
326.827	10.01
327.2	9.88
327.573	10.41
327.945	9.54
328.318	9.21
328.691	9.46
329.063	10.3
329.436	10.07
329.809	9.68
330.181	9.71
330.553	10.5
330.926	10.14
331.298	9.56
331.671	10.23
332.043	10.21
332.415	10.08
332.787	10.61
333.159	9.94
333.532	10.27
333.904	10.81
334.276	10.01
334.648	10.01
335.02	10.77
335.391	10.28
335.763	11.13
336.135	10.61
336.507	11.06
336.879	10.89
337.25	10.47
337.622	11.13
337.993	11.14
338.365	10.94
338.736	11.06
339.108	11.12
339.479	10.64
339.851	11.65
340.222	11.09
340.593	11.24
340.964	10.96
341.336	11.64
341.707	11.43
342.078	11.38
342.449	11.35
342.82	11.27
343.191	11.36
343.562	11.53
343.933	11.87
344.303	11.71
344.674	12.31
345.045	11.86
345.416	12.21
345.786	11.79
346.157	11.87
346.527	11.92
346.898	11.81
347.268	12.11
347.639	12.15
348.009	11.91
348.38	12.32
348.75	12.35
349.12	12.19
349.49	12.2
349.861	12.28
350.231	12.33
350.601	12.24
350.971	12.85
351.341	12.53
351.711	13.18
352.081	12.9
352.45	12.72
352.82	13.07
353.19	12.93
353.56	12.5
353.929	12.95
354.299	12.64
354.669	13.38
355.038	13.34
355.408	13.4
355.777	12.99
356.147	13.01
356.516	12.8
356.885	13.41
357.254	13.07
357.624	13.41
357.993	12.98
358.362	13.25
358.731	13.02
359.1	13.28
359.469	13.65
359.838	13.49
360.207	13.55
360.576	13.34
360.945	13.47
361.314	13.72
361.682	13.67
362.051	13.49
362.42	13.5
362.788	13.78
363.157	13.73
363.525	13.82
363.894	13.72
364.262	13.82
364.631	13.95
364.999	14.01
365.367	14.27
365.735	14.02
366.104	14.07
366.472	14.21
366.84	14.31
367.208	14.22
367.576	14.43
367.944	14.57
368.312	14.55
368.68	14.5
369.048	14.8
369.416	15
369.783	15.21
370.151	14.64
370.519	14.7
370.886	14.85
371.254	15.34
371.621	15.22
371.989	15.26
372.356	15.21
372.724	15.53
373.091	15.23
373.458	14.77
373.826	15.21
374.193	15.27
374.56	15.74
374.927	15.26
375.294	15.54
375.661	15.9
376.028	16.01
376.395	15.96
376.762	15.38
377.129	16.11
377.496	15.88
377.863	16.1
378.229	16.09
378.596	15.89
378.963	15.98
379.329	15.98
379.696	16.1
380.062	16.09
380.429	15.9
380.795	15.79
381.161	16.35
381.528	16.41
381.894	16.5
382.26	16.93
382.626	16.37
382.993	16.67
383.359	16.35
383.725	16.78
384.091	16.88
384.457	17.13
384.823	16.51
385.188	17.19
385.554	17.09
385.92	16.96
386.286	17.15
386.651	16.94
387.017	17.31
387.383	17.09
387.748	17.19
388.114	17.15
388.479	17.21
388.845	17.7
389.21	17.12
389.575	17.16
389.94	17.44
390.306	17.61
390.671	17.79
391.036	17.63
391.401	17.59
391.766	17.87
392.131	17.63
392.496	18
392.861	18.15
393.226	17.94
393.591	17.92
393.956	17.99
394.32	18.36
394.685	18.05
395.05	18.41
395.414	18.57
395.779	18.06
396.143	18.03
396.508	18.57
396.872	18.36
397.236	18.42
397.601	18.41
397.965	18.46
398.329	18.69
398.694	18.88
399.058	18.43
399.422	18.82
399.786	18.98
400.15	19.02
400.514	18.93
400.878	19.21
401.242	19.46
401.605	19.39
401.969	19
402.333	19.25
402.697	19.25
403.06	19.51
403.424	19.22
403.787	19.61
404.151	19.58
404.514	19.49
404.878	19.8
405.241	19.43
405.604	19.88
405.968	19.63
406.331	19.81
406.694	19.71
407.057	19.5
407.42	20.03
407.783	20.02
408.146	19.96
408.509	20.05
408.872	20.43
409.235	20.26
409.598	20.24
409.961	20.48
410.323	20.38
410.686	20.2
411.049	20.44
411.411	20.69
411.774	20.77
412.136	20.56
412.499	20.82
412.861	20.91
413.223	20.91
413.586	20.79
413.948	21
414.31	21.1
414.672	20.89
415.035	21.08
415.397	21.44
415.759	21.36
416.121	21.4
416.483	21.25
416.845	21.2
417.206	21.56
417.568	21.45
417.93	21.5
418.292	21.2
418.653	21.48
419.015	21.46
419.377	21.45
419.738	21.37
420.1	21.35
420.461	21.67
420.822	21.52
421.184	21.36
421.545	21.76
421.906	21.59
422.267	21.65
422.629	21.66
422.99	21.64
423.351	21.81
423.712	21.67
424.073	21.83
424.434	21.8
424.795	21.99
425.155	22.07
425.516	22.05
425.877	22.01
426.238	22.08
426.598	22.12
426.959	22.2
427.32	22.33
427.68	22.41
428.041	22.54
428.401	22.68
428.761	22.79
429.122	23
429.482	22.86
429.842	22.94
430.202	23.14
430.563	23.16
430.923	23.32
431.283	23.15
431.643	23.49
432.003	23.48
432.363	23.26
432.722	23.6
433.082	23.59
433.442	23.61
433.802	23.82
434.161	23.54
434.521	23.95
434.881	23.95
435.24	23.87
435.6	23.88
435.959	23.73
436.319	23.91
436.678	24.12
437.037	24.08
437.396	24.17
437.756	24.24
438.115	24.23
438.474	24.31
438.833	24.52
439.192	24.44
439.551	24.47
439.91	24.59
440.269	24.8
440.628	24.75
440.987	24.68
441.345	24.62
441.704	24.63
442.063	24.89
442.421	24.67
442.78	24.76
443.138	24.77
443.497	24.81
443.855	24.92
444.214	25
444.572	25.11
444.93	25.25
445.288	25.32
445.647	25.53
446.005	25.3
446.363	25.31
446.721	25.53
447.079	25.48
447.437	25.57
447.795	25.23
448.153	25.4
448.51	25.42
448.868	25.37
449.226	25.36
449.584	25.61
449.941	25.63
450.299	25.92
450.656	25.76
451.014	25.96
451.371	26.19
451.729	26.22
452.086	26.33
452.443	26.54
452.801	26.37
453.158	26.82
453.515	26.56
453.872	26.88
454.229	26.87
454.586	26.78
454.943	26.67
455.3	26.95
455.657	26.9
456.014	27.01
456.371	27.14
456.727	27.19
457.084	27.43
457.441	27.1
457.797	27.5
458.154	27.4
458.51	27.59
458.867	27.57
459.223	27.49
459.58	27.71
459.936	27.68
460.292	27.67
460.648	27.42
461.005	27.61
461.361	27.57
461.717	27.38
462.073	27.42
462.429	27.39
462.785	27.81
463.141	27.9
463.496	27.95
463.852	28.14
464.208	28.29
464.564	28.32
464.919	28.5
465.275	28.67
465.631	28.74
465.986	28.72
466.342	28.76
466.697	28.61
467.052	28.72
467.408	28.86
467.763	29.14
468.118	29.15
468.473	29.19
468.829	28.99
469.184	29.33
469.539	29.14
469.894	29.43
470.249	29.33
470.603	29.42
470.958	29.61
471.313	29.57
471.668	29.54
472.023	29.44
472.377	29.57
472.732	29.77
473.086	29.94
473.441	30.05
473.795	30.08
474.15	29.99
474.504	29.96
474.859	29.95
475.213	30.28
475.567	30.32
475.921	30.19
476.275	30.54
476.63	30.28
476.984	30.67
477.338	30.27
477.692	30.59
478.045	30.6
478.399	30.65
478.753	30.64
479.107	30.64
479.461	30.82
479.814	30.87
480.168	30.75
480.521	30.81
480.875	30.8
481.228	30.93
481.582	31.08
481.935	31.39
482.289	31.24
482.642	31.05
482.995	31.17
483.348	31.22
483.701	31.17
484.055	31.1
484.408	31.01
484.761	30.99
485.114	30.76
485.466	30.52
485.819	30.18
486.172	30.44
486.525	30.49
486.878	30.57
487.23	30.7
487.583	30.88
487.936	31.18
488.288	31.3
488.641	31.32
488.993	31.15
489.345	31.06
489.698	31.09
490.05	31.05
490.402	31.21
490.754	31.32
491.107	31.57
491.459	31.76
491.811	31.9
492.163	32.18
492.515	32.26
492.866	32.2
493.218	32.12
493.57	31.85
493.922	31.97
494.274	32.05
494.625	32.23
494.977	32.38
495.328	32.8
495.68	32.93
496.031	33.1
496.383	33.37
496.734	33.65
497.086	33.6
497.437	33.61
497.788	33.53
498.139	33.76
498.49	33.46
498.842	33.45
499.193	33.71
499.544	33.64
499.894	33.81
500.245	33.88
500.596	34.11
500.947	33.95
501.298	34.17
501.648	34.17
501.999	34.32
502.35	34.57
502.7	34.77
503.051	34.48
503.401	34.7
503.752	34.84
504.102	35.05
504.452	34.77
504.803	34.89
505.153	34.96
505.503	35.1
505.853	35.13
506.203	35.07
506.553	35.19
506.903	35.18
507.253	35.24
507.603	35.28
507.953	35.46
508.303	35.33
508.652	35.74
509.002	35.63
509.352	35.55
509.701	35.73
510.051	35.62
510.4	35.83
510.75	35.82
511.099	35.78
511.449	35.83
511.798	35.91
512.147	36.03
512.496	35.89
512.846	36.01
513.195	36.1
513.544	36.23
513.893	36.35
514.242	36.18
514.591	36.35
514.939	36.62
515.288	36.49
515.637	36.63
515.986	36.79
516.334	36.8
516.683	37.07
517.032	36.96
517.38	36.83
517.729	37.2
518.077	37.13
518.426	37.2
518.774	37.12
519.122	37.32
519.47	37.31
519.819	37.14
520.167	36.96
520.515	36.92
520.863	37.13
521.211	37.06
521.559	37.42
521.907	37.31
522.255	37.46
522.602	37.86
522.95	37.78
523.298	37.87
523.645	38.02
523.993	38.07
524.341	38.14
524.688	38.22
525.036	38.4
525.383	38.36
525.73	38.57
526.078	38.58
526.425	38.73
526.772	38.39
527.119	38.31
527.466	38.11
527.814	38.35
528.161	38.24
528.508	38.37
528.854	38.39
529.201	38.52
529.548	38.56
529.895	38.63
530.242	38.3
530.588	37.79
530.935	38.05
531.282	38.2
531.628	38.33
531.975	38.2
532.321	38.43
532.667	38.82
533.014	39.06
533.36	39.15
533.706	39.36
534.052	39.38
534.399	39.41
534.745	39.2
535.091	39.27
535.437	39.07
535.783	39.27
536.129	39.34
536.474	39.51
536.82	39.88
537.166	39.91
537.512	40.18
537.857	40.16
538.203	40.28
538.549	40.07
538.894	40.01
539.239	40.18
539.585	40.45
539.93	40.52
540.276	40.76
540.621	40.9
540.966	41.02
541.311	41.3
541.656	41.21
542.001	41.17
542.346	41.22
542.691	40.94
543.036	40.75
543.381	40.5
543.726	40.47
544.071	40.75
544.415	40.78
544.76	40.92
545.105	41.07
545.449	41.18
545.794	41.41
546.138	41.53
546.483	41.91
546.827	41.73
547.171	41.91
547.516	42.15
547.86	42.21
548.204	42.15
548.548	42.39
548.892	42.41
549.236	42.12
549.58	42.56
549.924	42.64
550.268	42.72
550.612	42.83
550.956	43.12
551.3	42.86
551.643	43.37
551.987	43.43
552.33	43.52
552.674	43.56
553.017	43.51
553.361	43.88
553.704	43.72
554.048	43.75
554.391	43.9
554.734	43.74
555.077	43.98
555.42	43.65
555.764	43.74
556.107	44.29
556.45	44.13
556.793	44.03
557.135	44.23
557.478	44.36
557.821	44.29
558.164	44.58
558.507	44.56
558.849	44.91
559.192	44.66
559.534	44.8
559.877	44.84
560.219	44.66
560.562	45.12
560.904	45.14
561.246	45.01
561.589	45.09
561.931	45.25
562.273	45.34
562.615	45.63
562.957	45.55
563.299	45.59
563.641	45.79
563.983	45.42
564.325	45.73
564.667	45.62
565.008	45.74
565.35	45.77
565.692	45.85
566.033	46.04
566.375	46.07
566.716	46.32
567.058	46.39
567.399	46.15
567.741	46.11
568.082	46.33
568.423	46.22
568.764	45.96
569.105	46.41
569.447	46.2
569.788	46.53
570.129	46.75
570.47	46.65
570.811	46.8
571.151	47.03
571.492	47.33
571.833	47.12
572.174	47.17
572.514	46.97
572.855	47.1
573.195	47.36
573.536	47.12
573.876	47.41
574.217	47.2
574.557	47.3
574.898	47.22
575.238	47.52
575.578	47.6
575.918	47.51
576.258	47.56
576.598	48.1
576.938	47.99
577.278	47.94
577.618	47.97
577.958	47.65
578.298	48.18
578.638	48.33
578.977	48.12
579.317	48.62
579.657	48.31
579.996	48.69
580.336	48.99
580.675	49.08
581.014	48.88
581.354	49.11
581.693	48.95
582.032	49.42
582.372	49.31
582.711	49.67
583.05	49.41
583.389	49.79
583.728	49.36
584.067	49.69
584.406	49.61
584.745	49.81
585.083	49.85
585.422	49.91
585.761	50.02
586.1	50.22
586.438	49.65
586.777	49.92
587.115	50.1
587.454	50.53
587.792	50.01
588.13	50.5
588.469	50.51
588.807	50.56
589.145	50.38
589.483	50.41
589.821	50.52
590.159	50.53
590.497	50.89
590.835	50.63
591.173	50.92
591.511	50.87
591.849	50.75
592.187	50.77
592.524	50.83
592.862	51.14
593.2	51.54
593.537	51.38
593.875	51.03
594.212	51.53
594.55	51.58
594.887	51.34
595.224	51.54
595.561	51.41
595.899	51.64
596.236	51.61
596.573	51.88
596.91	51.5
597.247	51.52
597.584	51.65
597.921	52.11
598.258	51.52
598.594	51.76
598.931	51.9
599.268	51.58
599.604	51.75
599.941	51.91
600.277	52.04
600.614	52.31
600.95	52.7
601.287	52.68
601.623	52.59
601.959	52.76
602.296	52.89
602.632	52.77
602.968	52.9
603.304	53.16
603.64	53.11
603.976	53.05
604.312	53.45
604.648	53.52
604.984	53.25
605.319	53.37
605.655	53.46
605.991	53.61
606.326	53.17
606.662	53.21
606.998	53.2
607.333	53.4
607.668	53.64
608.004	53.63
608.339	53.81
608.674	53.75
609.01	54.15
609.345	53.79
609.68	54.29
610.015	54.07
610.35	54.24
610.685	54.11
611.02	54.16
611.355	54.43
611.689	54.24
612.024	54.38
612.359	54.17
612.694	54.66
613.028	54.71
613.363	54.83
613.697	54.75
614.032	55.16
614.366	54.79
614.7	54.88
615.035	54.79
615.369	55.71
615.703	55.2
616.037	55.05
616.371	55.48
616.705	55.68
617.039	55.98
617.373	55.51
617.707	55.53
618.041	55.65
618.375	55.8
618.709	55.79
619.042	55.93
619.376	56.09
619.71	56.12
620.043	56.36
620.377	55.95
620.71	56.35
621.043	56.54
621.377	56.03
621.71	56.63
622.043	56.21
622.376	56.5
622.709	56.57
623.043	56.76
623.376	56.39
623.709	56.36
624.041	56.71
624.374	56.43
624.707	56.43
625.04	57.17
625.373	57.1
625.705	56.71
626.038	57.07
626.37	57.33
626.703	56.67
627.035	57.4
627.368	57.22
627.7	57.78
628.032	57.34
628.365	57.78
628.697	57.62
629.029	57.36
629.361	57.55
629.693	57.32
630.025	57.17
630.357	57.44
630.689	57.71
631.021	57.78
631.353	57.91
631.684	57.81
632.016	57.97
632.348	58.09
632.679	58.22
633.011	58.46
633.342	58.21
633.674	58.3
634.005	58.45
634.336	59.07
634.668	58.41
634.999	58.73
635.33	59.03
635.661	58.53
635.992	58.58
636.323	59.49
636.654	58.86
636.985	58.59
637.316	59
637.647	59.41
637.977	59.53
638.308	58.96
638.639	59.23
638.969	59.51
639.3	59.27
639.63	58.92
639.961	59.34
640.291	59.32
640.622	59.19
640.952	59.73
641.282	59.76
641.612	59.57
641.943	59.8
642.273	60.69
642.603	60.07
642.933	60.15
643.263	60.6
643.592	59.92
643.922	60.75
644.252	60.35
644.582	60.29
644.911	60.74
645.241	61.27
645.571	60.86
645.9	60.33
646.23	61.06
646.559	60.78
646.888	60.57
647.218	60.78
647.547	60.59
647.876	61.11
648.205	61.23
648.534	61.2
648.863	61.74
649.192	61
649.521	60.75
649.85	61.47
650.179	60.61
650.508	61.47
650.837	61.7
651.165	61.14
651.494	60.61
651.822	61.23
652.151	61.71
652.479	61.12
652.808	61.42
653.136	61.83
653.465	62.07
653.793	61.26
654.121	62.63
654.449	62.07
654.777	62.49
655.105	61.97
655.433	62.47
655.761	61.96
656.089	62.45
656.417	62.73
656.745	62.84
657.073	62.93
657.4	63.11
657.728	62.44
658.056	62.52
658.383	62.55
658.711	62.68
659.038	62.75
659.365	62.06
659.693	62
660.02	63
660.347	62.35
660.674	62.58
661.001	61.95
661.329	62.93
661.656	62.97
661.982	62.88
662.309	62.96
662.636	62.48
662.963	62.94
663.29	63.06
663.616	63.16
663.943	62.78
664.27	63.21
664.596	63.4
664.923	63.6
665.249	62.99
665.576	63.26
665.902	63.34
666.228	63.59
666.554	63.84
666.881	63.25
667.207	63.76
667.533	63.76
667.859	63.96
668.185	63.79
668.511	64.18
668.837	64.05
669.162	63.81
669.488	64.36
669.814	64.08
