Data from 0365_crown_Reflection__0__299.txt Node

Date: Fri Oct 20 23:05:46 CDT 2023
User: ToomeyLab
Spectrometer: FLMS14357
Trigger mode: 0
Integration Time (sec): 1.000000E-2
Scans to average: 100
Electric dark correction enabled: true
Nonlinearity correction enabled: false
Boxcar width: 0
XAxis mode: Wavelengths
Number of Pixels in Spectrum: 2048
>>>>>Begin Spectral Data<<<<<
189.047	-135.13
189.435	-135.13
189.823	-135.13
190.211	139.63
190.599	117.94
190.987	-49.75
191.375	191.27
191.763	54.38
192.151	-130.01
192.538	-183.01
192.926	-4216.22
193.314	73.88
193.702	177.45
194.089	131.37
194.477	-33.65
194.864	137.93
195.252	90.59
195.639	-1043.71
196.027	40.36
196.414	137.47
196.801	25.32
197.189	-32.2
197.576	123.53
197.963	-341.95
198.351	16.8
198.738	-23.83
199.125	18.37
199.512	22.64
199.899	3.34
200.286	-56.15
200.673	-2.61
201.06	12.83
201.447	-37.5
201.833	30.34
202.22	11.57
202.607	28.77
202.994	33.06
203.38	41.7
203.767	26.27
204.154	27.95
204.54	64.15
204.927	-4.04
205.313	16.46
205.699	30.79
206.086	17.13
206.472	46.08
206.858	43.03
207.245	11.48
207.631	25.74
208.017	26.63
208.403	-5.43
208.789	49.52
209.175	8.66
209.561	39.36
209.947	-10.62
210.333	7.04
210.719	1.92
211.105	20.05
211.491	13.22
211.876	-5.23
212.262	25.79
212.648	30.31
213.034	-24.02
213.419	15.95
213.805	1.04
214.19	0.28
214.576	0.83
214.961	-1.41
215.346	9.09
215.732	3.95
216.117	-7.84
216.502	14.12
216.888	19.91
217.273	-20.09
217.658	10.84
218.043	-2.37
218.428	-3.47
218.813	-6.22
219.198	-12.05
219.583	-28.23
219.968	-27.91
220.353	10.4
220.738	-1.11
221.122	-7.87
221.507	-4.89
221.892	6.22
222.276	-3.94
222.661	16.75
223.046	-3.22
223.43	9.09
223.815	16.33
224.199	17.17
224.583	-11.24
224.968	6.93
225.352	2.26
225.736	3.12
226.121	7.76
226.505	-1.13
226.889	6.97
227.273	8.86
227.657	11.81
228.041	11.02
228.425	0.78
228.809	9.14
229.193	7.39
229.577	7.6
229.961	6.19
230.344	8
230.728	7.25
231.112	8.53
231.495	7.76
231.879	7.71
232.263	8.7
232.646	8.59
233.03	6.68
233.413	6.24
233.797	5.79
234.18	6.39
234.563	7.46
234.946	11.02
235.33	9.73
235.713	7.7
236.096	7.68
236.479	8.24
236.862	8.16
237.245	7.1
237.628	7.04
238.011	7.48
238.394	8.18
238.777	9.16
239.16	7.44
239.543	8.95
239.925	7.56
240.308	8.95
240.691	7.22
241.073	8.87
241.456	8.74
241.838	7.42
242.221	7.56
242.603	8.17
242.986	7.99
243.368	7.72
243.75	7.61
244.133	6.93
244.515	7.69
244.897	7.04
245.279	7.94
245.661	6.77
246.043	6.01
246.425	7.2
246.807	6.93
247.189	6.8
247.571	6.99
247.953	7.64
248.335	7.86
248.717	7.13
249.098	7.19
249.48	6.92
249.862	7.47
250.243	7.62
250.625	7.39
251.006	7.53
251.388	7.45
251.769	7.79
252.151	6.64
252.532	6.83
252.913	6.27
253.295	5.89
253.676	7.58
254.057	7.27
254.438	7.05
254.819	6.86
255.2	7.23
255.581	6.75
255.962	6.39
256.343	7.14
256.724	6.19
257.105	8.15
257.486	6.84
257.867	6.91
258.247	7.54
258.628	6.83
259.009	6.14
259.389	6.55
259.77	6.89
260.15	6.7
260.531	6.68
260.911	6.95
261.292	6.77
261.672	6.98
262.052	6.78
262.432	6.75
262.813	6.7
263.193	6.65
263.573	6.73
263.953	6.98
264.333	6.98
264.713	6.84
265.093	7.03
265.473	6.61
265.853	6.5
266.233	7.08
266.612	6.13
266.992	6.59
267.372	6.43
267.752	6.54
268.131	6.85
268.511	6.64
268.89	6.24
269.27	6.28
269.649	6.33
270.029	6.52
270.408	6.59
270.787	6.88
271.167	6.95
271.546	6.58
271.925	6.41
272.304	6.71
272.683	6.69
273.062	6.44
273.441	6.36
273.82	6.82
274.199	6.5
274.578	6.42
274.957	6.64
275.336	6.52
275.715	6.59
276.093	6.29
276.472	6.43
276.851	6.18
277.229	6.2
277.608	5.86
277.986	5.89
278.365	7.13
278.743	6.04
279.122	5.9
279.5	6.54
279.878	5.31
280.257	6.03
280.635	6.38
281.013	6.24
281.391	6.46
281.769	5.71
282.147	5.36
282.525	6.07
282.903	6.02
283.281	6.49
283.659	5.57
284.037	6.37
284.415	5.58
284.792	5.76
285.17	6.09
285.548	5.89
285.925	5.72
286.303	5.73
286.68	5.9
287.058	6.4
287.435	6.07
287.813	5.46
288.19	6.1
288.567	5.9
288.945	5.67
289.322	6.2
289.699	5.63
290.076	6.36
290.453	5.73
290.83	5.39
291.207	6.4
291.584	5.54
291.961	5.5
292.338	5.82
292.715	5.48
293.092	5.76
293.469	6.23
293.845	5.89
294.222	5.45
294.599	6.26
294.975	6.11
295.352	5.59
295.728	5.49
296.105	6.15
296.481	5.83
296.858	5.68
297.234	5.27
297.61	4.99
297.986	5.34
298.363	5.51
298.739	5.39
299.115	5.51
299.491	5.43
299.867	5.33
300.243	5.59
300.619	5.48
300.995	5.14
301.371	5.62
301.746	5.47
302.122	5.61
302.498	5.17
302.874	5.29
303.249	5.44
303.625	5.15
304	5.86
304.376	5.48
304.751	5.14
305.127	5.38
305.502	6.07
305.878	5.62
306.253	5.53
306.628	5.6
307.003	5.64
307.378	5.08
307.754	5
308.129	5.21
308.504	5.54
308.879	4.9
309.254	5.93
309.629	4.98
310.003	4.39
310.378	5.33
310.753	5.02
311.128	5.74
311.502	5.13
311.877	5.16
312.252	5.3
312.626	5.45
313.001	5.2
313.375	5.48
313.75	5.21
314.124	4.89
314.498	5.38
314.873	4.79
315.247	5.2
315.621	4.97
315.995	5.59
316.369	4.68
316.743	5.22
317.117	4.49
317.491	4.63
317.865	5.11
318.239	5.19
318.613	5.24
318.987	5.11
319.361	4.73
319.734	4.45
320.108	4.42
320.482	5
320.855	5.04
321.229	5.34
321.602	4.77
321.976	4.72
322.349	5.35
322.723	4.84
323.096	5
323.469	5.65
323.843	5.02
324.216	4.43
324.589	5.07
324.962	5.87
325.335	5.25
325.708	4.7
326.081	5.26
326.454	5.57
326.827	5.18
327.2	5.25
327.573	5.33
327.945	4.74
328.318	4.47
328.691	4.76
329.063	5.22
329.436	4.63
329.809	5.07
330.181	5.19
330.553	5.26
330.926	5.38
331.298	4.02
331.671	4.28
332.043	4.72
332.415	4.54
332.787	5.03
333.159	4.49
333.532	5.27
333.904	5.06
334.276	4.48
334.648	4.88
335.02	4.76
335.391	4.57
335.763	5.12
336.135	4.72
336.507	5.1
336.879	4.2
337.25	5.15
337.622	4.71
337.993	5.22
338.365	5.17
338.736	5.02
339.108	5.3
339.479	4.72
339.851	5.09
340.222	4.02
340.593	4.34
340.964	5.16
341.336	5
341.707	5.12
342.078	4.87
342.449	4.85
342.82	5
343.191	4.75
343.562	5.09
343.933	4.64
344.303	5.21
344.674	5.39
345.045	4.82
345.416	5.4
345.786	5.23
346.157	5.01
346.527	5.13
346.898	5.19
347.268	5.21
347.639	5.3
348.009	5.01
348.38	5.26
348.75	5.11
349.12	5.06
349.49	4.71
349.861	5.2
350.231	4.6
350.601	4.65
350.971	5.51
351.341	4.95
351.711	5.73
352.081	5.31
352.45	4.72
352.82	5.12
353.19	5.29
353.56	4.85
353.929	4.89
354.299	4.94
354.669	4.96
355.038	5.37
355.408	4.96
355.777	5.04
356.147	4.83
356.516	5.31
356.885	5.09
357.254	5.36
357.624	5.18
357.993	4.97
358.362	5.11
358.731	4.81
359.1	4.72
359.469	4.92
359.838	5.14
360.207	5.47
360.576	5.55
360.945	5.03
361.314	5.1
361.682	5.14
362.051	5.04
362.42	5.23
362.788	5.33
363.157	5.13
363.525	4.99
363.894	5.17
364.262	4.97
364.631	5.36
364.999	5.55
365.367	5.18
365.735	4.97
366.104	5.12
366.472	5.59
366.84	5.41
367.208	5.45
367.576	4.99
367.944	5.43
368.312	5.24
368.68	5.38
369.048	5.32
369.416	5.27
369.783	5.3
370.151	5.34
370.519	5.34
370.886	5.37
371.254	6.04
371.621	5.38
371.989	4.92
372.356	5.76
372.724	5.71
373.091	5.52
373.458	5.13
373.826	5.59
374.193	5.15
374.56	5.54
374.927	5.59
375.294	5.43
375.661	5.66
376.028	5.52
376.395	5.54
376.762	5.27
377.129	5.35
377.496	5.88
377.863	6.02
378.229	5.95
378.596	5.45
378.963	5.47
379.329	5.52
379.696	5.68
380.062	5.67
380.429	5.22
380.795	5.27
381.161	5.57
381.528	5.91
381.894	5.86
382.26	6
382.626	6.33
382.993	5.49
383.359	5.62
383.725	6.12
384.091	5.59
384.457	5.76
384.823	5.57
385.188	5.59
385.554	5.7
385.92	5.74
386.286	5.68
386.651	5.47
387.017	5.92
387.383	5.8
387.748	5.59
388.114	5.26
388.479	5.85
388.845	5.86
389.21	5.71
389.575	5.61
389.94	5.58
390.306	5.61
390.671	5.6
391.036	5.78
391.401	6.01
391.766	5.97
392.131	5.74
392.496	5.95
392.861	5.78
393.226	5.79
393.591	5.92
393.956	5.99
394.32	6.04
394.685	5.69
395.05	5.96
395.414	6.19
395.779	5.81
396.143	5.86
396.508	5.73
396.872	5.81
397.236	5.94
397.601	5.92
397.965	5.93
398.329	5.65
398.694	5.94
399.058	5.91
399.422	6.11
399.786	5.9
400.15	5.8
400.514	5.92
400.878	5.8
401.242	6.22
401.605	6.12
401.969	5.91
402.333	6.08
402.697	6.12
403.06	5.89
403.424	5.79
403.787	5.95
404.151	6.09
404.514	5.96
404.878	6.22
405.241	6.13
405.604	5.9
405.968	6.12
406.331	5.92
406.694	6.02
407.057	5.99
407.42	6.27
407.783	5.97
408.146	5.89
408.509	6
408.872	6.02
409.235	5.83
409.598	6.41
409.961	6.3
410.323	6.14
410.686	5.99
411.049	6
411.411	6.02
411.774	6.1
412.136	6.16
412.499	6.11
412.861	6.31
413.223	6.3
413.586	6.29
413.948	6.28
414.31	6.33
414.672	6
415.035	6.09
415.397	6.48
415.759	6.22
416.121	6.22
416.483	6.35
416.845	6.21
417.206	6.25
417.568	6.38
417.93	6.31
418.292	5.99
418.653	6.33
419.015	6.21
419.377	6.08
419.738	6.08
420.1	6.16
420.461	6.07
420.822	6.15
421.184	6.02
421.545	6.24
421.906	6.16
422.267	6.01
422.629	6.2
422.99	6.13
423.351	6.18
423.712	6.03
424.073	6.16
424.434	6.04
424.795	6.1
425.155	6.21
425.516	6.05
425.877	6.15
426.238	6.11
426.598	6.17
426.959	6.06
427.32	6.16
427.68	6.27
428.041	6.15
428.401	6.24
428.761	6.21
429.122	6.34
429.482	6.33
429.842	6.3
430.202	6.4
430.563	6.3
430.923	6.39
431.283	6.25
431.643	6.44
432.003	6.71
432.363	6.49
432.722	6.33
433.082	6.45
433.442	6.36
433.802	6.43
434.161	6.31
434.521	6.45
434.881	6.4
435.24	6.3
435.6	6.25
435.959	6.31
436.319	6.29
436.678	6.51
437.037	6.33
437.396	6.61
437.756	6.59
438.115	6.27
438.474	6.43
438.833	6.46
439.192	6.36
439.551	6.23
439.91	6.36
440.269	6.42
440.628	6.42
440.987	6.41
441.345	6.33
441.704	6.42
442.063	6.42
442.421	6.39
442.78	6.29
443.138	6.4
443.497	6.43
443.855	6.31
444.214	6.44
444.572	6.36
444.93	6.5
445.288	6.57
445.647	6.62
446.005	6.27
446.363	6.4
446.721	6.47
447.079	6.42
447.437	6.49
447.795	6.3
448.153	6.34
448.51	6.3
448.868	6.36
449.226	6.37
449.584	6.45
449.941	6.36
450.299	6.42
450.656	6.42
451.014	6.36
451.371	6.43
451.729	6.39
452.086	6.51
452.443	6.42
452.801	6.44
453.158	6.6
453.515	6.5
453.872	6.54
454.229	6.7
454.586	6.47
454.943	6.48
455.3	6.5
455.657	6.53
456.014	6.43
456.371	6.49
456.727	6.67
457.084	6.64
457.441	6.61
457.797	6.75
458.154	6.43
458.51	6.58
458.867	6.41
459.223	6.6
459.58	6.61
459.936	6.69
460.292	6.57
460.648	6.46
461.005	6.34
461.361	6.52
461.717	6.2
462.073	6.49
462.429	6.42
462.785	6.53
463.141	6.59
463.496	6.53
463.852	6.59
464.208	6.68
464.564	6.79
464.919	6.6
465.275	6.75
465.631	6.64
465.986	6.69
466.342	6.73
466.697	6.6
467.052	6.6
467.408	6.63
467.763	6.72
468.118	6.85
468.473	6.57
468.829	6.64
469.184	6.55
469.539	6.66
469.894	6.69
470.249	6.58
470.603	6.6
470.958	6.73
471.313	6.7
471.668	6.74
472.023	6.61
472.377	6.62
472.732	6.51
473.086	6.64
473.441	6.77
473.795	6.95
474.15	6.67
474.504	6.67
474.859	6.53
475.213	6.68
475.567	6.75
475.921	6.71
476.275	6.85
476.63	6.95
476.984	6.82
477.338	6.64
477.692	6.62
478.045	6.71
478.399	6.61
478.753	6.76
479.107	6.76
479.461	6.69
479.814	6.89
480.168	6.81
480.521	6.73
480.875	6.7
481.228	6.76
481.582	6.86
481.935	6.73
482.289	6.69
482.642	6.65
482.995	6.71
483.348	6.73
483.701	6.59
484.055	6.78
484.408	6.56
484.761	6.5
485.114	6.51
485.466	6.35
485.819	6.25
486.172	6.19
486.525	6.24
486.878	6.31
487.23	6.38
487.583	6.46
487.936	6.43
488.288	6.46
488.641	6.55
488.993	6.39
489.345	6.38
489.698	6.35
490.05	6.31
490.402	6.35
490.754	6.36
491.107	6.41
491.459	6.52
491.811	6.54
492.163	6.48
492.515	6.57
492.866	6.56
493.218	6.5
493.57	6.37
493.922	6.35
494.274	6.43
494.625	6.49
494.977	6.41
495.328	6.63
495.68	6.74
496.031	6.61
496.383	6.81
496.734	6.73
497.086	6.76
497.437	6.74
497.788	6.75
498.139	6.82
498.49	6.51
498.842	6.59
499.193	6.65
499.544	6.59
499.894	6.64
500.245	6.72
500.596	6.58
500.947	6.74
501.298	6.59
501.648	6.71
501.999	6.83
502.35	6.75
502.7	6.85
503.051	6.68
503.401	6.81
503.752	6.86
504.102	6.75
504.452	6.73
504.803	6.72
505.153	6.75
505.503	6.74
505.853	6.81
506.203	6.7
506.553	6.63
506.903	6.86
507.253	6.75
507.603	6.73
507.953	6.78
508.303	6.66
508.652	6.79
509.002	6.78
509.352	6.69
509.701	6.76
510.051	6.6
510.4	6.69
510.75	6.69
511.099	6.62
511.449	6.74
511.798	6.72
512.147	6.7
512.496	6.72
512.846	6.78
513.195	6.76
513.544	6.78
513.893	6.56
514.242	6.71
514.591	6.74
514.939	6.75
515.288	6.62
515.637	6.75
515.986	6.77
516.334	6.78
516.683	6.72
517.032	6.76
517.38	6.64
517.729	6.71
518.077	6.7
518.426	6.7
518.774	6.57
519.122	6.73
519.47	6.8
519.819	6.61
520.167	6.56
520.515	6.52
520.863	6.66
521.211	6.56
521.559	6.62
521.907	6.66
522.255	6.64
522.602	6.86
522.95	6.6
523.298	6.6
523.645	6.69
523.993	6.71
524.341	6.75
524.688	6.75
525.036	6.9
525.383	6.76
525.73	6.81
526.078	6.79
526.425	6.89
526.772	6.54
527.119	6.7
527.466	6.54
527.814	6.58
528.161	6.5
528.508	6.57
528.854	6.64
529.201	6.63
529.548	6.59
529.895	6.53
530.242	6.44
530.588	6.26
530.935	6.24
531.282	6.35
531.628	6.43
531.975	6.44
532.321	6.51
532.667	6.54
533.014	6.53
533.36	6.58
533.706	6.62
534.052	6.57
534.399	6.51
534.745	6.46
535.091	6.5
535.437	6.43
535.783	6.46
536.129	6.51
536.474	6.53
536.82	6.66
537.166	6.63
537.512	6.67
537.857	6.57
538.203	6.46
538.549	6.68
538.894	6.5
539.239	6.46
539.585	6.66
539.93	6.67
540.276	6.81
540.621	6.78
540.966	6.67
541.311	6.83
541.656	6.71
542.001	6.7
542.346	6.7
542.691	6.56
543.036	6.55
543.381	6.35
543.726	6.39
544.071	6.39
544.415	6.41
544.76	6.44
545.105	6.58
545.449	6.47
545.794	6.63
546.138	6.68
546.483	6.54
546.827	6.73
547.171	6.6
547.516	6.6
547.86	6.65
548.204	6.45
548.548	6.67
548.892	6.52
549.236	6.5
549.58	6.58
549.924	6.51
550.268	6.73
550.612	6.68
550.956	6.76
551.3	6.65
551.643	6.72
551.987	6.76
552.33	6.91
552.674	6.73
553.017	6.72
553.361	6.76
553.704	6.77
554.048	6.74
554.391	6.66
554.734	6.66
555.077	6.59
555.42	6.53
555.764	6.56
556.107	6.85
556.45	6.8
556.793	6.48
557.135	6.64
557.478	6.63
557.821	6.78
558.164	6.73
558.507	6.67
558.849	6.79
559.192	6.72
559.534	6.86
559.877	6.58
560.219	6.73
560.562	6.78
560.904	6.54
561.246	6.81
561.589	6.59
561.931	6.68
562.273	6.86
562.615	6.91
562.957	6.75
563.299	6.77
563.641	6.83
563.983	6.59
564.325	6.51
564.667	6.78
565.008	6.79
565.35	6.58
565.692	6.68
566.033	6.66
566.375	6.8
566.716	6.73
567.058	6.67
567.399	6.65
567.741	6.51
568.082	6.53
568.423	6.65
568.764	6.46
569.105	6.75
569.447	6.52
569.788	6.68
570.129	6.62
570.47	6.68
570.811	6.83
571.151	6.72
571.492	6.78
571.833	6.77
572.174	6.67
572.514	6.7
572.855	6.61
573.195	6.65
573.536	6.48
573.876	6.63
574.217	6.49
574.557	6.49
574.898	6.48
575.238	6.53
575.578	6.64
575.918	6.37
576.258	6.64
576.598	6.62
576.938	6.48
577.278	6.63
577.618	6.38
577.958	6.46
578.298	6.6
578.638	6.68
578.977	6.54
579.317	6.56
579.657	6.45
579.996	6.62
580.336	6.81
580.675	6.49
581.014	6.56
581.354	6.56
581.693	6.66
582.032	6.73
582.372	6.6
582.711	6.64
583.05	6.82
583.389	6.49
583.728	6.68
584.067	6.46
584.406	6.7
584.745	6.4
585.083	6.61
585.422	6.42
585.761	6.6
586.1	6.62
586.438	6.07
586.777	6.69
587.115	6.79
587.454	6.32
587.792	6.24
588.13	6.63
588.469	6.67
588.807	6.27
589.145	6.44
589.483	6.39
589.821	6.37
590.159	6.63
590.497	6.78
590.835	6.68
591.173	6.66
591.511	6.51
591.849	6.21
592.187	6.4
592.524	6.33
592.862	6.6
593.2	6.73
593.537	6.35
593.875	6.43
594.212	6.68
594.55	6.37
594.887	6.6
595.224	6.49
595.561	6.52
595.899	6.46
596.236	6.51
596.573	6.46
596.91	6.27
597.247	6.46
597.584	6.51
597.921	6.44
598.258	6.5
598.594	6.55
598.931	6.28
599.268	6.3
599.604	6.38
599.941	6.22
600.277	6.29
600.614	6.21
600.95	6.56
601.287	6.19
601.623	6.52
601.959	6.32
602.296	6.25
602.632	6.52
602.968	6.37
603.304	6.66
603.64	6.36
603.976	6.56
604.312	6.7
604.648	6.58
604.984	6.57
605.319	6.23
605.655	6.15
605.991	6.33
606.326	6.11
606.662	6.07
606.998	6.03
607.333	6.26
607.668	6.05
608.004	6.3
608.339	6.32
608.674	6.3
609.01	6.21
609.345	6.38
609.68	6.4
610.015	6.17
610.35	6.34
610.685	6.38
611.02	6.38
611.355	6.2
611.689	6
612.024	6.23
612.359	6.49
612.694	6.24
613.028	6.31
613.363	6.3
613.697	6.25
614.032	6.1
614.366	6.57
614.7	6.3
615.035	6.41
615.369	6.23
615.703	6.22
616.037	6.47
616.371	6.28
616.705	6.35
617.039	6.11
617.373	6.17
617.707	6.24
618.041	6.07
618.375	6.37
618.709	6.1
619.042	6.3
619.376	6.37
619.71	6.44
620.043	6.18
620.377	6.48
620.71	6.34
621.043	6.35
621.377	6.16
621.71	6.04
622.043	6.33
622.376	6.14
622.709	6.38
623.043	6.32
623.376	6.25
623.709	6.09
624.041	6.17
624.374	6.28
624.707	6.11
625.04	6.15
625.373	6.56
625.705	6.06
626.038	6.58
626.37	5.86
626.703	6.21
627.035	6.06
627.368	6.02
627.7	6.48
628.032	5.96
628.365	6.29
628.697	6.17
629.029	6.3
629.361	6.22
629.693	5.95
630.025	6.35
630.357	5.99
630.689	6.1
631.021	6.48
631.353	6.11
631.684	5.83
632.016	6.47
632.348	6.41
632.679	6.07
633.011	6.33
633.342	5.96
633.674	6.3
634.005	6.1
634.336	6.49
634.668	5.68
634.999	5.91
635.33	5.75
635.661	6.46
635.992	6.33
636.323	6.49
636.654	6.3
636.985	5.89
637.316	5.97
637.647	5.97
637.977	5.84
638.308	5.83
638.639	6.26
638.969	5.94
639.3	5.97
639.63	6.31
639.961	5.92
640.291	6
640.622	6.25
640.952	6.17
641.282	6.08
641.612	6.3
641.943	6.27
642.273	5.79
642.603	6.15
642.933	6.17
643.263	6.4
643.592	6.07
643.922	6.58
644.252	5.79
644.582	5.9
644.911	6.21
645.241	6.34
645.571	6.36
645.9	5.73
646.23	6.12
646.559	6.1
646.888	6.32
647.218	5.89
647.547	5.86
647.876	6.19
648.205	6.07
648.534	5.68
648.863	5.71
649.192	5.61
649.521	6.29
649.85	5.9
650.179	5.91
650.508	6.06
650.837	6.37
651.165	6.22
651.494	5.75
651.822	6.16
652.151	6.23
652.479	6.32
652.808	5.9
653.136	6.09
653.465	6.31
653.793	5.93
654.121	6.49
654.449	6.17
654.777	5.99
655.105	6.4
655.433	6.96
655.761	6.16
656.089	6.17
656.417	6.46
656.745	6.21
657.073	6.04
657.4	6.19
657.728	5.86
658.056	5.92
658.383	6.16
658.711	5.71
659.038	6.11
659.365	5.9
659.693	6.49
660.02	5.91
660.347	5.75
660.674	5.79
661.001	5.94
661.329	5.92
661.656	6.1
661.982	5.68
662.309	6.07
662.636	6.17
662.963	6.13
663.29	6.31
663.616	6.41
663.943	5.06
664.27	6.01
664.596	6.04
664.923	5.79
665.249	5.98
665.576	5.51
665.902	6.65
666.228	5.77
666.554	6.28
666.881	5.35
667.207	5.92
667.533	5.78
667.859	6.13
668.185	5.71
668.511	6.31
668.837	6.39
669.162	6.34
669.488	6.12
669.814	5.86
670.139	5.92
670.465	5.79
670.791	6.49
671.116	5.97
671.442	6.2
671.767	6.54
672.092	5.56
672.418	6.01
672.743	6.11
673.068	6.24
673.393	5.63
673.718	5.81
674.043	6.25
674.368	6.24
674.693	5.72
675.018	6.5
675.343	5.97
675.667	6.19
675.992	6.99
676.317	6.35
676.641	6.2
676.966	5.75
677.29	6.24
677.615	5.69
677.939	5.52
678.264	5.55
678.588	5.59
678.912	5.85
679.236	5.78
679.56	6.06
679.885	6.21
680.209	5.95
680.532	6.01
680.856	5.01
681.18	6.23
681.504	6.12
681.828	6.12
682.152	6.43
682.475	5.24
682.799	6.26
683.122	6.15
683.446	6.71
683.769	5.97
684.093	5.86
684.416	5.72
684.739	5.53
685.062	5.76
685.386	5.78
685.709	6.19
686.032	5.72
686.355	6.79
686.678	5.59
687.001	5.74
687.324	5.65
687.646	5.52
687.969	5.96
688.292	5.9
688.614	5.88
688.937	5.78
689.26	5.25
689.582	5.92
689.904	5.76
690.227	6.76
690.549	5.81
690.871	6.41
691.194	5.91
691.516	5.64
691.838	6.76
692.16	5.92
692.482	5.75
692.804	5.97
