Data from 0365_chest_Reflection__3__297.txt Node

Date: Fri Oct 20 23:04:37 CDT 2023
User: ToomeyLab
Spectrometer: FLMS14357
Trigger mode: 0
Integration Time (sec): 1.000000E-2
Scans to average: 100
Electric dark correction enabled: true
Nonlinearity correction enabled: false
Boxcar width: 0
XAxis mode: Wavelengths
Number of Pixels in Spectrum: 2048
>>>>>Begin Spectral Data<<<<<
189.047	18.43
189.435	18.43
189.823	18.43
190.211	-38.16
190.599	-376.57
190.987	122.14
191.375	84.78
191.763	31.11
192.151	-162.57
192.538	102.91
192.926	-910.81
193.314	103.5
193.702	48.55
194.089	86.46
194.477	15.42
194.864	10.53
195.252	-36.59
195.639	-904.42
196.027	-132.6
196.414	115.15
196.801	76.72
197.189	-255.88
197.576	139.93
197.963	-28.53
198.351	55.72
198.738	-11.51
199.125	27.21
199.512	28.28
199.899	27.12
200.286	-38.2
200.673	14.58
201.06	20.03
201.447	-5.31
201.833	67.66
202.22	31.26
202.607	23.71
202.994	52.3
203.38	-14.64
203.767	34.36
204.154	52.38
204.54	49.79
204.927	39.03
205.313	-1.2
205.699	41.81
206.086	98.46
206.472	50.77
206.858	31.05
207.245	18.06
207.631	23
208.017	35.9
208.403	33.46
208.789	52.19
209.175	41.5
209.561	12.43
209.947	40.98
210.333	-13.72
210.719	14.27
211.105	31.6
211.491	35.05
211.876	13.81
212.262	39.05
212.648	32.34
213.034	20.42
213.419	6.71
213.805	3.43
214.19	11.97
214.576	35.71
214.961	5.83
215.346	15.81
215.732	19.58
216.117	-34.91
216.502	20.73
216.888	24.08
217.273	-25.5
217.658	8.08
218.043	2.92
218.428	15.3
218.813	28.24
219.198	5.66
219.583	-2.56
219.968	11.67
220.353	26.89
220.738	18.71
221.122	-8.69
221.507	17.74
221.892	16.24
222.276	11.49
222.661	14.64
223.046	10.15
223.43	1.15
223.815	3.1
224.199	20.18
224.583	8.23
224.968	-8.03
225.352	11.05
225.736	1.07
226.121	11.78
226.505	-1.15
226.889	5.78
227.273	-0.03
227.657	19.33
228.041	18.13
228.425	4.19
228.809	6.84
229.193	7.4
229.577	8.33
229.961	1.55
230.344	3.01
230.728	3.78
231.112	5.39
231.495	4.73
231.879	5.24
232.263	5.63
232.646	3.42
233.03	3.35
233.413	3.23
233.797	4.36
234.18	5.54
234.563	7.55
234.946	5.34
235.33	5.63
235.713	4.71
236.096	4.88
236.479	4.3
236.862	4.73
237.245	4.73
237.628	4.58
238.011	3.52
238.394	3.37
238.777	7.78
239.16	4.05
239.543	6.64
239.925	6.68
240.308	4.41
240.691	4.13
241.073	6.7
241.456	5.25
241.838	4.17
242.221	6.12
242.603	5.47
242.986	5.41
243.368	5.09
243.75	3.98
244.133	4.33
244.515	4.18
244.897	4.41
245.279	4.81
245.661	3.97
246.043	4.1
246.425	3.61
246.807	3.95
247.189	4.22
247.571	4.05
247.953	4.54
248.335	5.13
248.717	4.17
249.098	4
249.48	4.14
249.862	4.18
250.243	4.59
250.625	4.41
251.006	4.61
251.388	4.38
251.769	4.45
252.151	4.05
252.532	5.08
252.913	4.63
253.295	3.73
253.676	4.5
254.057	4.83
254.438	3.87
254.819	4.67
255.2	4.41
255.581	3.74
255.962	4.34
256.343	4.82
256.724	2.8
257.105	3.96
257.486	4.83
257.867	4.68
258.247	4.61
258.628	4.1
259.009	4.25
259.389	3.77
259.77	3.43
260.15	4.13
260.531	4.14
260.911	3.9
261.292	4.05
261.672	4.16
262.052	4.28
262.432	4.17
262.813	4.04
263.193	4
263.573	4.15
263.953	3.75
264.333	4.58
264.713	4.25
265.093	4.28
265.473	4.7
265.853	4.29
266.233	4.42
266.612	4.18
266.992	4.52
267.372	3.93
267.752	3.98
268.131	4.3
268.511	4.23
268.89	4.36
269.27	4.04
269.649	4.08
270.029	3.78
270.408	3.82
270.787	3.92
271.167	3.42
271.546	4.19
271.925	4.76
272.304	4.61
272.683	4.26
273.062	3.86
273.441	3.84
273.82	3.89
274.199	3.87
274.578	3.96
274.957	4.34
275.336	3.53
275.715	4.08
276.093	4.11
276.472	3.99
276.851	4.06
277.229	3.43
277.608	3.63
277.986	3.58
278.365	4.08
278.743	4.16
279.122	3.66
279.5	4.3
279.878	3.43
280.257	4.26
280.635	3.85
281.013	4.76
281.391	3.97
281.769	4.2
282.147	4.16
282.525	4.22
282.903	4.15
283.281	4.3
283.659	4.17
284.037	4.35
284.415	3.62
284.792	3.71
285.17	4.2
285.548	3.75
285.925	3.69
286.303	3.58
286.68	3.67
287.058	4.64
287.435	4.23
287.813	3.83
288.19	4.1
288.567	3.82
288.945	4.12
289.322	4.47
289.699	3.6
290.076	4.8
290.453	4.06
290.83	4.07
291.207	4.13
291.584	3.71
291.961	3.75
292.338	3.75
292.715	3.97
293.092	4.12
293.469	4.13
293.845	3.71
294.222	4.06
294.599	3.96
294.975	4.95
295.352	4.12
295.728	4.17
296.105	4.08
296.481	4.16
296.858	4.23
297.234	4.15
297.61	4.17
297.986	4.37
298.363	4.29
298.739	4.43
299.115	3.87
299.491	4.14
299.867	4.35
300.243	4.54
300.619	4.35
300.995	3.99
301.371	4.66
301.746	4.38
302.122	4.6
302.498	4.13
302.874	4.21
303.249	4.03
303.625	4.68
304	4.72
304.376	4.34
304.751	4
305.127	4.39
305.502	5.09
305.878	4.4
306.253	4.52
306.628	4.46
307.003	4.59
307.378	3.97
307.754	5.07
308.129	5.06
308.504	4.97
308.879	4.62
309.254	5.14
309.629	4.34
310.003	3.85
310.378	5.27
310.753	4.91
311.128	5.15
311.502	4.64
311.877	5.05
312.252	4.78
312.626	5.12
313.001	4.55
313.375	4.58
313.75	4.98
314.124	4.29
314.498	4.87
314.873	4.63
315.247	5.09
315.621	4.88
315.995	5.26
316.369	4.25
316.743	4.96
317.117	4.96
317.491	4.42
317.865	4.97
318.239	5.24
318.613	5.47
318.987	4.99
319.361	4.27
319.734	4.3
320.108	4.46
320.482	5.24
320.855	4.5
321.229	5.58
321.602	5.03
321.976	5.29
322.349	5.55
322.723	4.26
323.096	4.88
323.469	4.92
323.843	5.6
324.216	5.81
324.589	5.59
324.962	5.64
325.335	5.3
325.708	5.25
326.081	5.4
326.454	5.28
326.827	5.58
327.2	5.47
327.573	5.62
327.945	5.61
328.318	4.87
328.691	5.21
329.063	5.9
329.436	5.27
329.809	5.32
330.181	5.45
330.553	5.5
330.926	4.89
331.298	4.93
331.671	4.72
332.043	5.07
332.415	5.03
332.787	6
333.159	5.14
333.532	5.21
333.904	5.71
334.276	4.8
334.648	5.37
335.02	5.8
335.391	5.21
335.763	5.74
336.135	5.78
336.507	5.65
336.879	5.37
337.25	5.98
337.622	5.79
337.993	5.44
338.365	5.57
338.736	5.65
339.108	5.97
339.479	5.08
339.851	5.79
340.222	5.23
340.593	4.95
340.964	5.56
341.336	6.03
341.707	5.23
342.078	5.72
342.449	5.28
342.82	5.03
343.191	5.49
343.562	5.45
343.933	5.54
344.303	5.13
344.674	5.66
345.045	5.38
345.416	5.86
345.786	5.76
346.157	5.74
346.527	5.41
346.898	5.51
347.268	5.62
347.639	5.84
348.009	5.59
348.38	5.69
348.75	5.88
349.12	5.52
349.49	5.27
349.861	5.8
350.231	4.95
350.601	5.33
350.971	6.02
351.341	5.55
351.711	6.46
352.081	5.88
352.45	5.25
352.82	5.94
353.19	5.82
353.56	5.86
353.929	5.48
354.299	5.61
354.669	5.77
355.038	6.06
355.408	5.64
355.777	5.58
356.147	5.77
356.516	5.5
356.885	5.74
357.254	5.96
357.624	5.55
357.993	5.74
358.362	5.71
358.731	5.31
359.1	5.5
359.469	5.58
359.838	5.51
360.207	5.51
360.576	5.8
360.945	5.68
361.314	5.78
361.682	5.82
362.051	5.61
362.42	5.52
362.788	5.89
363.157	5.59
363.525	5.51
363.894	5.72
364.262	5.59
364.631	5.91
364.999	5.74
365.367	6
365.735	5.82
366.104	5.79
366.472	6.09
366.84	5.99
367.208	5.94
367.576	5.47
367.944	5.66
368.312	6
368.68	6.13
369.048	5.93
369.416	5.97
369.783	6.06
370.151	6.24
370.519	6.11
370.886	6.18
371.254	6.13
371.621	6.44
371.989	5.82
372.356	6.12
372.724	6.31
373.091	6.03
373.458	5.83
373.826	5.88
374.193	5.79
374.56	5.93
374.927	5.95
375.294	6.06
375.661	6.05
376.028	6.44
376.395	6.62
376.762	5.77
377.129	6.24
377.496	6.29
377.863	6.4
378.229	6.34
378.596	6.22
378.963	6.08
379.329	6.07
379.696	6.27
380.062	6.11
380.429	6.02
380.795	5.76
381.161	6.17
381.528	6.55
381.894	6.14
382.26	6.54
382.626	6.39
382.993	6.17
383.359	6.19
383.725	6.35
384.091	6.37
384.457	6.3
384.823	6.13
385.188	6.51
385.554	6.2
385.92	6.18
386.286	6.63
386.651	5.91
387.017	6.35
387.383	6.23
387.748	6.09
388.114	5.99
388.479	6.37
388.845	6.76
389.21	6.18
389.575	5.65
389.94	6.14
390.306	6.28
390.671	6.24
391.036	6.17
391.401	6.52
391.766	6.41
392.131	6.25
392.496	6.44
392.861	6.61
393.226	6.34
393.591	6.31
393.956	6.61
394.32	6.71
394.685	6.27
395.05	6.6
395.414	6.44
395.779	6.37
396.143	6.53
396.508	6.16
396.872	6.41
397.236	6.34
397.601	6.34
397.965	6.44
398.329	6.52
398.694	6.48
399.058	6.29
399.422	6.75
399.786	6.51
400.15	6.29
400.514	6.45
400.878	6.52
401.242	6.73
401.605	6.68
401.969	6.56
402.333	6.71
402.697	6.45
403.06	6.92
403.424	6.75
403.787	6.69
404.151	6.7
404.514	6.61
404.878	6.73
405.241	6.58
405.604	6.62
405.968	6.74
406.331	6.67
406.694	6.49
407.057	6.55
407.42	6.99
407.783	6.88
408.146	6.61
408.509	6.78
408.872	6.84
409.235	6.33
409.598	6.55
409.961	6.86
410.323	6.75
410.686	6.75
411.049	6.79
411.411	6.93
411.774	6.93
412.136	6.55
412.499	6.83
412.861	6.79
413.223	6.86
413.586	6.84
413.948	6.87
414.31	7.08
414.672	6.73
415.035	6.78
415.397	6.94
415.759	6.84
416.121	6.85
416.483	7.18
416.845	6.9
417.206	6.93
417.568	7.17
417.93	6.95
418.292	6.75
418.653	7.02
419.015	6.71
419.377	6.62
419.738	6.8
420.1	6.76
420.461	6.94
420.822	6.79
421.184	6.83
421.545	6.73
421.906	6.81
422.267	6.78
422.629	6.84
422.99	6.72
423.351	6.92
423.712	6.74
424.073	6.83
424.434	6.63
424.795	6.87
425.155	6.83
425.516	6.69
425.877	6.84
426.238	6.68
426.598	6.84
426.959	6.76
427.32	6.9
427.68	6.91
428.041	6.9
428.401	6.97
428.761	6.97
429.122	6.92
429.482	7
429.842	7.19
430.202	6.99
430.563	7.08
430.923	7.28
431.283	7.02
431.643	7.15
432.003	7.29
432.363	7.04
432.722	7.27
433.082	7.08
433.442	6.96
433.802	7.54
434.161	7.07
434.521	7.37
434.881	7.17
435.24	7.19
435.6	7.12
435.959	7.1
436.319	7.17
436.678	7.26
437.037	7.32
437.396	7.41
437.756	7.4
438.115	7.07
438.474	7.31
438.833	7.35
439.192	7.12
439.551	7.22
439.91	7.37
440.269	7.42
440.628	7.27
440.987	7.34
441.345	7.19
441.704	7.22
442.063	7.32
442.421	7.28
442.78	7.22
443.138	7.42
443.497	7.24
443.855	7.2
444.214	7.33
444.572	7.25
444.93	7.6
445.288	7.39
445.647	7.63
446.005	7.22
446.363	7.48
446.721	7.42
447.079	7.51
447.437	7.45
447.795	7.25
448.153	7.22
448.51	7.29
448.868	7.3
449.226	7.27
449.584	7.38
449.941	7.48
450.299	7.41
450.656	7.26
451.014	7.44
451.371	7.57
451.729	7.43
452.086	7.54
452.443	7.63
452.801	7.47
453.158	7.63
453.515	7.72
453.872	7.69
454.229	7.83
454.586	7.74
454.943	7.65
455.3	7.63
455.657	7.64
456.014	7.59
456.371	7.52
456.727	7.76
457.084	7.72
457.441	7.66
457.797	7.77
458.154	7.67
458.51	7.77
458.867	7.88
459.223	7.61
459.58	7.77
459.936	7.82
460.292	7.74
460.648	7.61
461.005	7.69
461.361	7.7
461.717	7.45
462.073	7.58
462.429	7.61
462.785	7.64
463.141	7.68
463.496	7.83
463.852	7.87
464.208	7.84
464.564	7.79
464.919	7.72
465.275	8.05
465.631	7.93
465.986	7.82
466.342	8.15
466.697	7.95
467.052	8.02
467.408	7.85
467.763	8.03
468.118	8.22
468.473	8.16
468.829	8.02
469.184	8.08
469.539	7.92
469.894	7.94
470.249	8.1
470.603	8.07
470.958	8.23
471.313	8.2
471.668	8.13
472.023	8.09
472.377	7.97
472.732	7.95
473.086	8.15
473.441	8.3
473.795	8.3
474.15	8.08
474.504	7.99
474.859	7.96
475.213	8.31
475.567	8.24
475.921	8.2
476.275	8.22
476.63	8.29
476.984	8.42
477.338	8.11
477.692	8.12
478.045	8.31
478.399	8.22
478.753	8.24
479.107	8.29
479.461	8.19
479.814	8.5
480.168	8.22
480.521	8.52
480.875	8.18
481.228	8.2
481.582	8.35
481.935	8.45
482.289	8.5
482.642	8.27
482.995	8.4
483.348	8.44
483.701	8.32
484.055	8.27
484.408	8.15
484.761	8.21
485.114	8.08
485.466	7.95
485.819	7.86
486.172	7.75
486.525	7.82
486.878	7.88
487.23	7.98
487.583	8.01
487.936	8.15
488.288	8.23
488.641	8.27
488.993	8.08
489.345	8.13
489.698	8.15
490.05	8.04
490.402	8.08
490.754	8.12
491.107	8.19
491.459	8.37
491.811	8.36
492.163	8.45
492.515	8.38
492.866	8.43
493.218	8.25
493.57	8.23
493.922	8.27
494.274	8.24
494.625	8.3
494.977	8.35
495.328	8.46
495.68	8.54
496.031	8.5
496.383	8.71
496.734	8.74
497.086	8.73
497.437	8.8
497.788	8.82
498.139	8.84
498.49	8.72
498.842	8.61
499.193	8.77
499.544	8.74
499.894	8.73
500.245	8.84
500.596	8.83
500.947	8.75
501.298	8.84
501.648	8.92
501.999	8.98
502.35	8.84
502.7	9.11
503.051	8.98
503.401	9.17
503.752	9.06
504.102	9.07
504.452	8.94
504.803	9.02
505.153	9.2
505.503	9.16
505.853	9.1
506.203	8.92
506.553	9.11
506.903	9.06
507.253	8.96
507.603	9.07
507.953	9.16
508.303	9.13
508.652	9.26
509.002	9.07
509.352	9.17
509.701	9.16
510.051	9.13
510.4	9.23
510.75	9.18
511.099	9.23
511.449	9.2
511.798	9.34
512.147	9.23
512.496	9.19
512.846	9.16
513.195	9.33
513.544	9.28
513.893	9.21
514.242	9.25
514.591	9.38
514.939	9.24
515.288	9.2
515.637	9.38
515.986	9.48
516.334	9.39
516.683	9.45
517.032	9.4
517.38	9.39
517.729	9.49
518.077	9.47
518.426	9.5
518.774	9.41
519.122	9.48
519.47	9.46
519.819	9.45
520.167	9.31
520.515	9.32
520.863	9.51
521.211	9.39
521.559	9.5
521.907	9.44
522.255	9.52
522.602	9.66
522.95	9.63
523.298	9.73
523.645	9.79
523.993	9.77
524.341	9.78
524.688	9.88
525.036	9.77
525.383	9.6
525.73	9.89
526.078	9.85
526.425	10
526.772	9.84
527.119	9.76
527.466	9.63
527.814	9.78
528.161	9.75
528.508	9.68
528.854	9.74
529.201	9.72
529.548	9.69
529.895	9.72
530.242	9.62
530.588	9.47
530.935	9.43
531.282	9.54
531.628	9.52
531.975	9.55
532.321	9.59
532.667	9.71
533.014	9.85
533.36	9.97
533.706	10.05
534.052	10.06
534.399	9.94
534.745	9.92
535.091	9.92
535.437	9.91
535.783	9.88
536.129	9.92
536.474	9.99
536.82	10.08
537.166	10.14
537.512	10.18
537.857	10.3
538.203	10.2
538.549	10.33
538.894	10.19
539.239	10.24
539.585	10.14
539.93	10.32
540.276	10.37
540.621	10.42
540.966	10.48
541.311	10.51
541.656	10.6
542.001	10.57
542.346	10.61
542.691	10.33
543.036	10.34
543.381	10.18
543.726	10.2
544.071	10.24
544.415	10.22
544.76	10.3
545.105	10.49
545.449	10.57
545.794	10.64
546.138	10.57
546.483	10.64
546.827	10.71
547.171	10.84
547.516	10.74
547.86	10.9
548.204	10.65
548.548	10.88
548.892	10.79
549.236	10.84
549.58	10.82
549.924	10.87
550.268	11
550.612	11.07
550.956	11.14
551.3	11.09
551.643	11.24
551.987	11.27
552.33	11.27
552.674	11.37
553.017	11.16
553.361	11.36
553.704	11.55
554.048	11.34
554.391	11.24
554.734	11.44
555.077	11.39
555.42	11.29
555.764	11.31
556.107	11.56
556.45	11.56
556.793	11.45
557.135	11.4
557.478	11.57
557.821	11.7
558.164	11.77
558.507	11.77
558.849	11.87
559.192	11.75
559.534	11.96
559.877	11.73
560.219	11.74
560.562	11.95
560.904	11.87
561.246	11.82
561.589	11.68
561.931	12.08
562.273	12.21
562.615	12.06
562.957	12.17
563.299	12.16
563.641	12.33
563.983	11.89
564.325	12
564.667	12.17
565.008	12.03
565.35	12.21
565.692	12.32
566.033	12.32
566.375	12.2
566.716	12.34
567.058	12.38
567.399	12.37
567.741	12.26
568.082	12.4
568.423	12.49
568.764	12.15
569.105	12.48
569.447	12.5
569.788	12.33
570.129	12.61
570.47	12.43
570.811	12.69
571.151	12.36
571.492	12.92
571.833	12.84
572.174	12.7
572.514	12.55
572.855	12.86
573.195	12.67
573.536	12.54
573.876	12.64
574.217	12.76
574.557	12.8
574.898	12.75
575.238	12.75
575.578	12.86
575.918	12.88
576.258	12.96
576.598	13.07
576.938	12.88
577.278	12.96
577.618	13.01
577.958	12.95
578.298	13
578.638	13.11
578.977	13.24
579.317	13.25
579.657	13.12
579.996	13.17
580.336	13.44
580.675	13.23
581.014	13.62
581.354	13.45
581.693	13.55
582.032	13.63
582.372	13.42
582.711	13.68
583.05	14.04
583.389	13.64
583.728	13.65
584.067	13.49
584.406	13.76
584.745	13.64
585.083	13.72
585.422	13.95
585.761	13.78
586.1	14.06
586.438	13.86
586.777	13.89
587.115	13.91
587.454	14
587.792	13.95
588.13	14.25
588.469	14.11
588.807	13.86
589.145	14.07
589.483	14.11
589.821	14.05
590.159	14.26
590.497	14.06
590.835	14.21
591.173	14.22
591.511	14.25
591.849	14.18
592.187	14.2
592.524	14.19
592.862	14.31
593.2	14.51
593.537	14.14
593.875	14.39
594.212	14.49
594.55	14.48
594.887	14.72
595.224	14.83
595.561	14.5
595.899	14.76
596.236	14.44
596.573	14.6
596.91	14.94
597.247	14.44
597.584	14.7
597.921	14.75
598.258	14.85
598.594	14.96
598.931	14.68
599.268	14.76
599.604	14.8
599.941	14.81
600.277	14.92
600.614	14.95
600.95	14.85
601.287	14.75
601.623	15.06
601.959	15.46
602.296	15.22
602.632	15.11
602.968	15
603.304	15.39
603.64	15.41
603.976	15.3
604.312	15.51
604.648	15.39
604.984	15.75
605.319	15.32
605.655	15.17
605.991	15.51
606.326	15.3
606.662	15.28
606.998	15.3
607.333	15.53
607.668	15.49
608.004	15.47
608.339	15.5
608.674	15.78
609.01	15.82
609.345	16.08
609.68	16.09
610.015	15.69
610.35	15.89
610.685	16.04
611.02	15.98
611.355	15.72
611.689	15.82
612.024	15.91
612.359	15.98
612.694	15.9
613.028	16.26
613.363	16.22
613.697	16.15
614.032	16.11
614.366	16.38
614.7	16.53
615.035	16.54
615.369	16.61
615.703	16.21
616.037	16.38
616.371	16.61
616.705	16.18
617.039	16.32
617.373	16.52
617.707	16.66
618.041	16.86
618.375	16.34
618.709	16.38
619.042	16.74
619.376	16.66
619.71	16.72
620.043	16.78
620.377	16.5
620.71	16.62
621.043	16.94
621.377	16.98
621.71	16.77
622.043	17.05
622.376	17.39
622.709	17.28
623.043	17.17
623.376	17.16
623.709	16.81
624.041	17.17
624.374	17.29
624.707	17.23
625.04	17.52
625.373	17.76
625.705	17.04
626.038	17.57
626.37	17.02
626.703	17.29
627.035	17.18
627.368	17.66
627.7	17.51
628.032	17.27
628.365	17.78
628.697	17.49
629.029	17.41
629.361	17.61
629.693	17.41
630.025	17.83
630.357	17.96
630.689	17.55
631.021	18
631.353	18.04
631.684	17.64
632.016	17.81
632.348	17.85
632.679	17.62
633.011	17.95
633.342	17.24
633.674	18.19
634.005	17.61
634.336	18.52
634.668	18.15
634.999	17.95
635.33	17.99
635.661	18.37
635.992	18.32
636.323	18.11
636.654	18.25
636.985	18.37
637.316	18.28
637.647	18.51
637.977	18.4
638.308	17.96
638.639	18.15
638.969	18.74
639.3	18.34
639.63	18.81
639.961	18.71
640.291	18.65
640.622	18.71
640.952	19.06
641.282	18.88
641.612	18.82
641.943	19.2
642.273	18.63
642.603	18.61
642.933	18.81
643.263	19.39
643.592	19.15
643.922	19.14
644.252	18.91
644.582	18.79
644.911	19.14
645.241	19.24
645.571	19.6
645.9	19.09
646.23	19.44
646.559	19.24
646.888	19.47
647.218	18.96
647.547	19.15
647.876	19.72
648.205	19.7
648.534	18.98
648.863	19.68
649.192	19.17
649.521	19.39
649.85	19.5
650.179	19.18
650.508	19.33
650.837	19.43
651.165	19.7
651.494	19.29
651.822	19.98
652.151	19.92
652.479	19.79
652.808	19.78
653.136	19.63
653.465	19.78
653.793	19.71
654.121	20.06
654.449	19.82
654.777	20.21
655.105	20
655.433	20.19
655.761	20.18
656.089	20.18
656.417	20.25
656.745	20.05
657.073	20.27
657.4	20.9
657.728	20.57
658.056	19.67
658.383	20.2
658.711	20.07
659.038	20.55
659.365	20.46
659.693	20.39
660.02	20.24
660.347	20.18
660.674	20.27
661.001	20.42
661.329	20.66
661.656	20.71
661.982	20.48
662.309	20.47
662.636	20.51
662.963	20.43
663.29	20.59
663.616	20.69
663.943	20.6
664.27	20.9
664.596	20.52
664.923	20.39
665.249	20.8
665.576	20.73
665.902	21.1
666.228	20.69
666.554	21.23
666.881	20.54
667.207	21.25
667.533	20.9
667.859	20.75
668.185	21.16
668.511	21.75
668.837	21.33
669.162	21.42
669.488	21.62
669.814	20.62
670.139	21.02
670.465	21.06
670.791	21.36
671.116	21.82
671.442	21.57
671.767	20.82
672.092	21.47
672.418	21.54
672.743	21.43
673.068	21.62
673.393	21.45
673.718	21.19
674.043	21.84
674.368	22.37
674.693	21.79
675.018	22.31
675.343	21.31
675.667	21.93
675.992	22.58
676.317	22.45
676.641	22.04
676.966	22.32
677.29	22.39
677.615	22.6
677.939	21.57
678.264	22.13
678.588	21.62
678.912	22.05
679.236	22.53
679.56	22.31
679.885	22.06
680.209	21.96
680.532	22.41
680.856	22.34
681.18	22.45
681.504	22.4
681.828	22.78
682.152	22.11
682.475	22.36
