Data from 0365_chest_Reflection__4__298.txt Node

Date: Fri Oct 20 23:04:48 CDT 2023
User: ToomeyLab
Spectrometer: FLMS14357
Trigger mode: 0
Integration Time (sec): 1.000000E-2
Scans to average: 100
Electric dark correction enabled: true
Nonlinearity correction enabled: false
Boxcar width: 0
XAxis mode: Wavelengths
Number of Pixels in Spectrum: 2048
>>>>>Begin Spectral Data<<<<<
189.047	9.31
189.435	9.31
189.823	9.31
190.211	212.08
190.599	541.14
190.987	-3.43
191.375	106.78
191.763	2.05
192.151	-241.57
192.538	-13.54
192.926	3591.89
193.314	121.59
193.702	87.74
194.089	31.41
194.477	-154.76
194.864	-148.84
195.252	14.92
195.639	-656.73
196.027	-260.67
196.414	111.89
196.801	88.82
197.189	34.18
197.576	156.55
197.963	-573.25
198.351	37.24
198.738	28.25
199.125	34.91
199.512	11.54
199.899	49.5
200.286	-45.78
200.673	40.29
201.06	21.8
201.447	-0.3
201.833	-5.1
202.22	24.28
202.607	40.12
202.994	55.61
203.38	24.04
203.767	8.7
204.154	68.45
204.54	57.33
204.927	31.71
205.313	-1.73
205.699	55.38
206.086	16.53
206.472	63.87
206.858	43.4
207.245	17
207.631	71.82
208.017	-3.41
208.403	18.35
208.789	44.97
209.175	22.94
209.561	-4.95
209.947	10.57
210.333	29.3
210.719	34.14
211.105	17.1
211.491	14.19
211.876	35.1
212.262	11.73
212.648	26.93
213.034	22.26
213.419	10.36
213.805	32.49
214.19	-18.86
214.576	37.21
214.961	31.45
215.346	25.24
215.732	29.89
216.117	-34.19
216.502	6.21
216.888	-12.38
217.273	2.73
217.658	19.78
218.043	6.99
218.428	21.61
218.813	18.49
219.198	-0.84
219.583	5.49
219.968	6.39
220.353	9.28
220.738	2.29
221.122	-2.35
221.507	3.12
221.892	-5.17
222.276	18.35
222.661	10.78
223.046	10.16
223.43	10.71
223.815	26.98
224.199	10.64
224.583	10.72
224.968	-8.29
225.352	-11.3
225.736	3.38
226.121	3.37
226.505	6.87
226.889	12.16
227.273	5.51
227.657	11.27
228.041	11.91
228.425	7.41
228.809	4.93
229.193	0.58
229.577	8.59
229.961	3.81
230.344	6.17
230.728	3.57
231.112	4.72
231.495	4.39
231.879	4.65
232.263	5.88
232.646	4.28
233.03	3.02
233.413	2.83
233.797	4.57
234.18	5.31
234.563	5.54
234.946	6.21
235.33	5.75
235.713	4.26
236.096	5.14
236.479	6.25
236.862	5.05
237.245	4.85
237.628	4.64
238.011	4.67
238.394	3.82
238.777	7.14
239.16	3.87
239.543	5.39
239.925	6.14
240.308	5.69
240.691	4.46
241.073	5.23
241.456	6.26
241.838	4.66
242.221	5.7
242.603	4
242.986	4.33
243.368	4.92
243.75	3.8
244.133	3.97
244.515	4.02
244.897	3.9
245.279	4.19
245.661	3.27
246.043	3.17
246.425	4.22
246.807	4.25
247.189	3.86
247.571	3.09
247.953	3.75
248.335	4.16
248.717	3.84
249.098	3.76
249.48	4
249.862	4.21
250.243	4.22
250.625	4.34
251.006	4.25
251.388	4.21
251.769	4.81
252.151	4.34
252.532	4.43
252.913	4.09
253.295	3.07
253.676	3.65
254.057	4
254.438	4.21
254.819	3.89
255.2	4.64
255.581	3.75
255.962	3.5
256.343	4.92
256.724	2.45
257.105	4.48
257.486	5.26
257.867	4.25
258.247	3.32
258.628	3.94
259.009	3.65
259.389	4.43
259.77	3.52
260.15	3.79
260.531	4.14
260.911	3.81
261.292	3.5
261.672	3.78
262.052	4.01
262.432	3.78
262.813	3.83
263.193	4.13
263.573	3.68
263.953	3.71
264.333	4.02
264.713	4.56
265.093	4.02
265.473	4.22
265.853	3.67
266.233	4.16
266.612	3.8
266.992	3.77
267.372	4.76
267.752	4.09
268.131	4.07
268.511	4.4
268.89	4.11
269.27	3.17
269.649	3.4
270.029	3.41
270.408	4.03
270.787	3.84
271.167	3.96
271.546	3.97
271.925	3.56
272.304	4.17
272.683	3.91
273.062	4.14
273.441	3.99
273.82	4.16
274.199	4.02
274.578	3.66
274.957	4.01
275.336	3.92
275.715	4.1
276.093	3.58
276.472	4.05
276.851	3.76
277.229	3.8
277.608	3.58
277.986	3.38
278.365	4.21
278.743	3.29
279.122	3.66
279.5	3.83
279.878	2.68
280.257	4.24
280.635	4.17
281.013	4.18
281.391	4.05
281.769	4.07
282.147	3.86
282.525	3.71
282.903	3.77
283.281	4.18
283.659	3.67
284.037	4.25
284.415	3.04
284.792	3.37
285.17	3.37
285.548	3.96
285.925	3.83
286.303	3.48
286.68	3.54
287.058	4.1
287.435	3.9
287.813	3.13
288.19	3.53
288.567	3.53
288.945	4.06
289.322	4.18
289.699	3.22
290.076	4.57
290.453	3.81
290.83	3.67
291.207	4.47
291.584	3.47
291.961	3.49
292.338	3.78
292.715	3.69
293.092	3.7
293.469	4.37
293.845	3.82
294.222	3.57
294.599	3.88
294.975	4.67
295.352	3.95
295.728	4.06
296.105	3.9
296.481	4.16
296.858	3.92
297.234	3.85
297.61	3.21
297.986	3.59
298.363	4.16
298.739	4.02
299.115	3.83
299.491	3.94
299.867	4
300.243	3.7
300.619	3.93
300.995	3.81
301.371	4.34
301.746	3.74
302.122	4.09
302.498	3.31
302.874	4.04
303.249	3.75
303.625	4.21
304	4.62
304.376	3.98
304.751	3.84
305.127	4.07
305.502	4.17
305.878	3.76
306.253	4.45
306.628	3.85
307.003	4.34
307.378	4.18
307.754	4.63
308.129	4.19
308.504	4.27
308.879	4.44
309.254	4.31
309.629	3.82
310.003	3.87
310.378	4.51
310.753	3.92
311.128	4.46
311.502	4.01
311.877	4.88
312.252	3.98
312.626	4.37
313.001	4.15
313.375	4.2
313.75	4.1
314.124	3.93
314.498	3.97
314.873	3.93
315.247	4.49
315.621	4.16
315.995	4.32
316.369	4.06
316.743	4.3
317.117	4.67
317.491	3.67
317.865	4.41
318.239	4.9
318.613	4.12
318.987	3.71
319.361	3.86
319.734	4.22
320.108	3.48
320.482	4.85
320.855	4.2
321.229	5.1
321.602	4.64
321.976	4.37
322.349	4.85
322.723	4.21
323.096	3.98
323.469	3.82
323.843	4.52
324.216	3.98
324.589	4.21
324.962	4.27
325.335	4.56
325.708	4.07
326.081	4.36
326.454	4.32
326.827	4.54
327.2	4.69
327.573	4.63
327.945	4.31
328.318	4
328.691	4.51
329.063	5.11
329.436	3.93
329.809	4.16
330.181	4.77
330.553	4.78
330.926	4.22
331.298	4.41
331.671	4.04
332.043	4.22
332.415	4.14
332.787	5.01
333.159	4.22
333.532	4.82
333.904	4.71
334.276	4.14
334.648	4.6
335.02	4.67
335.391	3.94
335.763	4.52
336.135	4.59
336.507	4.85
336.879	4.35
337.25	4.85
337.622	4.67
337.993	4.98
338.365	4.49
338.736	4.62
339.108	4.38
339.479	4.61
339.851	4.35
340.222	3.96
340.593	3.89
340.964	4.27
341.336	5.19
341.707	4.41
342.078	4.16
342.449	4.43
342.82	4.29
343.191	4.52
343.562	4.55
343.933	4.37
344.303	4.33
344.674	4.72
345.045	4.79
345.416	4.66
345.786	4.39
346.157	4.16
346.527	4.37
346.898	4.39
347.268	4.18
347.639	4.32
348.009	4.14
348.38	4.75
348.75	4.16
349.12	4.13
349.49	4.39
349.861	4.3
350.231	4.44
350.601	4.17
350.971	4.94
351.341	4.51
351.711	5.1
352.081	4.27
352.45	4.54
352.82	4.78
353.19	4.72
353.56	4.58
353.929	4.27
354.299	4.39
354.669	4.37
355.038	4.4
355.408	4.79
355.777	4.76
356.147	4.76
356.516	4.41
356.885	4.8
357.254	4.41
357.624	4.75
357.993	4.37
358.362	4.63
358.731	4.01
359.1	4.12
359.469	4.38
359.838	4.73
360.207	4.31
360.576	4.82
360.945	4.22
361.314	4.37
361.682	4.43
362.051	4.23
362.42	4.15
362.788	4.64
363.157	4.66
363.525	4.09
363.894	4.19
364.262	4.29
364.631	4.34
364.999	4.4
365.367	4.62
365.735	4.04
366.104	4.19
366.472	4.52
366.84	4.71
367.208	4.59
367.576	4.68
367.944	4.31
368.312	4.48
368.68	4.53
369.048	4.71
369.416	4.72
369.783	4.65
370.151	4.47
370.519	4.74
370.886	4.72
371.254	4.82
371.621	4.4
371.989	4.46
372.356	4.69
372.724	4.85
373.091	4.31
373.458	4.39
373.826	4.57
374.193	4.4
374.56	4.53
374.927	4.81
375.294	4.49
375.661	4.55
376.028	4.79
376.395	5.03
376.762	4.22
377.129	4.43
377.496	4.51
377.863	4.81
378.229	4.76
378.596	4.5
378.963	4.79
379.329	4.64
379.696	4.54
380.062	4.55
380.429	4.65
380.795	4.19
381.161	4.76
381.528	4.99
381.894	4.32
382.26	4.7
382.626	4.84
382.993	4.73
383.359	4.74
383.725	4.91
384.091	4.86
384.457	4.92
384.823	4.67
385.188	4.77
385.554	4.58
385.92	4.66
386.286	4.91
386.651	4.45
387.017	4.88
387.383	4.61
387.748	4.41
388.114	4.48
388.479	4.71
388.845	4.73
389.21	4.6
389.575	4.27
389.94	4.59
390.306	4.62
390.671	4.41
391.036	4.53
391.401	4.84
391.766	4.68
392.131	4.56
392.496	4.86
392.861	4.71
393.226	4.91
393.591	4.46
393.956	4.79
394.32	4.77
394.685	4.57
395.05	4.78
395.414	4.82
395.779	4.59
396.143	4.55
396.508	4.74
396.872	4.8
397.236	4.71
397.601	4.75
397.965	4.35
398.329	4.46
398.694	4.79
399.058	4.57
399.422	4.67
399.786	4.7
400.15	4.56
400.514	4.81
400.878	4.82
401.242	5.01
401.605	4.81
401.969	4.48
402.333	4.47
402.697	4.78
403.06	4.95
403.424	4.84
403.787	4.79
404.151	4.57
404.514	4.86
404.878	4.9
405.241	4.81
405.604	4.91
405.968	4.79
406.331	4.65
406.694	4.81
407.057	4.8
407.42	5.08
407.783	4.69
408.146	4.88
408.509	4.77
408.872	5
409.235	4.68
409.598	4.81
409.961	4.83
410.323	5.04
410.686	4.62
411.049	4.86
411.411	4.6
411.774	5.05
412.136	4.82
412.499	4.92
412.861	5
413.223	4.87
413.586	4.83
413.948	4.92
414.31	5
414.672	4.7
415.035	4.86
415.397	4.79
415.759	4.92
416.121	4.93
416.483	5.11
416.845	4.72
417.206	4.99
417.568	5.23
417.93	5.08
418.292	4.63
418.653	5.13
419.015	4.82
419.377	4.95
419.738	4.64
420.1	4.7
420.461	4.72
420.822	4.79
421.184	4.83
421.545	4.86
421.906	4.77
422.267	4.76
422.629	4.73
422.99	4.64
423.351	4.76
423.712	4.74
424.073	4.89
424.434	4.67
424.795	4.65
425.155	4.9
425.516	4.77
425.877	4.84
426.238	4.69
426.598	4.76
426.959	4.7
427.32	4.85
427.68	4.8
428.041	4.71
428.401	4.84
428.761	4.91
429.122	4.93
429.482	4.81
429.842	4.75
430.202	4.79
430.563	4.96
430.923	5.16
431.283	4.96
431.643	5.2
432.003	5.07
432.363	4.99
432.722	5.07
433.082	5.12
433.442	4.82
433.802	5.19
434.161	4.89
434.521	5.15
434.881	4.89
435.24	4.92
435.6	4.89
435.959	5.08
436.319	4.95
436.678	5.07
437.037	4.98
437.396	5.11
437.756	5.11
438.115	4.9
438.474	5.06
438.833	5.34
439.192	4.79
439.551	4.98
439.91	5.12
440.269	4.99
440.628	5.18
440.987	5.08
441.345	4.92
441.704	5.04
442.063	5.06
442.421	4.99
442.78	5.02
443.138	5.13
443.497	5
443.855	5
444.214	5
444.572	4.95
444.93	5.24
445.288	5.12
445.647	5.29
446.005	4.8
446.363	5.11
446.721	5.06
447.079	5.23
447.437	4.98
447.795	4.92
448.153	4.98
448.51	5.01
448.868	4.99
449.226	5.02
449.584	5.07
449.941	4.93
450.299	5.05
450.656	5.06
451.014	5.14
451.371	5.17
451.729	5.14
452.086	5.15
452.443	5.18
452.801	5
453.158	5.22
453.515	5.09
453.872	5.2
454.229	5.29
454.586	5.25
454.943	5.09
455.3	5.15
455.657	5.24
456.014	5.15
456.371	5.22
456.727	5.13
457.084	5.42
457.441	5.35
457.797	5.33
458.154	5.22
458.51	5.24
458.867	5.23
459.223	5.22
459.58	5.29
459.936	5.32
460.292	5.25
460.648	5.22
461.005	5.1
461.361	5.26
461.717	5.04
462.073	5.22
462.429	5.21
462.785	5.25
463.141	5.23
463.496	5.22
463.852	5.34
464.208	5.54
464.564	5.59
464.919	5.27
465.275	5.36
465.631	5.43
465.986	5.58
466.342	5.29
466.697	5.24
467.052	5.28
467.408	5.48
467.763	5.42
468.118	5.77
468.473	5.43
468.829	5.38
469.184	5.36
469.539	5.44
469.894	5.43
470.249	5.36
470.603	5.26
470.958	5.32
471.313	5.64
471.668	5.57
472.023	5.56
472.377	5.36
472.732	5.34
473.086	5.55
473.441	5.49
473.795	5.51
474.15	5.43
474.504	5.37
474.859	5.48
475.213	5.63
475.567	5.57
475.921	5.42
476.275	5.38
476.63	5.62
476.984	5.56
477.338	5.67
477.692	5.54
478.045	5.57
478.399	5.3
478.753	5.46
479.107	5.47
479.461	5.49
479.814	5.58
480.168	5.57
480.521	5.43
480.875	5.49
481.228	5.53
481.582	5.66
481.935	5.63
482.289	5.52
482.642	5.62
482.995	5.46
483.348	5.67
483.701	5.59
484.055	5.51
484.408	5.41
484.761	5.43
485.114	5.28
485.466	5.31
485.819	5.18
486.172	5.14
486.525	5.15
486.878	5.26
487.23	5.31
487.583	5.33
487.936	5.44
488.288	5.41
488.641	5.48
488.993	5.34
489.345	5.37
489.698	5.35
490.05	5.37
490.402	5.35
490.754	5.38
491.107	5.41
491.459	5.49
491.811	5.5
492.163	5.49
492.515	5.65
492.866	5.56
493.218	5.5
493.57	5.47
493.922	5.45
494.274	5.5
494.625	5.47
494.977	5.55
495.328	5.66
495.68	5.69
496.031	5.61
496.383	5.79
496.734	5.85
497.086	5.8
497.437	5.85
497.788	5.63
498.139	5.9
498.49	5.85
498.842	5.74
499.193	5.84
499.544	5.91
499.894	5.8
500.245	5.86
500.596	5.86
500.947	5.88
501.298	5.77
501.648	5.77
501.999	5.98
502.35	5.82
502.7	6.02
503.051	5.99
503.401	5.91
503.752	6.04
504.102	6.08
504.452	5.94
504.803	5.89
505.153	5.91
505.503	5.95
505.853	6.06
506.203	5.88
506.553	5.95
506.903	5.98
507.253	6.04
507.603	5.86
507.953	6.08
508.303	6.07
508.652	6.06
509.002	6.12
509.352	6.07
509.701	6.22
510.051	5.99
510.4	6.01
510.75	6.11
511.099	6.04
511.449	6.15
511.798	6.19
512.147	6.12
512.496	6.02
512.846	6
513.195	6.1
513.544	6.1
513.893	5.93
514.242	6.05
514.591	6.15
514.939	6.13
515.288	6.09
515.637	6.22
515.986	6.25
516.334	6.11
516.683	6.14
517.032	6.1
517.38	6.05
517.729	6.23
518.077	6.24
518.426	6.32
518.774	6.14
519.122	6.28
519.47	6.17
519.819	6.15
520.167	6.16
520.515	6.09
520.863	6.21
521.211	6.17
521.559	6.2
521.907	6.13
522.255	6.35
522.602	6.36
522.95	6.27
523.298	6.37
523.645	6.39
523.993	6.34
524.341	6.36
524.688	6.45
525.036	6.47
525.383	6.45
525.73	6.52
526.078	6.6
526.425	6.56
526.772	6.43
527.119	6.43
527.466	6.42
527.814	6.49
528.161	6.33
528.508	6.3
528.854	6.33
529.201	6.31
529.548	6.39
529.895	6.43
530.242	6.32
530.588	6.2
530.935	6.18
531.282	6.28
531.628	6.36
531.975	6.3
532.321	6.38
532.667	6.47
533.014	6.5
533.36	6.61
533.706	6.64
534.052	6.61
534.399	6.51
534.745	6.51
535.091	6.49
535.437	6.58
535.783	6.5
536.129	6.54
536.474	6.59
536.82	6.61
537.166	6.72
537.512	6.72
537.857	6.79
538.203	6.77
538.549	6.83
538.894	6.72
539.239	6.79
539.585	6.79
539.93	6.83
540.276	7.02
540.621	6.93
540.966	7.04
541.311	7.08
541.656	6.98
542.001	6.97
542.346	7.01
542.691	6.92
543.036	6.86
543.381	6.8
543.726	6.72
544.071	6.86
544.415	6.87
544.76	6.88
545.105	7.04
545.449	6.99
545.794	7.02
546.138	7.13
546.483	7.14
546.827	7.19
547.171	7.28
547.516	7.14
547.86	7.47
548.204	7.08
548.548	7.22
548.892	7.25
549.236	7.23
549.58	7.16
549.924	7.29
550.268	7.39
550.612	7.47
550.956	7.65
551.3	7.5
551.643	7.64
551.987	7.55
552.33	7.46
552.674	7.63
553.017	7.64
553.361	7.7
553.704	7.79
554.048	7.71
554.391	7.67
554.734	7.71
555.077	7.79
555.42	7.61
555.764	7.7
556.107	7.88
556.45	7.69
556.793	7.63
557.135	7.6
557.478	7.76
557.821	7.85
558.164	8.04
558.507	8.08
558.849	8.06
559.192	7.92
559.534	8.1
559.877	8
560.219	7.95
560.562	8.15
560.904	7.79
561.246	8.13
561.589	7.98
561.931	8.17
562.273	8.34
562.615	8.26
562.957	8.07
563.299	8.21
563.641	8.28
563.983	8.24
564.325	8.11
564.667	8.29
565.008	8.3
565.35	8.35
565.692	8.21
566.033	8.42
566.375	8.39
566.716	8.44
567.058	8.27
567.399	8.51
567.741	8.4
568.082	8.41
568.423	8.42
568.764	8.33
569.105	8.76
569.447	8.41
569.788	8.65
570.129	8.41
570.47	8.74
570.811	8.78
571.151	8.61
571.492	8.89
571.833	8.91
572.174	8.85
572.514	8.83
572.855	8.83
573.195	8.82
573.536	8.78
573.876	9.02
574.217	8.74
574.557	8.87
574.898	8.69
575.238	8.87
575.578	8.88
575.918	8.84
576.258	9.04
576.598	9.12
576.938	9.03
577.278	9.23
577.618	8.92
577.958	9.17
578.298	9.12
578.638	9.12
578.977	9.33
579.317	9.25
579.657	9.31
579.996	9.26
580.336	9.46
580.675	9.4
581.014	9.35
581.354	9.22
581.693	9.47
582.032	9.68
582.372	9.34
582.711	9.55
583.05	9.89
583.389	9.63
583.728	9.52
584.067	9.75
584.406	9.76
584.745	9.71
585.083	9.59
585.422	9.56
585.761	9.67
586.1	9.98
586.438	9.57
586.777	10.12
587.115	10.19
587.454	9.87
587.792	9.78
588.13	9.97
588.469	10.14
588.807	9.61
589.145	10.1
589.483	9.89
589.821	9.93
590.159	10.33
590.497	10.36
590.835	10.19
591.173	10.3
591.511	10.32
591.849	9.94
592.187	10.29
592.524	10.27
592.862	10.5
593.2	10.45
593.537	10.34
593.875	10.2
594.212	10.5
594.55	10.61
594.887	10.6
595.224	10.76
595.561	10.58
595.899	10.55
596.236	10.72
596.573	10.65
596.91	10.64
597.247	10.52
597.584	10.49
597.921	10.96
598.258	10.67
598.594	10.84
598.931	10.74
599.268	10.6
599.604	10.7
599.941	10.98
600.277	10.84
600.614	10.95
600.95	11.17
601.287	10.87
601.623	11.15
601.959	11.12
602.296	11.33
602.632	11.42
602.968	11.03
603.304	11.21
603.64	11.12
603.976	11.32
604.312	11.67
604.648	11.55
604.984	11.61
605.319	11.28
605.655	11.22
605.991	11.54
606.326	11.34
606.662	11.26
606.998	11.2
607.333	11.53
607.668	11.35
608.004	11.71
608.339	11.69
608.674	11.59
609.01	11.76
609.345	12.14
609.68	11.84
610.015	11.65
610.35	12.24
610.685	12.1
611.02	11.78
611.355	11.95
611.689	11.87
612.024	12.05
612.359	12.05
612.694	12.16
613.028	12.2
613.363	12.13
613.697	12.23
614.032	12.08
614.366	12.25
614.7	12.22
615.035	12.22
615.369	12.55
615.703	12.35
616.037	12.51
616.371	12.43
616.705	12.4
617.039	12.47
617.373	12.55
617.707	12.65
618.041	12.8
618.375	12.71
618.709	12.69
619.042	13.09
619.376	13.22
619.71	12.81
620.043	13.12
620.377	12.92
620.71	12.98
621.043	12.93
621.377	13.01
621.71	12.86
622.043	13.07
622.376	13.26
622.709	13.29
623.043	13.26
623.376	13.1
623.709	12.78
624.041	13.24
624.374	13.41
624.707	13.03
625.04	13.39
625.373	13.93
625.705	13.27
626.038	13.25
626.37	13.21
626.703	13.46
627.035	13.3
627.368	13.65
627.7	13.84
628.032	13.93
628.365	13.95
628.697	13.78
629.029	13.76
629.361	13.97
629.693	13.66
630.025	13.67
630.357	13.82
630.689	13.97
631.021	14.18
631.353	14.15
631.684	14.02
632.016	14.12
632.348	14.09
632.679	13.89
633.011	14.32
633.342	13.82
633.674	14.4
634.005	14.49
634.336	14.38
634.668	14.07
634.999	14.24
635.33	14.15
635.661	14.75
635.992	14.76
636.323	14.73
636.654	14.68
636.985	14.91
637.316	14.85
637.647	14.73
637.977	14.35
638.308	14.87
638.639	14.75
638.969	14.86
639.3	14.5
639.63	14.88
639.961	15.09
640.291	15.01
640.622	14.6
640.952	15.34
641.282	14.77
641.612	15.49
641.943	15.25
642.273	15.02
642.603	15.18
642.933	15.46
643.263	15.71
643.592	14.8
643.922	15.73
644.252	15.15
644.582	15.28
644.911	15.64
645.241	15.92
645.571	16.11
645.9	15.97
646.23	15.62
646.559	15.75
646.888	15.69
647.218	15.57
647.547	15.58
647.876	15.63
648.205	15.8
648.534	15.8
648.863	15.85
649.192	15.65
649.521	15.86
649.85	15.96
650.179	15.93
650.508	16.14
650.837	16.03
651.165	16
651.494	16.11
651.822	15.68
652.151	16.14
652.479	16.45
652.808	16.27
653.136	16.2
653.465	16.4
653.793	16.6
654.121	16.7
654.449	16.56
654.777	16.55
655.105	16.66
655.433	17.24
655.761	16.8
656.089	16.6
656.417	16.76
656.745	16.67
657.073	16.99
657.4	17.43
657.728	16.91
658.056	17.35
658.383	16.77
658.711	16.73
659.038	17.35
659.365	17.14
659.693	17.17
660.02	16.92
660.347	17.04
660.674	17.25
661.001	17.31
661.329	17.35
661.656	17.53
661.982	17.54
662.309	17.67
662.636	17.16
662.963	17.19
663.29	17.97
663.616	17.8
663.943	17.33
664.27	17.55
664.596	17.34
664.923	17.07
665.249	17.3
665.576	17.22
665.902	17.8
666.228	17.84
666.554	17.56
666.881	17.11
667.207	18.05
667.533	17.72
667.859	18.22
668.185	18.66
668.511	18.35
668.837	18.51
669.162	18.33
669.488	18.63
669.814	17.69
670.139	18.52
670.465	18.25
670.791	18.48
671.116	18.75
671.442	18.39
671.767	18.29
672.092	18.83
672.418	18.7
672.743	18.79
673.068	18.72
673.393	18.69
673.718	18.77
674.043	18.61
674.368	18.92
674.693	18.88
675.018	19.05
675.343	19.11
675.667	18.36
675.992	18.87
676.317	19
676.641	19.25
676.966	19.53
677.29	19.01
677.615	18.91
677.939	18.74
678.264	19.63
678.588	18.84
678.912	19.22
679.236	20.1
679.56	19.77
679.885	19.74
680.209	19.11
680.532	19.76
680.856	19.38
681.18	20.09
681.504	19.85
681.828	19.49
682.152	20.11
682.475	19.39
682.799	19.97
683.122	20.13
683.446	20.35
683.769	20.35
684.093	20.29
684.416	20.12
684.739	19.22
685.062	19.67
685.386	19.82
685.709	20.22
686.032	20.04
