Data from 0365_forehead_Reflection__4__308.txt Node

Date: Fri Oct 20 23:07:31 CDT 2023
User: ToomeyLab
Spectrometer: FLMS14357
Trigger mode: 0
Integration Time (sec): 1.000000E-2
Scans to average: 100
Electric dark correction enabled: true
Nonlinearity correction enabled: false
Boxcar width: 0
XAxis mode: Wavelengths
Number of Pixels in Spectrum: 2048
>>>>>Begin Spectral Data<<<<<
189.047	100.13
189.435	100.13
189.823	100.13
190.211	-46.82
190.599	-318.97
190.987	88.14
191.375	100.65
191.763	51.93
192.151	-169.87
192.538	-182.94
192.926	9359.46
193.314	41.96
193.702	166.18
194.089	50.76
194.477	300.59
194.864	-110.77
195.252	11.04
195.639	-563.58
196.027	-423.42
196.414	60.98
196.801	138.46
197.189	-134.03
197.576	112.44
197.963	-217.28
198.351	44.62
198.738	20.53
199.125	48.26
199.512	57.34
199.899	58.94
200.286	21.74
200.673	53.18
201.06	72.59
201.447	40.61
201.833	67.73
202.22	35.63
202.607	34.41
202.994	53.49
203.38	0.77
203.767	67.62
204.154	63.98
204.54	66.38
204.927	46.18
205.313	24.6
205.699	45.35
206.086	46.25
206.472	53.67
206.858	68.64
207.245	-7.69
207.631	54.1
208.017	51.09
208.403	75.11
208.789	49.51
209.175	9.15
209.561	62.91
209.947	40.69
210.333	44.43
210.719	20.37
211.105	47.88
211.491	46.5
211.876	6.46
212.262	52.42
212.648	51.28
213.034	13.19
213.419	38.45
213.805	16.23
214.19	8.97
214.576	18.22
214.961	28.66
215.346	13.94
215.732	21.39
216.117	-23.37
216.502	33.36
216.888	23.83
217.273	38.02
217.658	19.03
218.043	14.34
218.428	13.13
218.813	22.25
219.198	0.34
219.583	-0.24
219.968	4.47
220.353	37.8
220.738	21.14
221.122	-12.07
221.507	1.69
221.892	10.24
222.276	10.2
222.661	24.07
223.046	16.68
223.43	1.42
223.815	8.49
224.199	31.14
224.583	3.34
224.968	9.66
225.352	4.07
225.736	6.11
226.121	9.7
226.505	3.21
226.889	7.62
227.273	12.26
227.657	11.83
228.041	13.52
228.425	4.15
228.809	7.78
229.193	7.3
229.577	7.33
229.961	4.82
230.344	4.82
230.728	4.44
231.112	6.14
231.495	4.52
231.879	5.72
232.263	5.71
232.646	4.62
233.03	5.34
233.413	6.34
233.797	5.6
234.18	6.43
234.563	6.98
234.946	7.2
235.33	5.37
235.713	6.52
236.096	5.64
236.479	6.14
236.862	4.63
237.245	5.18
237.628	4.47
238.011	7.55
238.394	6.07
238.777	7.01
239.16	5.08
239.543	7.57
239.925	7.43
240.308	7.19
240.691	6.74
241.073	7.12
241.456	7.57
241.838	5.05
242.221	6.16
242.603	5.35
242.986	5.55
243.368	5.42
243.75	4.33
244.133	4.48
244.515	4.84
244.897	4.98
245.279	4.85
245.661	4.51
246.043	4.46
246.425	5.67
246.807	5.1
247.189	4.99
247.571	4.85
247.953	4.99
248.335	5.21
248.717	4.51
249.098	4.7
249.48	4.76
249.862	4.9
250.243	5.2
250.625	4.98
251.006	5.39
251.388	5.03
251.769	6.11
252.151	4.97
252.532	5.8
252.913	5.08
253.295	3.9
253.676	5.43
254.057	4.7
254.438	5.38
254.819	5
255.2	4.87
255.581	5.63
255.962	5.96
256.343	5.03
256.724	5.18
257.105	5.47
257.486	5.76
257.867	4.67
258.247	5.7
258.628	4.82
259.009	4.89
259.389	4.75
259.77	4.44
260.15	5.39
260.531	5.2
260.911	5.59
261.292	4.49
261.672	4.83
262.052	4.91
262.432	5.05
262.813	4.96
263.193	4.66
263.573	4.49
263.953	5.18
264.333	5.74
264.713	5.74
265.093	6.52
265.473	5.05
265.853	5.08
266.233	5.55
266.612	5.27
266.992	5.09
267.372	4.95
267.752	4.72
268.131	5.12
268.511	4.97
268.89	5.09
269.27	4.27
269.649	4.23
270.029	4.51
270.408	4.92
270.787	4.9
271.167	5.12
271.546	4.85
271.925	5.36
272.304	4.94
272.683	4.96
273.062	5.18
273.441	5.09
273.82	4.61
274.199	5.4
274.578	4.58
274.957	5.04
275.336	5
275.715	5.04
276.093	4.93
276.472	4.76
276.851	4.75
277.229	5.24
277.608	4.89
277.986	4.9
278.365	5.6
278.743	4.84
279.122	5.35
279.5	5.2
279.878	4.53
280.257	4.95
280.635	4.8
281.013	5.05
281.391	5.41
281.769	5.1
282.147	5.36
282.525	5.07
282.903	4.7
283.281	5.47
283.659	4.83
284.037	5.09
284.415	4.4
284.792	4.53
285.17	5
285.548	5.12
285.925	5
286.303	4.76
286.68	4.44
287.058	5.8
287.435	5.2
287.813	4.76
288.19	4.76
288.567	5.15
288.945	5.13
289.322	5.36
289.699	4.67
290.076	5.43
290.453	5.1
290.83	4.7
291.207	5.54
291.584	4.5
291.961	5.37
292.338	5.44
292.715	5.42
293.092	5.32
293.469	5.59
293.845	5.18
294.222	5.1
294.599	5.89
294.975	6
295.352	5.42
295.728	5.93
296.105	5.45
296.481	5.42
296.858	5.65
297.234	5.8
297.61	5.5
297.986	5.61
298.363	5.97
298.739	5.91
299.115	6.02
299.491	5.92
299.867	5.98
300.243	5.86
300.619	6.07
300.995	5.95
301.371	6.36
301.746	6.29
302.122	6.6
302.498	6.05
302.874	6.51
303.249	6.22
303.625	6.36
304	6.71
304.376	6.25
304.751	6.2
305.127	6.18
305.502	6.83
305.878	6.57
306.253	6.82
306.628	6.98
307.003	6.99
307.378	7.04
307.754	6.8
308.129	7.6
308.504	7.63
308.879	7.42
309.254	7.67
309.629	7.09
310.003	6.7
310.378	7.61
310.753	7.48
311.128	7.68
311.502	7.23
311.877	7.57
312.252	7.4
312.626	7.86
313.001	7.78
313.375	7.72
313.75	7.87
314.124	7.28
314.498	7.74
314.873	8.11
315.247	7.99
315.621	8.51
315.995	8.58
316.369	8.16
316.743	8.39
317.117	8.54
317.491	7.65
317.865	8.98
318.239	8.37
318.613	8.71
318.987	8.66
319.361	7.97
319.734	8.1
320.108	8.28
320.482	9.26
320.855	9.28
321.229	9.12
321.602	9.21
321.976	8.67
322.349	9.21
322.723	8.81
323.096	9.06
323.469	9.38
323.843	9.5
324.216	9
324.589	9.6
324.962	9.6
325.335	9.58
325.708	9.38
326.081	9.94
326.454	9.49
326.827	10.06
327.2	10.22
327.573	9.39
327.945	9.88
328.318	9.25
328.691	10.25
329.063	10.57
329.436	9.45
329.809	10.27
330.181	10.12
330.553	10.11
330.926	10.15
331.298	10.08
331.671	9.58
332.043	9.5
332.415	10.24
332.787	11.24
333.159	10.54
333.532	11.02
333.904	10.54
334.276	10.45
334.648	10.42
335.02	11.04
335.391	10.54
335.763	11.28
336.135	10.88
336.507	11.29
336.879	10.9
337.25	11.4
337.622	11.28
337.993	11.32
338.365	11.28
338.736	11.11
339.108	11.21
339.479	11.27
339.851	11.46
340.222	11.17
340.593	10.61
340.964	11.16
341.336	11.7
341.707	11.09
342.078	11.54
342.449	11.58
342.82	11.21
343.191	11.99
343.562	11.82
343.933	11.74
344.303	11.56
344.674	11.52
345.045	11.9
345.416	11.86
345.786	11.68
346.157	12.22
346.527	12.11
346.898	12.34
347.268	12.3
347.639	12.47
348.009	11.84
348.38	12.25
348.75	12.48
349.12	12.53
349.49	12.45
349.861	12.52
350.231	12.42
350.601	12.85
350.971	12.59
351.341	13.12
351.711	13.21
352.081	12.98
352.45	12.61
352.82	13.14
353.19	12.84
353.56	13.12
353.929	12.95
354.299	12.81
354.669	12.93
355.038	12.58
355.408	12.93
355.777	12.96
356.147	12.69
356.516	13.25
356.885	13.17
357.254	13.17
357.624	13.33
357.993	12.99
358.362	13.16
358.731	12.87
359.1	12.88
359.469	13.36
359.838	13.84
360.207	13.57
360.576	13.95
360.945	13.17
361.314	13.73
361.682	13.89
362.051	13.35
362.42	13.55
362.788	13.75
363.157	14.08
363.525	13.62
363.894	13.72
364.262	13.86
364.631	13.94
364.999	13.98
365.367	13.97
365.735	13.85
366.104	14.14
366.472	14.32
366.84	14.49
367.208	14.25
367.576	14.29
367.944	14.26
368.312	14.26
368.68	14.45
369.048	14.64
369.416	14.75
369.783	14.76
370.151	14.97
370.519	14.85
370.886	15
371.254	14.84
371.621	14.95
371.989	14.74
372.356	15.24
372.724	15.06
373.091	14.84
373.458	14.94
373.826	15.04
374.193	15.18
374.56	14.96
374.927	15.21
375.294	15.27
375.661	15.54
376.028	15.57
376.395	15.77
376.762	15.59
377.129	15.85
377.496	15.77
377.863	15.74
378.229	16.07
378.596	15.96
378.963	15.76
379.329	15.87
379.696	16.14
380.062	15.82
380.429	15.91
380.795	16.08
381.161	16.1
381.528	16.33
381.894	16.06
382.26	16.3
382.626	16.27
382.993	16.35
383.359	16.23
383.725	16.6
384.091	16.58
384.457	16.72
384.823	16.3
385.188	16.65
385.554	16.65
385.92	16.82
386.286	16.81
386.651	16.7
387.017	16.97
387.383	16.92
387.748	16.75
388.114	16.69
388.479	17.21
388.845	17.03
389.21	16.72
389.575	16.8
389.94	16.97
390.306	17.07
390.671	17.14
391.036	17.33
391.401	17.45
391.766	17.48
392.131	17.33
392.496	17.49
392.861	17.43
393.226	17.35
393.591	17.34
393.956	17.72
394.32	17.81
394.685	17.45
395.05	17.94
395.414	18.05
395.779	17.75
396.143	17.78
396.508	17.87
396.872	18.05
397.236	17.9
397.601	18.09
397.965	18.01
398.329	18.28
398.694	18.37
399.058	18.27
399.422	18.07
399.786	18.22
400.15	18.51
400.514	18.33
400.878	18.55
401.242	18.7
401.605	18.53
401.969	18.35
402.333	18.43
402.697	18.74
403.06	18.87
403.424	18.7
403.787	18.77
404.151	18.87
404.514	18.88
404.878	19.22
405.241	19.18
405.604	19.12
405.968	19.04
406.331	19.15
406.694	19.21
407.057	19.1
407.42	19.37
407.783	19.48
408.146	19.4
408.509	19.16
408.872	19.6
409.235	19.5
409.598	19.46
409.961	19.75
410.323	19.56
410.686	19.6
411.049	19.79
411.411	19.96
411.774	20.07
412.136	19.8
412.499	19.64
412.861	20.17
413.223	19.98
413.586	20.03
413.948	20.37
414.31	20.19
414.672	20.08
415.035	20.26
415.397	20.68
415.759	20.65
416.121	20.38
416.483	20.61
416.845	20.57
417.206	20.61
417.568	20.65
417.93	20.64
418.292	20.35
418.653	20.72
419.015	20.51
419.377	20.6
419.738	20.77
420.1	20.61
420.461	20.69
420.822	20.55
421.184	20.51
421.545	20.79
421.906	20.64
422.267	20.62
422.629	20.73
422.99	20.59
423.351	20.77
423.712	20.8
424.073	20.87
424.434	20.97
424.795	21.15
425.155	21.06
425.516	20.96
425.877	21.06
426.238	20.92
426.598	21.11
426.959	20.97
427.32	21.19
427.68	21.42
428.041	21.53
428.401	21.43
428.761	21.72
429.122	21.86
429.482	21.77
429.842	21.87
430.202	22.06
430.563	22.13
430.923	22.12
431.283	22.16
431.643	22.45
432.003	22.41
432.363	22.21
432.722	22.41
433.082	22.19
433.442	22.32
433.802	22.52
434.161	22.39
434.521	22.72
434.881	22.6
435.24	22.41
435.6	22.43
435.959	22.73
436.319	22.79
436.678	22.83
437.037	22.78
437.396	22.96
437.756	22.92
438.115	22.95
438.474	23.05
438.833	23.24
439.192	22.98
439.551	23.2
439.91	23.22
440.269	23.31
440.628	23.25
440.987	23.32
441.345	23.37
441.704	23.54
442.063	23.6
442.421	23.38
442.78	23.41
443.138	23.37
443.497	23.56
443.855	23.63
444.214	23.63
444.572	23.7
444.93	23.68
445.288	23.98
445.647	24.12
446.005	23.61
446.363	24.1
446.721	23.91
447.079	24.11
447.437	23.9
447.795	23.9
448.153	23.82
448.51	23.79
448.868	23.89
449.226	23.85
449.584	23.98
449.941	24.14
450.299	24.35
450.656	24.36
451.014	24.4
451.371	24.56
451.729	24.57
452.086	24.65
452.443	24.95
452.801	24.83
453.158	25.02
453.515	24.98
453.872	25.18
454.229	25.39
454.586	25.15
454.943	24.99
455.3	24.97
455.657	25.25
456.014	25.25
456.371	25.42
456.727	25.42
457.084	25.51
457.441	25.46
457.797	25.54
458.154	25.66
458.51	25.66
458.867	25.73
459.223	25.73
459.58	25.68
459.936	25.89
460.292	25.79
460.648	25.7
461.005	25.55
461.361	25.82
461.717	25.61
462.073	25.53
462.429	25.6
462.785	25.85
463.141	25.97
463.496	25.96
463.852	26.28
464.208	26.43
464.564	26.54
464.919	26.58
465.275	26.6
465.631	26.71
465.986	26.8
466.342	26.96
466.697	26.91
467.052	26.76
467.408	26.87
467.763	26.91
468.118	27.12
468.473	27.2
468.829	27.02
469.184	27.16
469.539	27.17
469.894	27.31
470.249	27.26
470.603	27.06
470.958	27.4
471.313	27.38
471.668	27.5
472.023	27.37
472.377	27.25
472.732	27.53
473.086	27.62
473.441	27.94
473.795	27.79
474.15	27.75
474.504	27.59
474.859	27.7
475.213	27.86
475.567	27.93
475.921	28.02
476.275	28.05
476.63	28.23
476.984	28.17
477.338	28.21
477.692	28.25
478.045	28.51
478.399	28.32
478.753	28.31
479.107	28.32
479.461	28.34
479.814	28.43
480.168	28.42
480.521	28.45
480.875	28.34
481.228	28.52
481.582	28.55
481.935	28.69
482.289	28.62
482.642	28.71
482.995	28.65
483.348	28.51
483.701	28.7
484.055	28.62
484.408	28.37
484.761	28.49
485.114	28.24
485.466	27.97
485.819	27.68
486.172	27.81
486.525	27.91
486.878	27.96
487.23	28.14
487.583	28.3
487.936	28.57
488.288	28.69
488.641	28.67
488.993	28.52
489.345	28.43
489.698	28.44
490.05	28.51
490.402	28.51
490.754	28.75
491.107	28.85
491.459	29.1
491.811	29.32
492.163	29.45
492.515	29.64
492.866	29.46
493.218	29.24
493.57	29.12
493.922	29.12
494.274	29.26
494.625	29.47
494.977	29.55
495.328	29.76
495.68	30
496.031	30.14
496.383	30.47
496.734	30.7
497.086	30.48
497.437	30.71
497.788	30.7
498.139	30.91
498.49	30.47
498.842	30.52
499.193	30.62
499.544	30.7
499.894	30.62
500.245	30.78
500.596	30.98
500.947	31.01
501.298	31.17
501.648	31.03
501.999	31.07
502.35	31.2
502.7	31.43
503.051	31.25
503.401	31.59
503.752	31.59
504.102	31.68
504.452	31.7
504.803	31.68
505.153	31.77
505.503	31.77
505.853	31.79
506.203	31.79
506.553	31.78
506.903	31.75
507.253	32.06
507.603	31.92
507.953	32.22
508.303	32.1
508.652	32.3
509.002	32.15
509.352	32.25
509.701	32.24
510.051	32.22
510.4	32.28
510.75	32.4
511.099	32.31
511.449	32.28
511.798	32.5
512.147	32.42
512.496	32.66
512.846	32.46
513.195	32.66
513.544	32.82
513.893	32.68
514.242	32.62
514.591	32.8
514.939	33.01
515.288	32.83
515.637	32.97
515.986	33.15
516.334	33.15
516.683	33.13
517.032	33.01
517.38	33.2
517.729	33.51
518.077	33.39
518.426	33.29
518.774	33.33
519.122	33.39
519.47	33.63
519.819	33.33
520.167	33.22
520.515	33.05
520.863	33.22
521.211	33.18
521.559	33.42
521.907	33.42
522.255	33.65
522.602	33.76
522.95	33.9
523.298	33.7
523.645	33.98
523.993	34.22
524.341	34.26
524.688	34.45
525.036	34.16
525.383	34.34
525.73	34.49
526.078	34.36
526.425	34.62
526.772	34.18
527.119	34.37
527.466	34.08
527.814	34.04
528.161	34.34
528.508	34.18
528.854	34.07
529.201	34.43
529.548	34.27
529.895	34.28
530.242	34.04
530.588	33.71
530.935	33.78
531.282	33.95
531.628	34.13
531.975	34.14
532.321	34.27
532.667	34.66
533.014	34.65
533.36	34.86
533.706	35.15
534.052	35.17
534.399	35.04
534.745	35.18
535.091	35.02
535.437	34.84
535.783	34.87
536.129	34.99
536.474	35.11
536.82	35.25
537.166	35.62
537.512	35.57
537.857	35.73
538.203	35.76
538.549	35.66
538.894	35.56
539.239	35.82
539.585	35.93
539.93	36.06
540.276	36.18
540.621	36.27
540.966	36.59
541.311	36.64
541.656	36.52
542.001	36.59
542.346	36.54
542.691	36.37
543.036	36
543.381	35.72
543.726	35.76
544.071	36.01
544.415	36.09
544.76	36.19
545.105	36.41
545.449	36.59
545.794	36.73
546.138	36.68
546.483	36.79
546.827	37.12
547.171	37.16
547.516	37.06
547.86	37.35
548.204	37.32
548.548	37.45
548.892	37.35
549.236	37.16
549.58	37.44
549.924	37.52
550.268	37.67
550.612	37.9
550.956	38.17
551.3	37.94
551.643	38.24
551.987	38.35
552.33	38.46
552.674	38.22
553.017	38.45
553.361	38.51
553.704	38.73
554.048	38.68
554.391	38.41
554.734	38.45
555.077	38.66
555.42	38.45
555.764	38.92
556.107	38.79
556.45	38.85
556.793	38.93
557.135	38.88
557.478	39.19
557.821	39.16
558.164	39.22
558.507	39.23
558.849	39.45
559.192	39.39
559.534	39.63
559.877	39.37
560.219	39.36
560.562	39.58
560.904	39.37
561.246	39.71
561.589	39.68
561.931	39.86
562.273	39.83
562.615	39.88
562.957	40.11
563.299	40.06
563.641	40
563.983	39.88
564.325	39.96
564.667	40.13
565.008	40.2
565.35	40.3
565.692	40.34
566.033	40.45
566.375	40.68
566.716	40.66
567.058	40.61
567.399	40.82
567.741	40.28
568.082	40.45
568.423	40.52
568.764	40.48
569.105	40.66
569.447	40.43
569.788	40.85
570.129	40.69
570.47	40.77
570.811	40.78
571.151	40.96
571.492	41.29
571.833	41.22
572.174	41.33
572.514	41.24
572.855	41.04
573.195	41.17
573.536	41.17
573.876	41.13
574.217	41.09
574.557	41.16
574.898	41.23
575.238	41.5
575.578	41.43
575.918	41.65
576.258	41.49
576.598	41.86
576.938	41.61
577.278	41.9
577.618	41.98
577.958	41.85
578.298	41.78
578.638	42.12
578.977	41.76
579.317	42.33
579.657	42.05
579.996	42.22
580.336	42.61
580.675	42.34
581.014	42.78
581.354	42.5
581.693	42.47
582.032	42.49
582.372	42.38
582.711	43
583.05	43.1
583.389	43.01
583.728	43.07
584.067	43.07
584.406	42.98
584.745	43.17
585.083	43.27
585.422	43.41
585.761	43.26
586.1	43.81
586.438	43.06
586.777	43.59
587.115	43.42
587.454	43.81
587.792	43.57
588.13	43.95
588.469	43.86
588.807	43.67
589.145	43.82
589.483	43.94
589.821	43.88
590.159	43.73
590.497	44.05
590.835	43.85
591.173	44.04
591.511	44.15
591.849	43.99
592.187	44.2
592.524	44.03
592.862	44.41
593.2	44.62
593.537	44.35
593.875	44.36
594.212	44.42
594.55	44.59
594.887	44.44
595.224	44.68
595.561	44.57
595.899	44.75
596.236	44.47
596.573	44.87
596.91	44.67
597.247	44.31
597.584	44.65
597.921	44.73
598.258	45.01
598.594	45.07
598.931	44.7
599.268	44.34
599.604	44.45
599.941	44.71
600.277	44.58
600.614	44.98
600.95	45.07
601.287	45.13
601.623	45.15
601.959	45.64
602.296	45.29
602.632	45.85
602.968	45.46
603.304	45.33
603.64	45.89
603.976	45.51
604.312	45.55
604.648	45.8
604.984	45.77
605.319	45.81
605.655	45.74
605.991	45.77
606.326	45.66
606.662	45.6
606.998	45.49
607.333	45.63
607.668	45.67
608.004	45.81
608.339	46
608.674	45.92
609.01	46.39
609.345	46.58
609.68	46.43
610.015	46.35
610.35	46.32
610.685	46.58
611.02	46.6
611.355	46.29
611.689	46.31
612.024	46.49
612.359	46.25
612.694	46.62
613.028	46.59
613.363	46.6
613.697	46.81
614.032	46.9
614.366	47.19
614.7	47.38
615.035	46.9
615.369	47.64
615.703	47.16
616.037	47.46
616.371	47.61
616.705	47.16
617.039	47.62
617.373	47.5
617.707	47.57
618.041	47.65
618.375	47.41
618.709	47.6
619.042	48.07
619.376	47.8
619.71	47.79
620.043	48.11
620.377	48.27
620.71	47.79
621.043	48.29
621.377	47.84
621.71	47.62
622.043	47.88
622.376	48.15
622.709	47.91
623.043	48.54
623.376	48.59
623.709	48.46
624.041	48.59
624.374	48.24
624.707	48.38
625.04	48.76
625.373	48.88
625.705	48.14
626.038	48.75
626.37	48.78
626.703	48.57
627.035	49
627.368	48.88
627.7	49.2
628.032	48.73
628.365	48.78
628.697	48.81
629.029	48.94
629.361	48.95
629.693	48.68
630.025	48.9
630.357	49.02
630.689	49.16
631.021	49.12
631.353	49.48
631.684	48.93
632.016	49.3
632.348	49.36
632.679	49.58
633.011	49.18
633.342	49.2
633.674	49.12
634.005	49.79
634.336	50.37
634.668	49.84
634.999	49.38
635.33	49.74
635.661	49.78
635.992	50
636.323	50.12
636.654	49.98
636.985	49.47
637.316	49.53
637.647	50.02
637.977	50.46
638.308	50
638.639	50.18
638.969	50.42
639.3	50.07
639.63	50.24
639.961	50.34
640.291	49.93
640.622	50.39
640.952	50.8
641.282	50.49
641.612	50.69
641.943	50.56
642.273	50.68
642.603	50.17
642.933	51.3
643.263	50.95
643.592	50.72
643.922	51.07
644.252	50.87
644.582	51.01
644.911	50.92
645.241	51.73
645.571	51.93
645.9	51.69
646.23	50.88
646.559	51.12
646.888	51.57
647.218	51.55
647.547	51.33
647.876	51.45
648.205	51.39
648.534	51.43
648.863	51.7
649.192	51.77
649.521	50.78
649.85	51.33
650.179	51.32
650.508	51.69
650.837	51.22
651.165	51.83
651.494	51
651.822	51.37
652.151	51.81
652.479	51.94
652.808	51.89
653.136	52.05
653.465	51.71
653.793	52.27
654.121	51.7
654.449	52.63
654.777	52.63
655.105	51.9
655.433	52.45
655.761	52.19
656.089	52.43
656.417	52.29
656.745	52.86
657.073	52.59
657.4	53.21
657.728	53
658.056	52.14
658.383	52.71
658.711	52.68
659.038	52.76
659.365	52.22
659.693	52.89
660.02	52.36
660.347	52.53
660.674	51.94
661.001	52.29
661.329	52.42
661.656	53.15
661.982	52.83
662.309	52.78
662.636	52.66
662.963	52.32
663.29	52.94
663.616	53.31
663.943	52.61
664.27	53.36
664.596	52.55
664.923	52.81
665.249	53.11
665.576	52.93
665.902	53.31
666.228	52.82
666.554	53.59
666.881	52.95
667.207	53.22
667.533	53.4
667.859	53.62
668.185	53.25
668.511	53.57
668.837	53.84
669.162	53.67
669.488	53.75
669.814	53.4
670.139	54.21
670.465	53.95
