Data from 0365_forehead_Reflection__1__305.txt Node

Date: Fri Oct 20 23:07:01 CDT 2023
User: ToomeyLab
Spectrometer: FLMS14357
Trigger mode: 0
Integration Time (sec): 1.000000E-2
Scans to average: 100
Electric dark correction enabled: true
Nonlinearity correction enabled: false
Boxcar width: 0
XAxis mode: Wavelengths
Number of Pixels in Spectrum: 2048
>>>>>Begin Spectral Data<<<<<
189.047	-86.06
189.435	-86.06
189.823	-86.06
190.211	43.14
190.599	-351.54
190.987	104.2
191.375	198.63
191.763	-27.39
192.151	-9.01
192.538	157.61
192.926	5805.41
193.314	59.06
193.702	29.35
194.089	157.42
194.477	157.93
194.864	264.71
195.252	40.25
195.639	-83.89
196.027	70.89
196.414	79.28
196.801	77.22
197.189	-139.58
197.576	235.06
197.963	14.61
198.351	60.04
198.738	52.18
199.125	52.03
199.512	15.13
199.899	95.02
200.286	46.22
200.673	71.89
201.06	26.51
201.447	-14.77
201.833	48.47
202.22	18.02
202.607	39.49
202.994	74.2
203.38	12.58
203.767	12.94
204.154	42.03
204.54	65.9
204.927	16.57
205.313	8.5
205.699	47.69
206.086	46.49
206.472	57.98
206.858	57.43
207.245	-32.85
207.631	43.05
208.017	48.57
208.403	53.38
208.789	75.12
209.175	35.8
209.561	45.17
209.947	38.92
210.333	46.65
210.719	40.9
211.105	0.46
211.491	17.27
211.876	8.9
212.262	26.78
212.648	21.42
213.034	51.35
213.419	19.66
213.805	15.4
214.19	8.84
214.576	-2.36
214.961	25.54
215.346	30.03
215.732	12.46
216.117	-13.7
216.502	11.04
216.888	28.53
217.273	6.84
217.658	-0.76
218.043	5.88
218.428	67.43
218.813	23.51
219.198	21.21
219.583	-24.95
219.968	-5.66
220.353	16.62
220.738	16.14
221.122	11.7
221.507	20.75
221.892	7.35
222.276	10.04
222.661	19.07
223.046	10.88
223.43	18.57
223.815	12.91
224.199	18.42
224.583	12.07
224.968	4.7
225.352	9.76
225.736	-0.89
226.121	14.91
226.505	3.45
226.889	14.4
227.273	6.62
227.657	12.63
228.041	10.28
228.425	5.82
228.809	8.42
229.193	6.55
229.577	9.42
229.961	3.88
230.344	5.35
230.728	4.69
231.112	5.51
231.495	5.21
231.879	4.82
232.263	5.83
232.646	3.27
233.03	4.48
233.413	4.97
233.797	3.61
234.18	6.47
234.563	7.94
234.946	6.13
235.33	4.98
235.713	4.81
236.096	6.09
236.479	4.4
236.862	5.18
237.245	4.25
237.628	6.29
238.011	8.11
238.394	3.7
238.777	7.52
239.16	3.54
239.543	6.68
239.925	7.5
240.308	6.55
240.691	4.04
241.073	6.94
241.456	5.39
241.838	5.48
242.221	6.76
242.603	4.86
242.986	5.28
243.368	5.61
243.75	4.72
244.133	4.4
244.515	4.38
244.897	4.62
245.279	5.06
245.661	4.65
246.043	4.27
246.425	4.66
246.807	4.42
247.189	4.54
247.571	4.18
247.953	5.11
248.335	4.99
248.717	4.4
249.098	4.12
249.48	4.32
249.862	4.6
250.243	4.78
250.625	5.13
251.006	4.92
251.388	4.42
251.769	5.65
252.151	5.54
252.532	6
252.913	4.78
253.295	4.46
253.676	5.16
254.057	4.77
254.438	4.69
254.819	5.03
255.2	5.2
255.581	4.41
255.962	4.42
256.343	5.18
256.724	4.98
257.105	4.71
257.486	5.81
257.867	6.55
258.247	5.28
258.628	5.27
259.009	4.74
259.389	3.89
259.77	3.87
260.15	4.98
260.531	4.62
260.911	5.15
261.292	4.52
261.672	4.62
262.052	4.58
262.432	4.54
262.813	4.61
263.193	4.84
263.573	4.38
263.953	5.04
264.333	5.04
264.713	5.15
265.093	5.16
265.473	5
265.853	4.51
266.233	4.8
266.612	4.26
266.992	5.41
267.372	4.46
267.752	4.6
268.131	5.6
268.511	5.11
268.89	5.18
269.27	4.6
269.649	4.13
270.029	4.15
270.408	4.86
270.787	5.36
271.167	4.99
271.546	5.28
271.925	5.09
272.304	4.51
272.683	4.52
273.062	4.86
273.441	4.77
273.82	5.03
274.199	4.62
274.578	4.76
274.957	5.25
275.336	4.52
275.715	4.76
276.093	4.83
276.472	4.54
276.851	4.74
277.229	4.53
277.608	4.4
277.986	4.13
278.365	5.23
278.743	4.21
279.122	4.36
279.5	4.33
279.878	4.66
280.257	4.59
280.635	4.43
281.013	5.03
281.391	4.83
281.769	5
282.147	4.57
282.525	4.75
282.903	4.75
283.281	4.75
283.659	4.82
284.037	4.79
284.415	4.48
284.792	4.75
285.17	4.85
285.548	4.94
285.925	4.55
286.303	4.2
286.68	4.77
287.058	4.93
287.435	5.13
287.813	4.66
288.19	4.47
288.567	4.64
288.945	4.83
289.322	4.86
289.699	4.52
290.076	5.43
290.453	5.26
290.83	4.71
291.207	5.21
291.584	4.62
291.961	4.85
292.338	4.75
292.715	5.26
293.092	5.18
293.469	5.66
293.845	4.92
294.222	4.84
294.599	5.35
294.975	6.16
295.352	5.86
295.728	5.66
296.105	5.35
296.481	5.54
296.858	5.74
297.234	5.98
297.61	5.07
297.986	5.8
298.363	5.76
298.739	5.61
299.115	5.42
299.491	5.73
299.867	5.58
300.243	5.8
300.619	5.84
300.995	6
301.371	6.17
301.746	5.9
302.122	6.27
302.498	6.1
302.874	6.2
303.249	5.99
303.625	6.64
304	6.64
304.376	5.99
304.751	6.28
305.127	6.11
305.502	7.03
305.878	6.54
306.253	6.31
306.628	6.78
307.003	6.97
307.378	6.69
307.754	6.71
308.129	7.14
308.504	6.97
308.879	7.17
309.254	7.14
309.629	6.75
310.003	6.93
310.378	7.26
310.753	7.1
311.128	7.76
311.502	7.09
311.877	7.1
312.252	7.31
312.626	7.79
313.001	7.43
313.375	7.08
313.75	7.45
314.124	7.26
314.498	7.45
314.873	7.56
315.247	7.88
315.621	7.62
315.995	8.04
316.369	7.67
316.743	8.43
317.117	8.2
317.491	7.61
317.865	8.17
318.239	8.76
318.613	8.5
318.987	8.09
319.361	8.03
319.734	8.42
320.108	8
320.482	8.94
320.855	8.51
321.229	8.87
321.602	8.88
321.976	8.95
322.349	9.21
322.723	8.67
323.096	9.01
323.469	8.67
323.843	9.2
324.216	8.71
324.589	9.02
324.962	9.75
325.335	9.54
325.708	9.28
326.081	9.58
326.454	9.2
326.827	9.14
327.2	9.77
327.573	9.81
327.945	9.44
328.318	9.24
328.691	9.63
329.063	10.15
329.436	10.01
329.809	10.37
330.181	9.96
330.553	9.64
330.926	9.61
331.298	9.79
331.671	9.57
332.043	9.66
332.415	10.2
332.787	10.4
333.159	9.49
333.532	10.02
333.904	10.83
334.276	10.03
334.648	10.56
335.02	10.7
335.391	9.99
335.763	10.02
336.135	10.5
336.507	10.96
336.879	10.5
337.25	10.95
337.622	11.03
337.993	11.11
338.365	10.34
338.736	10.71
339.108	11.05
339.479	10.64
339.851	11.06
340.222	10.87
340.593	10.87
340.964	10.73
341.336	11.84
341.707	11.35
342.078	11.11
342.449	10.66
342.82	10.99
343.191	11.36
343.562	11.64
343.933	11.28
344.303	11.28
344.674	11.69
345.045	11.82
345.416	11.79
345.786	11.27
346.157	11.43
346.527	11.3
346.898	11.5
347.268	11.78
347.639	11.75
348.009	11.21
348.38	12.09
348.75	11.67
349.12	11.89
349.49	12.08
349.861	12.24
350.231	11.59
350.601	12.18
350.971	12.15
351.341	12.37
351.711	12.69
352.081	12.5
352.45	12.01
352.82	12.2
353.19	13.15
353.56	12.56
353.929	12.36
354.299	12.27
354.669	12.8
355.038	13.01
355.408	12.67
355.777	12.32
356.147	12.92
356.516	12.91
356.885	12.95
357.254	12.87
357.624	12.65
357.993	12.42
358.362	13.03
358.731	12.57
359.1	12.42
359.469	12.76
359.838	13.08
360.207	12.97
360.576	13.03
360.945	12.82
361.314	13.45
361.682	13.61
362.051	13.23
362.42	13.2
362.788	13.61
363.157	13.35
363.525	13.37
363.894	13.38
364.262	13.44
364.631	13.69
364.999	13.74
365.367	13.6
365.735	13.69
366.104	13.72
366.472	13.78
366.84	13.89
367.208	14.05
367.576	14.19
367.944	14.03
368.312	13.78
368.68	14.31
369.048	14.39
369.416	14.43
369.783	14.31
370.151	14.2
370.519	14.38
370.886	14.53
371.254	14.81
371.621	14.81
371.989	14.32
372.356	14.45
372.724	15.07
373.091	14.51
373.458	14.68
373.826	14.61
374.193	14.7
374.56	15.37
374.927	15.16
375.294	15.13
375.661	15.03
376.028	15.2
376.395	15.37
376.762	15.22
377.129	15.24
377.496	15.51
377.863	15.3
378.229	15.78
378.596	15.95
378.963	15.5
379.329	15.44
379.696	15.36
380.062	15.86
380.429	15.52
380.795	15.81
381.161	15.56
381.528	15.94
381.894	15.74
382.26	15.83
382.626	16.02
382.993	15.73
383.359	16.18
383.725	16.27
384.091	16.26
384.457	16.32
384.823	16.36
385.188	16.42
385.554	16.06
385.92	16.34
386.286	16.68
386.651	16.39
387.017	16.76
387.383	16.8
387.748	16.88
388.114	16.33
388.479	16.81
388.845	16.89
389.21	16.38
389.575	16.48
389.94	16.84
390.306	16.85
390.671	16.97
391.036	16.78
391.401	17.18
391.766	17.21
392.131	17.04
392.496	17.18
392.861	17.21
393.226	17.1
393.591	17.13
393.956	17.29
394.32	17.51
394.685	17.2
395.05	17.41
395.414	17.73
395.779	17.39
396.143	17.48
396.508	17.54
396.872	17.76
397.236	17.64
397.601	17.71
397.965	17.8
398.329	17.68
398.694	18.33
399.058	17.97
399.422	18.21
399.786	18.2
400.15	18.09
400.514	18.16
400.878	18.08
401.242	18.81
401.605	18.6
401.969	18.26
402.333	18.19
402.697	18.41
403.06	18.42
403.424	18.48
403.787	18.52
404.151	18.48
404.514	18.85
404.878	18.88
405.241	18.74
405.604	18.78
405.968	18.96
406.331	18.74
406.694	18.85
407.057	18.71
407.42	18.94
407.783	19.04
408.146	18.92
408.509	18.95
408.872	19.2
409.235	18.73
409.598	19.33
409.961	19.49
410.323	19.25
410.686	19.2
411.049	19.5
411.411	19.46
411.774	19.58
412.136	19.38
412.499	19.58
412.861	19.53
413.223	19.92
413.586	19.98
413.948	19.73
414.31	20.2
414.672	19.82
415.035	19.99
415.397	20.36
415.759	20.27
416.121	20.07
416.483	20.35
416.845	20
417.206	20.27
417.568	20.54
417.93	20.27
418.292	19.86
418.653	20.31
419.015	20.35
419.377	20.22
419.738	20.4
420.1	20.25
420.461	20.26
420.822	20.2
421.184	20.31
421.545	20.26
421.906	20.28
422.267	20.5
422.629	20.54
422.99	20.35
423.351	20.56
423.712	20.47
424.073	20.74
424.434	20.63
424.795	20.83
425.155	20.81
425.516	20.73
425.877	20.9
426.238	20.77
426.598	20.74
426.959	20.69
427.32	20.93
427.68	21.01
428.041	21.11
428.401	21.19
428.761	21.45
429.122	21.7
429.482	21.52
429.842	21.6
430.202	21.93
430.563	21.89
430.923	22.11
431.283	21.89
431.643	22.11
432.003	22.11
432.363	22.19
432.722	22.29
433.082	22.44
433.442	22.27
433.802	22.38
434.161	22.26
434.521	22.45
434.881	22.26
435.24	22.44
435.6	22.25
435.959	22.26
436.319	22.36
436.678	22.67
437.037	22.46
437.396	22.73
437.756	22.87
438.115	22.67
438.474	22.84
438.833	23.06
439.192	22.83
439.551	22.84
439.91	22.89
440.269	23.31
440.628	22.99
440.987	22.91
441.345	22.99
441.704	23.14
442.063	23.11
442.421	23.12
442.78	23
443.138	23.09
443.497	22.99
443.855	23.34
444.214	23.35
444.572	23.34
444.93	23.67
445.288	23.53
445.647	23.75
446.005	23.58
446.363	23.71
446.721	23.61
447.079	23.8
447.437	23.81
447.795	23.63
448.153	23.62
448.51	23.61
448.868	23.57
449.226	23.61
449.584	23.81
449.941	23.91
450.299	24.15
450.656	24.04
451.014	24.34
451.371	24.33
451.729	24.42
452.086	24.46
452.443	24.62
452.801	24.78
453.158	24.83
453.515	24.94
453.872	24.89
454.229	25
454.586	24.91
454.943	24.82
455.3	24.99
455.657	25.13
456.014	25.18
456.371	25.18
456.727	25.3
457.084	25.42
457.441	25.23
457.797	25.28
458.154	25.39
458.51	25.45
458.867	25.59
459.223	25.49
459.58	25.66
459.936	25.66
460.292	25.78
460.648	25.46
461.005	25.62
461.361	25.5
461.717	25.3
462.073	25.26
462.429	25.34
462.785	25.68
463.141	25.82
463.496	25.81
463.852	26.14
464.208	26.16
464.564	26.31
464.919	26.21
465.275	26.51
465.631	26.46
465.986	26.65
466.342	26.73
466.697	26.39
467.052	26.38
467.408	26.65
467.763	26.87
468.118	27.11
468.473	26.82
468.829	26.8
469.184	26.8
469.539	26.75
469.894	26.98
470.249	27.09
470.603	27
470.958	26.98
471.313	27.19
471.668	27.18
472.023	27.22
472.377	27.2
472.732	27.3
473.086	27.57
473.441	27.71
473.795	27.66
474.15	27.61
474.504	27.42
474.859	27.66
475.213	27.7
475.567	27.62
475.921	27.86
476.275	27.84
476.63	28.01
476.984	28.04
477.338	27.99
477.692	27.96
478.045	28.29
478.399	28.04
478.753	27.9
479.107	27.99
479.461	28.11
479.814	28.25
480.168	28.31
480.521	28.2
480.875	28.26
481.228	28.14
481.582	28.46
481.935	28.46
482.289	28.4
482.642	28.39
482.995	28.51
483.348	28.63
483.701	28.46
484.055	28.43
484.408	28.34
484.761	28.23
485.114	28.05
485.466	27.81
485.819	27.54
486.172	27.61
486.525	27.7
486.878	27.76
487.23	28.03
487.583	28.13
487.936	28.42
488.288	28.39
488.641	28.59
488.993	28.38
489.345	28.24
489.698	28.29
490.05	28.2
490.402	28.32
490.754	28.57
491.107	28.68
491.459	28.94
491.811	29.11
492.163	29.33
492.515	29.42
492.866	29.37
493.218	29.22
493.57	28.88
493.922	28.86
494.274	29.01
494.625	29.22
494.977	29.33
495.328	29.63
495.68	29.84
496.031	30.04
496.383	30.24
496.734	30.33
497.086	30.34
497.437	30.34
497.788	30.4
498.139	30.66
498.49	30.4
498.842	30.4
499.193	30.48
499.544	30.43
499.894	30.58
500.245	30.54
500.596	30.82
500.947	30.8
501.298	30.83
501.648	30.91
501.999	31.16
502.35	31.16
502.7	31.25
503.051	31.24
503.401	31.4
503.752	31.36
504.102	31.46
504.452	31.36
504.803	31.49
505.153	31.51
505.503	31.66
505.853	31.67
506.203	31.49
506.553	31.62
506.903	31.75
507.253	31.66
507.603	31.97
507.953	32.02
508.303	31.82
508.652	32.29
509.002	31.98
509.352	32.02
509.701	32.28
510.051	32.08
510.4	32.15
510.75	31.99
511.099	32.05
511.449	32.23
511.798	32.28
512.147	32.41
512.496	32.4
512.846	32.44
513.195	32.51
513.544	32.4
513.893	32.47
514.242	32.33
514.591	32.59
514.939	32.77
515.288	32.71
515.637	32.73
515.986	32.97
516.334	32.82
516.683	33.13
517.032	33.17
517.38	33.07
517.729	33.21
518.077	33.26
518.426	33.24
518.774	33.37
519.122	33.33
519.47	33.35
519.819	33.16
520.167	33.17
520.515	32.96
520.863	33.06
521.211	33.16
521.559	33.36
521.907	33.06
522.255	33.39
522.602	33.77
522.95	33.72
523.298	33.88
523.645	33.93
523.993	34.04
524.341	34.11
524.688	34.24
525.036	34.21
525.383	34.33
525.73	34.37
526.078	34.23
526.425	34.4
526.772	34.26
527.119	34.1
527.466	34.01
527.814	34.06
528.161	34.01
528.508	34.14
528.854	34.03
529.201	34.26
529.548	34.29
529.895	34.13
530.242	33.89
530.588	33.55
530.935	33.67
531.282	33.88
531.628	34.01
531.975	33.93
532.321	34.14
532.667	34.39
533.014	34.55
533.36	34.7
533.706	34.87
534.052	34.97
534.399	34.75
534.745	34.88
535.091	34.78
535.437	34.62
535.783	34.68
536.129	34.79
536.474	34.98
536.82	35.08
537.166	35.28
537.512	35.48
537.857	35.67
538.203	35.65
538.549	35.47
538.894	35.4
539.239	35.52
539.585	35.75
539.93	35.9
540.276	36.03
540.621	36.29
540.966	36.21
541.311	36.32
541.656	36.33
542.001	36.55
542.346	36.41
542.691	36.26
543.036	35.84
543.381	35.65
543.726	35.61
544.071	35.8
544.415	35.76
544.76	35.98
545.105	36.17
545.449	36.26
545.794	36.41
546.138	36.68
546.483	36.71
546.827	36.71
547.171	37
547.516	37.06
547.86	36.91
548.204	37.08
548.548	37.34
548.892	37.22
549.236	37.32
549.58	37.3
549.924	37.27
550.268	37.64
550.612	37.77
550.956	38.08
551.3	38.01
551.643	37.93
551.987	38.16
552.33	38.36
552.674	38.2
553.017	38.01
553.361	38.26
553.704	38.37
554.048	38.36
554.391	38.48
554.734	38.19
555.077	38.49
555.42	38.38
555.764	38.36
556.107	38.62
556.45	38.85
556.793	38.6
557.135	38.89
557.478	38.92
557.821	39.05
558.164	39.12
558.507	38.96
558.849	38.97
559.192	38.98
559.534	39.26
559.877	39.3
560.219	39.2
560.562	39.39
560.904	39.16
561.246	39.56
561.589	39.49
561.931	39.39
562.273	39.85
562.615	39.85
562.957	39.63
563.299	39.68
563.641	40.11
563.983	39.67
564.325	39.82
564.667	39.94
565.008	39.91
565.35	40.04
565.692	40.1
566.033	40.22
566.375	40.23
566.716	40.49
567.058	40.21
567.399	40.31
567.741	39.94
568.082	40.37
568.423	40.07
568.764	40.21
569.105	40.28
569.447	40.2
569.788	40.44
570.129	40.47
570.47	40.62
570.811	40.6
571.151	40.91
571.492	41.02
571.833	40.96
572.174	40.72
572.514	41.02
572.855	40.96
573.195	40.84
573.536	41.01
573.876	41.06
574.217	40.77
574.557	40.97
574.898	40.99
575.238	41
575.578	40.96
575.918	41.02
576.258	41.28
576.598	41.74
576.938	41.31
577.278	41.5
577.618	41.36
577.958	41.45
578.298	41.6
578.638	41.6
578.977	41.36
579.317	42.01
579.657	41.78
579.996	41.79
580.336	42.32
580.675	42.09
581.014	42.27
581.354	42.4
581.693	41.9
582.032	42.49
582.372	42.41
582.711	42.68
583.05	42.93
583.389	42.53
583.728	42.67
584.067	42.81
584.406	42.89
584.745	42.91
585.083	43.22
585.422	43.17
585.761	43.23
586.1	43.29
586.438	42.77
586.777	43.08
587.115	43.34
587.454	43.49
587.792	43.18
588.13	43.54
588.469	43.44
588.807	43.45
589.145	43.74
589.483	43.42
589.821	43.42
590.159	43.91
590.497	43.78
590.835	43.72
591.173	43.89
591.511	43.59
591.849	43.77
592.187	43.67
592.524	43.59
592.862	43.84
593.2	44.09
593.537	44.14
593.875	43.92
594.212	44.02
594.55	44.19
594.887	43.91
595.224	44.29
595.561	44.51
595.899	44.3
596.236	44.46
596.573	44.63
596.91	44.26
597.247	44.36
597.584	44.05
597.921	44.35
598.258	44.58
598.594	44.64
598.931	43.97
599.268	44.31
599.604	44.35
599.941	44.5
600.277	44.6
600.614	44.91
600.95	44.84
601.287	44.92
601.623	44.89
601.959	44.68
602.296	45.15
602.632	45.43
602.968	45.3
603.304	45.42
603.64	45.32
603.976	45.45
604.312	45.45
604.648	45.67
604.984	45.36
605.319	45.4
605.655	45.21
605.991	45.62
606.326	45.09
606.662	45.03
606.998	45.29
607.333	45.37
607.668	45.55
608.004	45.54
608.339	45.64
608.674	45.64
609.01	45.84
609.345	45.93
609.68	45.99
610.015	45.83
610.35	46.35
610.685	46.58
611.02	46.17
611.355	46.2
611.689	46.17
612.024	46.28
612.359	45.9
612.694	46.37
613.028	46.46
613.363	46.43
613.697	46.62
614.032	46.78
614.366	46.8
614.7	46.65
615.035	46.91
615.369	46.99
615.703	46.66
616.037	46.71
616.371	46.95
616.705	47.28
617.039	47.32
617.373	46.79
617.707	47.25
618.041	46.97
618.375	47.54
618.709	47.46
619.042	47.64
619.376	47.41
619.71	47.3
620.043	47.58
620.377	47.61
620.71	47.37
621.043	47.88
621.377	47.33
621.71	47.75
622.043	47.79
622.376	48.15
622.709	47.76
623.043	47.45
623.376	47.33
623.709	48.01
624.041	48.43
624.374	47.9
624.707	48.04
625.04	47.92
625.373	48.52
625.705	47.87
626.038	48.67
626.37	48.55
626.703	48.46
627.035	48.18
627.368	48.34
627.7	48.79
628.032	48.6
628.365	48.03
628.697	48.59
629.029	48.42
629.361	48.6
629.693	48.7
630.025	48.4
630.357	48.5
630.689	48.2
631.021	48.91
631.353	48.57
631.684	48.77
632.016	49.07
632.348	48.97
632.679	48.49
633.011	48.94
633.342	48.66
633.674	48.66
634.005	49.2
634.336	49.77
634.668	49.2
634.999	48.7
635.33	49.18
635.661	49.19
635.992	49.16
636.323	49.94
636.654	49.67
636.985	49.2
637.316	49.47
637.647	49.59
637.977	49.75
638.308	49.57
638.639	49.38
638.969	50.39
639.3	49.52
639.63	49.42
639.961	50.18
640.291	49.7
640.622	49.38
640.952	50.51
641.282	49.59
641.612	49.96
641.943	50.02
642.273	50.29
642.603	50.47
642.933	50.95
643.263	50.44
643.592	50.17
643.922	50.55
644.252	50.12
644.582	50.41
644.911	50.19
645.241	50.97
645.571	51.17
645.9	50.79
646.23	50.67
646.559	50.35
646.888	50.72
647.218	50.81
647.547	50.44
647.876	50.81
648.205	50.79
648.534	50.55
648.863	51.26
649.192	50.47
649.521	50.87
649.85	50.71
650.179	50.7
650.508	51.37
650.837	51.1
651.165	51.13
651.494	50.99
651.822	51.14
652.151	51.14
652.479	51.43
652.808	51.38
653.136	51.58
653.465	51.74
653.793	51.1
654.121	51.13
654.449	51.5
654.777	51.69
655.105	52.28
655.433	51.73
655.761	51.53
656.089	51.82
656.417	51.75
656.745	51.52
657.073	52.4
657.4	52.29
657.728	52.25
658.056	51.72
658.383	52.03
658.711	52.13
659.038	52.18
659.365	51.53
659.693	51.72
660.02	52.06
660.347	51.99
660.674	51.73
661.001	51.47
661.329	52.02
661.656	52.07
661.982	52.24
662.309	52.05
662.636	51.91
662.963	52.23
663.29	52.54
663.616	52.85
663.943	52.04
664.27	52.19
664.596	52.68
664.923	52.2
665.249	52.17
665.576	51.93
665.902	52.1
666.228	52.81
666.554	52.98
666.881	52.11
667.207	53.48
667.533	52.64
667.859	53.59
668.185	52.54
668.511	53.54
668.837	53.28
669.162	53.06
669.488	53.41
669.814	52.63
670.139	53.51
670.465	53.31
