Data from 0365_forehead_Reflection__2__306.txt Node

Date: Fri Oct 20 23:07:12 CDT 2023
User: ToomeyLab
Spectrometer: FLMS14357
Trigger mode: 0
Integration Time (sec): 1.000000E-2
Scans to average: 100
Electric dark correction enabled: true
Nonlinearity correction enabled: false
Boxcar width: 0
XAxis mode: Wavelengths
Number of Pixels in Spectrum: 2048
>>>>>Begin Spectral Data<<<<<
189.047	214.07
189.435	214.07
189.823	214.07
190.211	-14.34
190.599	-102.97
190.987	37.77
191.375	15.76
191.763	137.6
192.151	60.07
192.538	75.52
192.926	3472.97
193.314	93.98
193.702	80.66
194.089	57.29
194.477	190.92
194.864	165
195.252	97.39
195.639	174.17
196.027	-353.3
196.414	72.11
196.801	65.06
197.189	-52.42
197.576	270.51
197.963	-127.44
198.351	45.1
198.738	55.63
199.125	33.11
199.512	37.24
199.899	31.97
200.286	-0.13
200.673	48.88
201.06	-3.95
201.447	12.99
201.833	112.11
202.22	14.23
202.607	31.25
202.994	56.67
203.38	50.9
203.767	35.86
204.154	36.85
204.54	63.21
204.927	3.02
205.313	39.8
205.699	34.42
206.086	60.45
206.472	55.98
206.858	46.98
207.245	6.2
207.631	57.94
208.017	45.29
208.403	19.92
208.789	38.42
209.175	6.15
209.561	51.78
209.947	38.47
210.333	19.36
210.719	3.64
211.105	46.79
211.491	48.16
211.876	-8.27
212.262	73.36
212.648	47.62
213.034	13.78
213.419	67.99
213.805	43.36
214.19	8.06
214.576	25.78
214.961	36.39
215.346	58.73
215.732	47.83
216.117	11.34
216.502	26.13
216.888	12.12
217.273	12.73
217.658	13.96
218.043	12.7
218.428	-1.4
218.813	18.75
219.198	8.74
219.583	-4.42
219.968	10.22
220.353	16.63
220.738	26.97
221.122	13.84
221.507	7.3
221.892	22.88
222.276	14.32
222.661	15.42
223.046	10.43
223.43	9.03
223.815	16.17
224.199	21.92
224.583	-0.32
224.968	-1.41
225.352	10.18
225.736	7.18
226.121	8.6
226.505	12.64
226.889	19.67
227.273	6.08
227.657	15.33
228.041	10.39
228.425	7.82
228.809	9.25
229.193	7.17
229.577	9.18
229.961	6.9
230.344	7.94
230.728	5.84
231.112	7.42
231.495	6.01
231.879	7.19
232.263	7.57
232.646	7.24
233.03	5.99
233.413	6.2
233.797	5.44
234.18	6.69
234.563	7.22
234.946	10.55
235.33	6.62
235.713	8.24
236.096	7.42
236.479	6.64
236.862	8.42
237.245	6.72
237.628	5.81
238.011	6.84
238.394	7.23
238.777	6.96
239.16	7.27
239.543	8.79
239.925	7.33
240.308	7.82
240.691	6.13
241.073	7.91
241.456	7.47
241.838	5.93
242.221	6.63
242.603	5.54
242.986	6.74
243.368	6.8
243.75	6.11
244.133	5.78
244.515	5.9
244.897	5.82
245.279	5.91
245.661	5.67
246.043	5.29
246.425	5.65
246.807	6.29
247.189	6.09
247.571	5.77
247.953	6.15
248.335	6.18
248.717	5.78
249.098	5.57
249.48	5.67
249.862	5.73
250.243	6.02
250.625	5.98
251.006	5.93
251.388	5.53
251.769	6.88
252.151	5.55
252.532	6.56
252.913	6.6
253.295	4.89
253.676	5.71
254.057	6.23
254.438	5.87
254.819	6.09
255.2	6.06
255.581	6.13
255.962	6.16
256.343	7.16
256.724	5.51
257.105	6.2
257.486	6.82
257.867	6.35
258.247	6.71
258.628	6.32
259.009	5.4
259.389	5.58
259.77	6.05
260.15	6.09
260.531	6.04
260.911	6.56
261.292	5.66
261.672	5.47
262.052	5.54
262.432	5.68
262.813	5.51
263.193	5.82
263.573	5.96
263.953	5.46
264.333	6.24
264.713	6.25
265.093	6.16
265.473	6.28
265.853	5.51
266.233	6.12
266.612	5.67
266.992	5.04
267.372	5.85
267.752	6.39
268.131	6.48
268.511	6.53
268.89	6.22
269.27	5.63
269.649	5.24
270.029	5.57
270.408	6.29
270.787	5.91
271.167	5.64
271.546	6.28
271.925	6.96
272.304	5.97
272.683	5.92
273.062	6.02
273.441	6.14
273.82	5.87
274.199	5.65
274.578	5.97
274.957	6.18
275.336	5.98
275.715	5.67
276.093	6
276.472	6.07
276.851	6
277.229	6.12
277.608	5.28
277.986	4.87
278.365	6.4
278.743	6.14
279.122	5.74
279.5	6.42
279.878	5.22
280.257	5.58
280.635	5.43
281.013	6.37
281.391	6.04
281.769	6
282.147	5.85
282.525	6.54
282.903	5.63
283.281	5.52
283.659	5.55
284.037	5.99
284.415	5.22
284.792	5.65
285.17	6.03
285.548	5.79
285.925	6.17
286.303	5.21
286.68	5.88
287.058	6.6
287.435	6
287.813	5.04
288.19	5.97
288.567	6.1
288.945	6.03
289.322	6.26
289.699	5.66
290.076	6.54
290.453	6
290.83	5.81
291.207	6.26
291.584	5.69
291.961	6.16
292.338	5.95
292.715	6.05
293.092	5.88
293.469	6.8
293.845	6.31
294.222	5.76
294.599	6.72
294.975	6.6
295.352	7.08
295.728	6.74
296.105	6.68
296.481	6.48
296.858	6.14
297.234	6.72
297.61	6.23
297.986	7.35
298.363	7.01
298.739	6.41
299.115	6.67
299.491	6.71
299.867	6.77
300.243	6.96
300.619	6.99
300.995	6.77
301.371	7.24
301.746	7.15
302.122	7.52
302.498	6.87
302.874	7.1
303.249	7.54
303.625	7.42
304	7.62
304.376	7.33
304.751	7.74
305.127	7.35
305.502	8.01
305.878	7.27
306.253	7.68
306.628	8.09
307.003	7.82
307.378	7.9
307.754	7.92
308.129	8.39
308.504	8.7
308.879	8.53
309.254	8.28
309.629	8.25
310.003	8.04
310.378	8.71
310.753	8.74
311.128	8.77
311.502	8.85
311.877	8.63
312.252	8.55
312.626	8.89
313.001	9.01
313.375	8.79
313.75	8.81
314.124	8.8
314.498	9.15
314.873	9
315.247	9.25
315.621	9.38
315.995	9.32
316.369	9.16
316.743	9.81
317.117	9.45
317.491	9.48
317.865	9.57
318.239	10.32
318.613	10.56
318.987	9.99
319.361	9.29
319.734	9.5
320.108	10.05
320.482	10.37
320.855	10.56
321.229	11.25
321.602	9.93
321.976	10.33
322.349	10.91
322.723	10.2
323.096	10.49
323.469	10.89
323.843	10.9
324.216	10.86
324.589	10.8
324.962	11.11
325.335	10.52
325.708	10.79
326.081	11.09
326.454	11.38
326.827	11.83
327.2	11.3
327.573	11.19
327.945	10.88
328.318	11.01
328.691	11.35
329.063	12.09
329.436	11.29
329.809	11.55
330.181	11.47
330.553	11.1
330.926	11.61
331.298	12.01
331.671	11.62
332.043	11.62
332.415	12.54
332.787	12.36
333.159	11.83
333.532	12.41
333.904	12.31
334.276	11.59
334.648	12.23
335.02	12.82
335.391	12.17
335.763	12.47
336.135	12.09
336.507	12.18
336.879	12.24
337.25	12.56
337.622	12.96
337.993	12.83
338.365	12.72
338.736	13.27
339.108	12.84
339.479	12.9
339.851	13.2
340.222	12.72
340.593	12.63
340.964	13.25
341.336	13.2
341.707	12.96
342.078	13.61
342.449	13.07
342.82	13.08
343.191	13.59
343.562	13.53
343.933	13.29
344.303	13.61
344.674	13.88
345.045	13.59
345.416	14.23
345.786	13.48
346.157	14.31
346.527	14.31
346.898	14.08
347.268	14.36
347.639	14.41
348.009	13.95
348.38	14.16
348.75	14.4
349.12	14.15
349.49	14.22
349.861	14.56
350.231	14.11
350.601	14.18
350.971	14.49
351.341	14.48
351.711	15.2
352.081	14.7
352.45	14.92
352.82	15.09
353.19	15.16
353.56	15.01
353.929	15.07
354.299	15.33
354.669	15.06
355.038	15.47
355.408	15.2
355.777	15.59
356.147	15.32
356.516	15.25
356.885	15.62
357.254	15.52
357.624	15.46
357.993	15.27
358.362	15.46
358.731	15.22
359.1	15.31
359.469	15.63
359.838	15.9
360.207	15.84
360.576	16.2
360.945	15.7
361.314	16.16
361.682	15.88
362.051	16
362.42	16.04
362.788	16.1
363.157	16.22
363.525	16
363.894	16.02
364.262	16.32
364.631	16.61
364.999	16.54
365.367	16.6
365.735	16.57
366.104	16.62
366.472	16.92
366.84	16.59
367.208	16.84
367.576	16.68
367.944	16.99
368.312	17.02
368.68	17.2
369.048	17.56
369.416	17.38
369.783	17.47
370.151	17.3
370.519	17.18
370.886	17.52
371.254	17.78
371.621	18.01
371.989	17.48
372.356	17.74
372.724	17.62
373.091	17.64
373.458	17.78
373.826	17.8
374.193	17.52
374.56	18.29
374.927	17.99
375.294	18.79
375.661	18.23
376.028	18.65
376.395	18.37
376.762	18.29
377.129	18.5
377.496	18.47
377.863	18.42
378.229	18.7
378.596	18.87
378.963	18.59
379.329	19.05
379.696	18.77
380.062	18.73
380.429	18.84
380.795	18.77
381.161	18.71
381.528	19.5
381.894	19.32
382.26	19.14
382.626	19.36
382.993	19.32
383.359	19.56
383.725	19.26
384.091	19.51
384.457	19.69
384.823	19.82
385.188	19.68
385.554	19.38
385.92	19.87
386.286	19.98
386.651	19.88
387.017	20.02
387.383	20.11
387.748	19.8
388.114	19.74
388.479	20.31
388.845	20.45
389.21	20.18
389.575	20.19
389.94	20.37
390.306	20.32
390.671	20.49
391.036	20.6
391.401	20.9
391.766	20.64
392.131	20.71
392.496	20.76
392.861	20.95
393.226	21.05
393.591	21.02
393.956	20.88
394.32	21.25
394.685	21.01
395.05	21.33
395.414	21.21
395.779	21.27
396.143	21.44
396.508	21.14
396.872	21.35
397.236	21.44
397.601	21.32
397.965	21.42
398.329	21.48
398.694	21.97
399.058	21.81
399.422	21.76
399.786	22.01
400.15	21.75
400.514	21.9
400.878	22.31
401.242	22.36
401.605	22.16
401.969	22.08
402.333	22.12
402.697	22.66
403.06	22.28
403.424	22.46
403.787	22.41
404.151	22.49
404.514	22.84
404.878	23.03
405.241	22.76
405.604	22.89
405.968	22.78
406.331	22.71
406.694	22.99
407.057	22.73
407.42	23.3
407.783	23.14
408.146	23.15
408.509	23.08
408.872	23.4
409.235	23.35
409.598	23.37
409.961	23.66
410.323	23.3
410.686	23.65
411.049	23.58
411.411	23.76
411.774	23.74
412.136	23.96
412.499	23.73
412.861	23.94
413.223	24.04
413.586	24.26
413.948	24.3
414.31	24.23
414.672	24.29
415.035	24.07
415.397	24.42
415.759	24.6
416.121	24.85
416.483	24.89
416.845	24.53
417.206	24.83
417.568	24.65
417.93	24.8
418.292	24.67
418.653	24.81
419.015	24.64
419.377	24.75
419.738	24.93
420.1	24.53
420.461	24.91
420.822	24.88
421.184	24.74
421.545	25
421.906	25.09
422.267	25.12
422.629	25.1
422.99	24.93
423.351	24.95
423.712	25.03
424.073	25.29
424.434	25.27
424.795	25.37
425.155	25.41
425.516	25.45
425.877	25.61
426.238	25.28
426.598	25.47
426.959	25.45
427.32	25.6
427.68	25.77
428.041	25.93
428.401	25.94
428.761	26.06
429.122	26.37
429.482	26.16
429.842	26.52
430.202	26.75
430.563	26.73
430.923	26.9
431.283	26.66
431.643	27.03
432.003	26.91
432.363	26.9
432.722	26.96
433.082	27.03
433.442	27.05
433.802	27.19
434.161	27.21
434.521	27.24
434.881	27.25
435.24	27.15
435.6	27.22
435.959	27.22
436.319	27.33
436.678	27.41
437.037	27.7
437.396	27.85
437.756	27.73
438.115	27.82
438.474	27.77
438.833	28.12
439.192	27.81
439.551	27.9
439.91	28.09
440.269	28
440.628	28.23
440.987	28.01
441.345	27.85
441.704	28.17
442.063	28.11
442.421	27.95
442.78	28.11
443.138	28.27
443.497	28.37
443.855	28.51
444.214	28.5
444.572	28.66
444.93	28.72
445.288	28.9
445.647	28.98
446.005	28.79
446.363	28.84
446.721	28.96
447.079	29.04
447.437	28.95
447.795	28.8
448.153	28.87
448.51	28.81
448.868	28.88
449.226	28.9
449.584	29.09
449.941	29.14
450.299	29.24
450.656	29.36
451.014	29.34
451.371	29.68
451.729	29.63
452.086	29.7
452.443	29.96
452.801	29.94
453.158	30.19
453.515	30.2
453.872	30.16
454.229	30.34
454.586	30.26
454.943	30.01
455.3	30.35
455.657	30.44
456.014	30.55
456.371	30.59
456.727	30.63
457.084	30.71
457.441	30.87
457.797	30.93
458.154	30.83
458.51	30.98
458.867	31.07
459.223	31.13
459.58	31.24
459.936	31.24
460.292	31.16
460.648	30.93
461.005	30.89
461.361	31.16
461.717	30.89
462.073	30.85
462.429	30.87
462.785	31.06
463.141	31.43
463.496	31.44
463.852	31.68
464.208	31.69
464.564	32.07
464.919	31.8
465.275	32.08
465.631	32.12
465.986	32.4
466.342	32.48
466.697	32.05
467.052	32.3
467.408	32.21
467.763	32.31
468.118	32.65
468.473	32.55
468.829	32.68
469.184	32.67
469.539	32.62
469.894	32.69
470.249	32.66
470.603	32.71
470.958	32.98
471.313	32.94
471.668	32.94
472.023	32.82
472.377	32.94
472.732	32.81
473.086	33.37
473.441	33.39
473.795	33.48
474.15	33.48
474.504	33.3
474.859	33.67
475.213	33.73
475.567	33.58
475.921	33.84
476.275	33.75
476.63	33.78
476.984	33.96
477.338	33.86
477.692	33.85
478.045	34.19
478.399	33.88
478.753	34.03
479.107	34.1
479.461	34.11
479.814	34.23
480.168	34.22
480.521	34.24
480.875	34.4
481.228	34.27
481.582	34.47
481.935	34.53
482.289	34.41
482.642	34.59
482.995	34.42
483.348	34.49
483.701	34.53
484.055	34.42
484.408	34.28
484.761	34.4
485.114	34.27
485.466	33.87
485.819	33.78
486.172	33.84
486.525	33.91
486.878	33.9
487.23	34
487.583	34.11
487.936	34.56
488.288	34.64
488.641	34.65
488.993	34.61
489.345	34.45
489.698	34.44
490.05	34.44
490.402	34.44
490.754	34.66
491.107	34.71
491.459	35.08
491.811	35.38
492.163	35.37
492.515	35.6
492.866	35.62
493.218	35.4
493.57	35.25
493.922	35.18
494.274	35.21
494.625	35.35
494.977	35.62
495.328	35.92
495.68	36
496.031	36.4
496.383	36.67
496.734	36.71
497.086	36.75
497.437	36.82
497.788	37.04
498.139	36.93
498.49	36.86
498.842	36.8
499.193	36.92
499.544	36.82
499.894	36.83
500.245	37.07
500.596	37.12
500.947	37.28
501.298	37.32
501.648	37.4
501.999	37.42
502.35	37.65
502.7	37.64
503.051	37.64
503.401	37.88
503.752	37.8
504.102	37.96
504.452	37.81
504.803	37.96
505.153	38.18
505.503	38.14
505.853	38.36
506.203	38.09
506.553	38.17
506.903	38.23
507.253	38.23
507.603	38.35
507.953	38.55
508.303	38.34
508.652	38.84
509.002	38.49
509.352	38.65
509.701	38.85
510.051	38.6
510.4	38.62
510.75	38.76
511.099	38.77
511.449	38.81
511.798	38.84
512.147	39.02
512.496	38.85
512.846	38.94
513.195	39.18
513.544	39.11
513.893	39.2
514.242	39.27
514.591	39.16
514.939	39.66
515.288	39.5
515.637	39.48
515.986	39.57
516.334	39.79
516.683	39.61
517.032	39.63
517.38	39.81
517.729	40.04
518.077	39.99
518.426	39.86
518.774	39.92
519.122	40.16
519.47	40
519.819	40
520.167	39.73
520.515	39.77
520.863	39.79
521.211	39.83
521.559	40.04
521.907	40.15
522.255	40.31
522.602	40.43
522.95	40.59
523.298	40.54
523.645	40.79
523.993	40.71
524.341	40.79
524.688	40.97
525.036	41.13
525.383	41.01
525.73	41.39
526.078	41.02
526.425	41.3
526.772	41
527.119	41.13
527.466	40.96
527.814	40.94
528.161	40.93
528.508	41.07
528.854	41.09
529.201	41.07
529.548	41.1
529.895	41.17
530.242	40.91
530.588	40.62
530.935	40.8
531.282	40.98
531.628	40.87
531.975	40.76
532.321	40.8
532.667	41.27
533.014	41.57
533.36	41.7
533.706	41.79
534.052	42.06
534.399	41.74
534.745	41.91
535.091	41.8
535.437	41.65
535.783	41.6
536.129	41.59
536.474	41.86
536.82	41.93
537.166	42.34
537.512	42.3
537.857	42.59
538.203	42.57
538.549	42.47
538.894	42.39
539.239	42.65
539.585	42.47
539.93	42.84
540.276	42.94
540.621	43.21
540.966	43.37
541.311	43.69
541.656	43.44
542.001	43.39
542.346	43.6
542.691	43.18
543.036	42.96
543.381	42.71
543.726	42.8
544.071	42.86
544.415	42.95
544.76	43.1
545.105	43.3
545.449	43.34
545.794	43.65
546.138	43.92
546.483	43.8
546.827	43.98
547.171	44.26
547.516	44.24
547.86	44.19
548.204	44.28
548.548	44.39
548.892	44.42
549.236	44.34
549.58	44.49
549.924	44.47
550.268	44.71
550.612	44.63
550.956	45
551.3	44.87
551.643	45.14
551.987	45.3
552.33	45.63
552.674	45.37
553.017	45.49
553.361	45.6
553.704	45.81
554.048	45.72
554.391	45.65
554.734	45.6
555.077	45.81
555.42	45.77
555.764	45.99
556.107	46
556.45	45.94
556.793	45.72
557.135	45.99
557.478	46.07
557.821	46.25
558.164	46.3
558.507	46.48
558.849	46.57
559.192	46.42
559.534	46.68
559.877	46.46
560.219	46.53
560.562	46.92
560.904	46.7
561.246	47.04
561.589	46.75
561.931	46.96
562.273	47.04
562.615	47.35
562.957	47.06
563.299	47.08
563.641	47.36
563.983	46.92
564.325	47.3
564.667	47.39
565.008	47.59
565.35	47.39
565.692	47.58
566.033	47.62
566.375	47.79
566.716	47.91
567.058	47.83
567.399	47.61
567.741	47.44
568.082	47.89
568.423	47.72
568.764	47.7
569.105	47.87
569.447	47.54
569.788	48.07
570.129	48
570.47	48.1
570.811	48.25
571.151	48.46
571.492	48.57
571.833	48.29
572.174	48.64
572.514	48.56
572.855	48.36
573.195	48.55
573.536	48.53
573.876	48.48
574.217	48.46
574.557	48.5
574.898	48.71
575.238	48.57
575.578	48.69
575.918	48.81
576.258	48.7
576.598	49.13
576.938	48.72
577.278	48.94
577.618	48.82
577.958	49.14
578.298	49.25
578.638	49.39
578.977	49.34
579.317	49.6
579.657	49.45
579.996	49.47
580.336	50.04
580.675	49.59
581.014	49.84
581.354	50.11
581.693	49.84
582.032	50.23
582.372	49.97
582.711	50.69
583.05	50.51
583.389	50.2
583.728	50.16
584.067	50.27
584.406	50.56
584.745	50.63
585.083	50.97
585.422	50.51
585.761	50.48
586.1	50.96
586.438	50.46
586.777	50.43
587.115	51.11
587.454	50.83
587.792	50.89
588.13	51.14
588.469	51.23
588.807	51.22
589.145	51.15
589.483	50.92
589.821	51.03
590.159	51.23
590.497	51.32
590.835	51.2
591.173	51.56
591.511	51.49
591.849	51.4
592.187	51.33
592.524	51.45
592.862	51.51
593.2	51.92
593.537	51.97
593.875	51.62
594.212	51.69
594.55	51.84
594.887	51.74
595.224	52.11
595.561	51.8
595.899	51.84
596.236	51.78
596.573	52.47
596.91	51.74
597.247	51.94
597.584	51.91
597.921	52.24
598.258	51.99
598.594	52.57
598.931	52.01
599.268	52.06
599.604	52.13
599.941	52.37
600.277	52.24
600.614	52.72
600.95	52.83
601.287	52.37
601.623	52.63
601.959	52.88
602.296	52.85
602.632	53.23
602.968	53.2
603.304	53.29
603.64	53.16
603.976	53.15
604.312	53.62
604.648	53.53
604.984	53.47
605.319	53.36
605.655	53.53
605.991	53.48
606.326	53.35
606.662	53.12
606.998	53.32
607.333	53.08
607.668	53.58
608.004	53.28
608.339	53.72
608.674	53.85
609.01	53.95
609.345	53.9
609.68	53.71
610.015	53.73
610.35	54.19
610.685	54.02
611.02	54.12
611.355	54.31
611.689	53.85
612.024	54.01
612.359	53.78
612.694	54.2
613.028	54.43
613.363	54.64
613.697	54.41
614.032	54.35
614.366	54.76
614.7	54.9
615.035	54.87
615.369	54.82
615.703	54.82
616.037	54.91
616.371	55.19
616.705	55.08
617.039	55.08
617.373	55
617.707	55.01
618.041	55.07
618.375	55.57
618.709	55.21
619.042	55.62
619.376	55.27
619.71	55.7
620.043	55.37
620.377	55.46
620.71	55.35
621.043	55.35
621.377	55.73
621.71	55.48
622.043	56.17
622.376	55.81
622.709	56.14
623.043	56.04
623.376	55.71
623.709	56.05
624.041	56.11
624.374	56.11
624.707	55.97
625.04	55.69
625.373	56.6
625.705	55.51
626.038	56.58
626.37	56.54
626.703	56.13
627.035	56.25
627.368	56.43
627.7	56.23
628.032	56.58
628.365	56.77
628.697	56.98
629.029	56.65
629.361	56.62
629.693	56.15
630.025	56.15
630.357	56.55
630.689	56.74
631.021	56.51
631.353	57.12
631.684	56.81
632.016	57.26
632.348	57.36
632.679	57.05
633.011	57.05
633.342	56.72
633.674	57.02
634.005	57.5
634.336	57.92
634.668	56.89
634.999	57.21
635.33	57.59
635.661	57.51
635.992	57.19
636.323	58
636.654	58.07
636.985	57.57
637.316	57.77
637.647	58.06
637.977	58.05
638.308	57.34
638.639	57.7
638.969	58.21
639.3	57.35
639.63	57.81
639.961	58.19
640.291	58.49
640.622	57.61
640.952	58.18
641.282	57.69
641.612	58.11
641.943	58.43
642.273	58.72
642.603	58.18
642.933	58.47
643.263	58.91
643.592	58.23
643.922	58.65
644.252	57.93
644.582	58.43
644.911	58.04
645.241	59.23
645.571	59.24
645.9	58.98
646.23	59.07
646.559	59.04
646.888	58.96
647.218	58.97
647.547	58.71
647.876	58.47
648.205	59.18
648.534	59.23
648.863	59.22
649.192	58.85
649.521	58.95
649.85	59.35
650.179	58.68
650.508	59.28
650.837	59.06
651.165	59.17
651.494	59.02
651.822	59.61
652.151	59.48
652.479	59.48
652.808	59.69
653.136	60.01
653.465	59.88
653.793	59.08
654.121	59.59
654.449	59.78
654.777	59.99
655.105	59.73
655.433	59.95
655.761	59.72
656.089	59.33
656.417	60.21
656.745	60.13
657.073	60.27
657.4	60.44
657.728	60.25
658.056	60.5
658.383	60.29
658.711	60.28
659.038	60.59
659.365	60.1
659.693	60.65
660.02	60.21
660.347	60.6
660.674	60.21
661.001	60.33
661.329	60.53
661.656	60.81
661.982	60.53
662.309	60.56
662.636	60.47
662.963	60.11
663.29	61.29
663.616	61.09
663.943	60.64
664.27	60.89
664.596	60.89
664.923	60.66
665.249	60.2
665.576	60.51
665.902	61.71
666.228	60.08
666.554	61.63
666.881	60.73
667.207	60.63
667.533	60.84
667.859	61.6
668.185	61.12
668.511	62.04
668.837	61.4
669.162	61.52
669.488	61.87
669.814	61.25
670.139	62.19
