Data from 0235_forehead_Reflection__0__293.txt Node

Date: Fri Sep 22 23:02:43 CDT 2023
User: ToomeyLab
Spectrometer: FLMS14357
Trigger mode: 0
Integration Time (sec): 1.000000E-2
Scans to average: 100
Electric dark correction enabled: true
Nonlinearity correction enabled: false
Boxcar width: 0
XAxis mode: Wavelengths
Number of Pixels in Spectrum: 2048
>>>>>Begin Spectral Data<<<<<
189.047	100.59
189.435	100.59
189.823	100.59
190.211	-223.64
190.599	201.58
190.987	-81.31
191.375	21264.29
191.763	51.24
192.151	320.29
192.538	-100.06
192.926	57.49
193.314	24.9
193.702	358.65
194.089	122.91
194.477	97.47
194.864	-43.57
195.252	4.71
195.639	31.69
196.027	-85.16
196.414	-196.71
196.801	-403.98
197.189	207.74
197.576	155.51
197.963	-115.02
198.351	-11.53
198.738	35.2
199.125	-5.59
199.512	15.66
199.899	23.73
200.286	2.65
200.673	18.98
201.06	28.13
201.447	39.9
201.833	0.58
202.22	30.03
202.607	27.42
202.994	39.52
203.38	9.73
203.767	16.88
204.154	29.93
204.54	57.53
204.927	24.06
205.313	28.27
205.699	79.44
206.086	18.96
206.472	52.93
206.858	37.21
207.245	-2.19
207.631	19.59
208.017	33.41
208.403	8.66
208.789	0.84
209.175	38.71
209.561	41.8
209.947	48.08
210.333	29.45
210.719	12.25
211.105	31.67
211.491	34.57
211.876	19.31
212.262	39.61
212.648	9.68
213.034	5.3
213.419	-8.21
213.805	-9.78
214.19	-1.19
214.576	35.09
214.961	21.5
215.346	-15.49
215.732	13.51
216.117	-7.88
216.502	56
216.888	20.19
217.273	23.28
217.658	12.27
218.043	22.24
218.428	28.04
218.813	-30.76
219.198	14.14
219.583	6.02
219.968	-1.5
220.353	38.24
220.738	37.26
221.122	2.83
221.507	6.85
221.892	-7.55
222.276	4.7
222.661	-15.71
223.046	13.66
223.43	25.93
223.815	5.95
224.199	4.61
224.583	8.61
224.968	15.35
225.352	12.51
225.736	11.15
226.121	-5.88
226.505	9.35
226.889	6.59
227.273	5.94
227.657	7
228.041	1.51
228.425	12.93
228.809	2.68
229.193	8.46
229.577	5.92
229.961	6.23
230.344	7.26
230.728	4.73
231.112	5.48
231.495	5.96
231.879	5.25
232.263	4.49
232.646	4.41
233.03	5.08
233.413	4.99
233.797	7.07
234.18	6.22
234.563	8.11
234.946	7.83
235.33	2.01
235.713	5.72
236.096	4.94
236.479	4.42
236.862	6.23
237.245	6.99
237.628	6.48
238.011	7.03
238.394	6.74
238.777	6.04
239.16	7.34
239.543	7.94
239.925	5.86
240.308	6.47
240.691	6.24
241.073	6.43
241.456	5.75
241.838	5.56
242.221	5.09
242.603	6.31
242.986	5.57
243.368	5.43
243.75	4.98
244.133	5.99
244.515	4.97
244.897	5.22
245.279	5.73
245.661	5.55
246.043	5.53
246.425	5.42
246.807	5.72
247.189	4.85
247.571	5.94
247.953	5.7
248.335	5.84
248.717	5.99
249.098	5.52
249.48	5.38
249.862	5.45
250.243	5.85
250.625	6.04
251.006	5.01
251.388	5.48
251.769	5.9
252.151	4.91
252.532	6.68
252.913	6.09
253.295	6.56
253.676	6.23
254.057	5.96
254.438	5.99
254.819	5.65
255.2	5.94
255.581	5.53
255.962	6.24
256.343	5.35
256.724	5.04
257.105	6.37
257.486	5.85
257.867	6.14
258.247	5.73
258.628	5.66
259.009	5.82
259.389	6.27
259.77	5.9
260.15	6.28
260.531	5.74
260.911	5.11
261.292	5.28
261.672	5.44
262.052	5.49
262.432	5.3
262.813	5.54
263.193	4.94
263.573	6.04
263.953	5.84
264.333	5.78
264.713	5.45
265.093	5.59
265.473	5.2
265.853	4.18
266.233	5.45
266.612	5.5
266.992	5.64
267.372	5.21
267.752	6.32
268.131	5.14
268.511	5.29
268.89	5.72
269.27	5.5
269.649	5.73
270.029	4.88
270.408	5.35
270.787	5.54
271.167	5.26
271.546	4.51
271.925	4.97
272.304	5.63
272.683	5.23
273.062	6.07
273.441	5.31
273.82	5.5
274.199	5.33
274.578	5.52
274.957	5.47
275.336	4.87
275.715	5.32
276.093	4.72
276.472	5.25
276.851	5.12
277.229	4.57
277.608	5.53
277.986	5.19
278.365	5.46
278.743	4.82
279.122	5.2
279.5	5.15
279.878	5.22
280.257	5.9
280.635	5.04
281.013	5.41
281.391	4.62
281.769	5.81
282.147	4.97
282.525	5.13
282.903	5.05
283.281	5.72
283.659	5.23
284.037	5.1
284.415	5.31
284.792	4.96
285.17	5.41
285.548	5.56
285.925	5.52
286.303	5.42
286.68	4.54
287.058	5.31
287.435	4.95
287.813	5.04
288.19	5.09
288.567	5.05
288.945	4.91
289.322	5.14
289.699	5.54
290.076	5.49
290.453	4.89
290.83	5.24
291.207	5.48
291.584	5.09
291.961	5.35
292.338	5.83
292.715	5.37
293.092	5.57
293.469	5.68
293.845	5.53
294.222	6.08
294.599	5.72
294.975	5.91
295.352	6.54
295.728	6.25
296.105	6.5
296.481	6.2
296.858	6.31
297.234	6.1
297.61	5.89
297.986	6.27
298.363	5.7
298.739	6.14
299.115	6.17
299.491	6.17
299.867	6.17
300.243	5.96
300.619	6.61
300.995	6.3
301.371	6.47
301.746	6.62
302.122	6
302.498	6.05
302.874	5.98
303.249	6.3
303.625	5.96
304	7.12
304.376	7.06
304.751	7.41
305.127	6.44
305.502	7.46
305.878	6.81
306.253	6.68
306.628	6.64
307.003	7
307.378	6.62
307.754	7.16
308.129	7.17
308.504	6.78
308.879	7.78
309.254	6.94
309.629	7.48
310.003	8.5
310.378	8.26
310.753	7.53
311.128	7.88
311.502	7.12
311.877	7.68
312.252	7.8
312.626	7.8
313.001	8.03
313.375	7.8
313.75	8.24
314.124	8.19
314.498	7.39
314.873	7.93
315.247	8.34
315.621	8.64
315.995	8.15
316.369	8.77
316.743	8.39
317.117	8.94
317.491	8.25
317.865	8.03
318.239	8.46
318.613	9.2
318.987	8.29
319.361	8.71
319.734	8.73
320.108	8.49
320.482	8.6
320.855	8.58
321.229	9.34
321.602	9.63
321.976	8.13
322.349	9.08
322.723	9.79
323.096	9.41
323.469	9.11
323.843	8.71
324.216	9.39
324.589	9.36
324.962	9.08
325.335	9.4
325.708	9.31
326.081	9.6
326.454	8.93
326.827	9.36
327.2	9.5
327.573	10.04
327.945	9.61
328.318	9.99
328.691	9.6
329.063	9.82
329.436	9.48
329.809	9.97
330.181	9.89
330.553	9.86
330.926	9.95
331.298	9.92
331.671	9.84
332.043	9.27
332.415	10.26
332.787	9.87
333.159	9.78
333.532	9.56
333.904	9.81
334.276	9.74
334.648	9.33
335.02	10.23
335.391	10.17
335.763	10.01
336.135	9.98
336.507	10.06
336.879	10.15
337.25	10.13
337.622	10.55
337.993	10.45
338.365	10.86
338.736	9.98
339.108	10.71
339.479	10.08
339.851	9.79
340.222	10.24
340.593	10.26
340.964	10.09
341.336	10.27
341.707	10.41
342.078	10.48
342.449	9.96
342.82	10.51
343.191	10.35
343.562	10.78
343.933	10.58
344.303	10.86
344.674	11.11
345.045	10.73
345.416	11
345.786	10.46
346.157	10.5
346.527	10.62
346.898	10.97
347.268	10.55
347.639	10.67
348.009	10.82
348.38	10.98
348.75	11.54
349.12	11.16
349.49	11.51
349.861	11.48
350.231	11.22
350.601	11.21
350.971	11.45
351.341	11.02
351.711	11.34
352.081	11.16
352.45	11.43
352.82	11.63
353.19	11.77
353.56	11.18
353.929	11.58
354.299	11.34
354.669	11.69
355.038	11.48
355.408	11.34
355.777	11.98
356.147	11.69
356.516	11.71
356.885	11.74
357.254	11.99
357.624	11.22
357.993	11.48
358.362	11.86
358.731	11.21
359.1	11.62
359.469	11.92
359.838	11.54
360.207	11.83
360.576	11.8
360.945	11.88
361.314	12.11
361.682	12.22
362.051	12.29
362.42	12.21
362.788	11.84
363.157	12.25
363.525	12.18
363.894	11.94
364.262	12.28
364.631	12.09
364.999	11.75
365.367	12.75
365.735	12.07
366.104	12.61
366.472	12.43
366.84	12.47
367.208	12.83
367.576	12.85
367.944	12.47
368.312	12.59
368.68	12.37
369.048	12.53
369.416	12.44
369.783	12.51
370.151	12.57
370.519	12.46
370.886	13.06
371.254	13.23
371.621	12.64
371.989	12.98
372.356	12.74
372.724	13.37
373.091	12.95
373.458	12.8
373.826	13.25
374.193	13.31
374.56	13.17
374.927	12.85
375.294	13.1
375.661	13.06
376.028	13.39
376.395	13.36
376.762	13.37
377.129	13.22
377.496	13.28
377.863	13.7
378.229	13.22
378.596	13.32
378.963	13.65
379.329	13.36
379.696	13.52
380.062	13.22
380.429	13.49
380.795	13.73
381.161	13.45
381.528	13.63
381.894	13.1
382.26	13.56
382.626	13.58
382.993	13.87
383.359	13.59
383.725	13.63
384.091	13.87
384.457	13.64
384.823	13.98
385.188	14.11
385.554	14.13
385.92	14.3
386.286	13.8
386.651	13.84
387.017	14.61
387.383	14.2
387.748	14.32
388.114	14.25
388.479	14.25
388.845	13.82
389.21	13.87
389.575	14.25
389.94	13.87
390.306	14.52
390.671	14.86
391.036	13.92
391.401	14.05
391.766	14.42
392.131	14.33
392.496	14.53
392.861	14.42
393.226	14.71
393.591	14.53
393.956	14.51
394.32	14.64
394.685	14.85
395.05	14.95
395.414	14.67
395.779	14.86
396.143	14.87
396.508	14.72
396.872	14.47
397.236	14.58
397.601	14.69
397.965	14.7
398.329	15.14
398.694	15
399.058	14.9
399.422	15.07
399.786	15.03
400.15	15.01
400.514	15.33
400.878	14.98
401.242	15.18
401.605	14.86
401.969	14.92
402.333	15.26
402.697	14.81
403.06	15.05
403.424	15.06
403.787	15.56
404.151	15.37
404.514	15.24
404.878	15.35
405.241	15.61
405.604	15.54
405.968	15.68
406.331	15.48
406.694	15.7
407.057	15.29
407.42	15.55
407.783	15.6
408.146	15.22
408.509	15.51
408.872	15.52
409.235	15.63
409.598	15.51
409.961	15.6
410.323	15.83
410.686	15.79
411.049	15.65
411.411	15.91
411.774	15.77
412.136	15.74
412.499	15.66
412.861	15.75
413.223	16.17
413.586	15.82
413.948	15.7
414.31	15.78
414.672	15.88
415.035	15.81
415.397	16.32
415.759	16.33
416.121	16.15
416.483	16.24
416.845	16.17
417.206	15.93
417.568	16.17
417.93	16.18
418.292	16.32
418.653	16.21
419.015	15.99
419.377	16.38
419.738	16.43
420.1	16.17
420.461	16.1
420.822	16.02
421.184	16.18
421.545	16.15
421.906	16.14
422.267	16.26
422.629	16.36
422.99	16.21
423.351	16.27
423.712	16.18
424.073	16.33
424.434	16.37
424.795	16.48
425.155	16.38
425.516	16.56
425.877	16.53
426.238	16.41
426.598	16.51
426.959	16.51
427.32	16.91
427.68	16.7
428.041	16.61
428.401	16.81
428.761	16.96
429.122	17
429.482	17.08
429.842	17.01
430.202	17.08
430.563	17.1
430.923	17.17
431.283	17.34
431.643	17.25
432.003	17.28
432.363	17.43
432.722	17.3
433.082	17.58
433.442	17.22
433.802	17.45
434.161	17.49
434.521	17.41
434.881	17.33
435.24	17.45
435.6	17.35
435.959	17.44
436.319	17.44
436.678	17.67
437.037	17.56
437.396	17.57
437.756	17.66
438.115	17.62
438.474	17.78
438.833	17.67
439.192	17.83
439.551	17.91
439.91	17.84
440.269	17.89
440.628	17.66
440.987	17.78
441.345	17.98
441.704	18.03
442.063	18.02
442.421	17.82
442.78	17.89
443.138	17.92
443.497	18.01
443.855	18.03
444.214	17.93
444.572	18.19
444.93	18.09
445.288	18.07
445.647	18.19
446.005	18.24
446.363	18.27
446.721	18.26
447.079	18.2
447.437	18.28
447.795	18.37
448.153	18.15
448.51	18.35
448.868	18.24
449.226	18.33
449.584	18.26
449.941	18.25
450.299	18.44
450.656	18.47
451.014	18.54
451.371	18.68
451.729	18.79
452.086	18.66
452.443	18.94
452.801	18.82
453.158	18.84
453.515	18.86
453.872	19.07
454.229	19.07
454.586	19.03
454.943	18.76
455.3	19.04
455.657	18.82
456.014	19.26
456.371	19.23
456.727	19.42
457.084	19.16
457.441	19.16
457.797	19.2
458.154	19.29
458.51	19.21
458.867	19.34
459.223	19.3
459.58	19.55
459.936	19.35
460.292	19.55
460.648	19.6
461.005	19.43
461.361	19.42
461.717	19.22
462.073	19.29
462.429	19.12
462.785	19.24
463.141	19.42
463.496	19.66
463.852	19.61
464.208	19.66
464.564	19.95
464.919	19.68
465.275	19.96
465.631	19.89
465.986	20
466.342	19.98
466.697	20.07
467.052	19.92
467.408	20.12
467.763	19.85
468.118	20.05
468.473	20.22
468.829	19.95
469.184	20.12
469.539	20.12
469.894	20.18
470.249	20.42
470.603	20.3
470.958	20.4
471.313	20.44
471.668	20.45
472.023	20.47
472.377	20.45
472.732	20.36
473.086	20.63
473.441	20.27
473.795	20.88
474.15	20.45
474.504	20.42
474.859	20.79
475.213	20.55
475.567	20.53
475.921	20.71
476.275	20.54
476.63	20.86
476.984	20.71
477.338	20.95
477.692	21
478.045	21.02
478.399	20.99
478.753	20.91
479.107	21.03
479.461	20.8
479.814	20.94
480.168	20.98
480.521	21.07
480.875	21.14
481.228	21.01
481.582	20.87
481.935	21.06
482.289	21.16
482.642	20.98
482.995	21.06
483.348	21.17
483.701	21.03
484.055	20.98
484.408	20.93
484.761	20.99
485.114	20.79
485.466	20.57
485.819	20.33
486.172	20.4
486.525	20.37
486.878	20.34
487.23	20.46
487.583	20.51
487.936	20.76
488.288	20.92
488.641	20.93
488.993	20.87
489.345	20.78
489.698	20.8
490.05	20.88
490.402	20.83
490.754	20.73
491.107	20.99
491.459	21.16
491.811	21.28
492.163	21.33
492.515	21.43
492.866	21.65
493.218	21.52
493.57	21.46
493.922	21.15
494.274	21.32
494.625	21.26
494.977	21.43
495.328	21.66
495.68	21.82
496.031	21.87
496.383	21.95
496.734	22.26
497.086	22.28
497.437	22.26
497.788	22.22
498.139	22.3
498.49	22.38
498.842	22.28
499.193	22.22
499.544	22.23
499.894	22.29
500.245	22.34
500.596	22.42
500.947	22.52
501.298	22.44
501.648	22.55
501.999	22.76
502.35	22.53
502.7	22.68
503.051	22.71
503.401	22.92
503.752	22.96
504.102	22.91
504.452	22.9
504.803	22.84
505.153	23.06
505.503	22.67
505.853	23.01
506.203	22.77
506.553	23.08
506.903	23.02
507.253	22.96
507.603	23.15
507.953	23.33
508.303	23.11
508.652	23.03
509.002	23.16
509.352	23.28
509.701	23.27
510.051	23.27
510.4	23.16
510.75	23.21
511.099	23.31
511.449	23.19
511.798	23.4
512.147	23.21
512.496	23.28
512.846	23.39
513.195	23.43
513.544	23.29
513.893	23.6
514.242	23.35
514.591	23.66
514.939	23.58
515.288	23.47
515.637	23.57
515.986	23.63
516.334	23.88
516.683	23.81
517.032	23.9
517.38	23.9
517.729	23.89
518.077	24.04
518.426	24.04
518.774	23.94
519.122	24.03
519.47	23.86
519.819	23.98
520.167	24.12
520.515	23.83
520.863	23.82
521.211	23.8
521.559	23.84
521.907	23.82
522.255	24.02
522.602	24.1
522.95	24.24
523.298	24.26
523.645	24.25
523.993	24.36
524.341	24.38
524.688	24.31
525.036	24.41
525.383	24.61
525.73	24.7
526.078	24.3
526.425	24.35
526.772	24.58
527.119	24.52
527.466	24.46
527.814	24.38
528.161	24.38
528.508	24.37
528.854	24.21
529.201	24.41
529.548	24.21
529.895	24.32
530.242	24.14
530.588	23.91
530.935	23.94
531.282	24.05
531.628	24.05
531.975	23.98
532.321	24.15
532.667	24.22
533.014	24.43
533.36	24.72
533.706	24.82
534.052	24.88
534.399	24.75
534.745	24.74
535.091	24.62
535.437	24.61
535.783	24.61
536.129	24.64
536.474	24.67
536.82	24.66
537.166	24.9
537.512	25.16
537.857	25.1
538.203	25.09
538.549	25.16
538.894	24.99
539.239	25.15
539.585	25.14
539.93	25.24
540.276	25.37
540.621	25.35
540.966	25.6
541.311	25.7
541.656	25.8
542.001	25.66
542.346	25.74
542.691	25.87
543.036	25.47
543.381	25.32
543.726	25.16
544.071	25.26
544.415	25.2
544.76	25.26
545.105	25.27
545.449	25.54
545.794	25.68
546.138	25.78
546.483	25.8
546.827	25.94
547.171	25.88
547.516	26.04
547.86	26.09
548.204	26.19
548.548	26.09
548.892	26.08
549.236	25.97
549.58	26.26
549.924	26.23
550.268	26.44
550.612	26.38
550.956	26.3
551.3	26.85
551.643	26.54
551.987	26.64
552.33	26.94
552.674	26.9
553.017	26.87
553.361	26.92
553.704	26.92
554.048	26.97
554.391	27.17
554.734	27.1
555.077	26.91
555.42	26.9
555.764	26.8
556.107	27.05
556.45	26.99
556.793	27.2
557.135	27.21
557.478	27.28
557.821	27.44
558.164	27.24
558.507	27.5
558.849	27.4
559.192	27.46
559.534	27.65
559.877	27.47
560.219	27.55
560.562	27.67
560.904	27.57
561.246	27.79
561.589	27.74
561.931	27.73
562.273	27.59
562.615	27.69
562.957	27.67
563.299	27.8
563.641	27.83
563.983	28.08
564.325	27.96
564.667	28.18
565.008	27.63
565.35	27.9
565.692	27.95
566.033	28.07
566.375	28.02
566.716	28.23
567.058	27.9
567.399	28.03
567.741	28.26
568.082	27.97
568.423	28.32
568.764	28.34
569.105	27.97
569.447	28.15
569.788	27.97
570.129	28.04
570.47	28.33
570.811	28.31
571.151	28.26
571.492	28.22
571.833	28.47
572.174	28.29
572.514	28.63
572.855	28.45
573.195	28.19
573.536	28.68
573.876	28.74
574.217	28.44
574.557	28.68
574.898	28.41
575.238	28.47
575.578	28.68
575.918	28.52
576.258	28.52
576.598	28.78
576.938	28.88
577.278	28.92
577.618	28.68
577.958	28.96
578.298	29.01
578.638	29.12
578.977	29.25
579.317	29
579.657	28.96
579.996	29.1
580.336	29.41
580.675	29.39
581.014	29.12
581.354	29.49
581.693	29.25
582.032	29.58
582.372	29.61
582.711	29.86
583.05	29.54
583.389	29.48
583.728	29.46
584.067	29.52
584.406	29.65
584.745	29.36
585.083	29.93
585.422	29.87
585.761	29.8
586.1	29.75
586.438	29.85
586.777	29.69
587.115	30.02
587.454	29.64
587.792	30.18
588.13	30.01
588.469	29.86
588.807	30.2
589.145	30.07
589.483	30.18
589.821	30.03
590.159	30.12
590.497	30.18
590.835	30.08
591.173	30.06
591.511	30.16
591.849	30.35
592.187	30.24
592.524	30.57
592.862	30.27
593.2	30.33
593.537	30.21
593.875	30.54
594.212	30.7
594.55	30.82
594.887	30.42
595.224	30.85
595.561	30.76
595.899	30.97
596.236	30.84
596.573	30.77
596.91	30.55
597.247	30.71
597.584	30.82
597.921	30.77
598.258	30.62
598.594	30.75
598.931	30.7
599.268	30.72
599.604	30.57
599.941	30.76
600.277	30.84
600.614	30.74
600.95	30.96
601.287	30.77
601.623	31.16
601.959	31.05
602.296	31.22
602.632	30.99
602.968	31.29
603.304	31.21
603.64	31.17
603.976	31.28
604.312	31.26
604.648	31.03
604.984	31.16
605.319	31.31
605.655	31.21
605.991	31.29
606.326	31.26
606.662	31.08
606.998	31.29
607.333	31.42
607.668	31.21
608.004	31.35
608.339	31.29
608.674	31.39
609.01	31.56
609.345	31.48
609.68	31.9
610.015	31.97
610.35	31.74
610.685	31.92
611.02	31.77
611.355	31.98
611.689	31.99
612.024	31.86
612.359	31.85
612.694	31.96
613.028	31.99
613.363	31.81
613.697	31.66
614.032	32.16
614.366	31.86
614.7	31.98
615.035	32.11
615.369	32.25
615.703	32.28
616.037	32.33
616.371	32.48
616.705	32.49
617.039	32.49
617.373	32.62
617.707	32.42
618.041	33.03
618.375	32.54
618.709	32.58
619.042	32.42
619.376	32.45
619.71	32.57
620.043	32.36
620.377	32.29
620.71	32.88
621.043	32.85
621.377	33
621.71	32.47
622.043	33.15
622.376	33.07
622.709	32.79
623.043	32.94
623.376	32.79
623.709	33.22
624.041	33.08
624.374	33.01
624.707	33.35
625.04	33.56
625.373	32.62
625.705	32.6
626.038	33.1
626.37	33.36
626.703	33.33
627.035	32.92
627.368	33.23
627.7	33.52
628.032	33.73
628.365	33.21
628.697	33.36
629.029	33.4
629.361	33.53
629.693	33.24
630.025	33.36
630.357	33.24
630.689	33.47
631.021	33.42
631.353	33.65
631.684	33.73
632.016	33.82
632.348	33.72
632.679	33.55
633.011	33.7
633.342	33.82
633.674	34
634.005	33.99
634.336	33.82
634.668	33.68
634.999	33.91
635.33	34.01
635.661	34.12
635.992	33.65
636.323	33.97
636.654	34.08
636.985	33.95
637.316	33.61
637.647	33.92
637.977	33.72
638.308	34.54
638.639	33.98
638.969	33.93
639.3	34.34
639.63	34.58
639.961	34.56
640.291	33.96
640.622	34.06
640.952	34.11
641.282	34.43
641.612	34.07
641.943	34.63
642.273	34.22
642.603	34.62
642.933	35.01
643.263	34.13
643.592	34.12
643.922	34.9
644.252	34.69
644.582	34.8
644.911	34.74
645.241	35.11
645.571	34.34
645.9	34.48
646.23	34.72
646.559	34.83
646.888	35
647.218	34.65
647.547	35.45
647.876	34.81
648.205	34.22
648.534	35.26
648.863	34.58
649.192	34.68
649.521	35.01
649.85	35.82
650.179	35.01
650.508	35.27
650.837	35.57
651.165	35.02
651.494	34.91
651.822	34.99
652.151	34.87
652.479	35.04
652.808	34.84
653.136	35.18
653.465	35.61
653.793	35.46
654.121	35.58
654.449	34.8
654.777	35.37
655.105	35.77
655.433	35.34
655.761	35.78
656.089	35.36
656.417	34.57
656.745	35.39
657.073	35.98
657.4	36.33
657.728	35.66
658.056	35.5
658.383	35.85
658.711	35.77
659.038	35.4
659.365	35.48
659.693	35.76
660.02	35.93
660.347	36.31
660.674	35.86
661.001	35.99
661.329	35.96
661.656	36.17
661.982	35.64
662.309	36.52
662.636	35.87
662.963	35.9
663.29	35.76
663.616	35.37
663.943	36.37
664.27	36.48
664.596	36.53
664.923	36.06
665.249	35.85
665.576	35.75
665.902	35.51
666.228	36.23
666.554	35.77
666.881	36.63
667.207	36.59
667.533	36.29
667.859	36.44
668.185	36.72
668.511	36.97
668.837	36.75
669.162	37.24
669.488	36.69
669.814	36.13
670.139	36.26
