Data from 0235_chest_Reflection__2__285.txt Node

Date: Fri Sep 22 22:59:46 CDT 2023
User: ToomeyLab
Spectrometer: FLMS14357
Trigger mode: 0
Integration Time (sec): 1.000000E-2
Scans to average: 100
Electric dark correction enabled: true
Nonlinearity correction enabled: false
Boxcar width: 0
XAxis mode: Wavelengths
Number of Pixels in Spectrum: 2048
>>>>>Begin Spectral Data<<<<<
189.047	206.27
189.435	206.27
189.823	206.27
190.211	112.83
190.599	107.58
190.987	-98.42
191.375	12771.43
191.763	38.19
192.151	1044.56
192.538	37.66
192.926	161.58
193.314	96.98
193.702	1441.08
194.089	95.07
194.477	4.61
194.864	163.1
195.252	77.34
195.639	188.96
196.027	178.32
196.414	701.04
196.801	-1612.39
197.189	2.6
197.576	150.5
197.963	-158.81
198.351	38.44
198.738	25.85
199.125	18.4
199.512	45.48
199.899	26.69
200.286	76.7
200.673	18.63
201.06	7.91
201.447	47.85
201.833	11.7
202.22	14.69
202.607	4.95
202.994	24.16
203.38	6.49
203.767	14.81
204.154	41.97
204.54	62.96
204.927	-7.72
205.313	51.72
205.699	38.25
206.086	20.59
206.472	45.48
206.858	33.85
207.245	-12.93
207.631	47.18
208.017	28.36
208.403	36.72
208.789	12.84
209.175	29.52
209.561	41.7
209.947	47.79
210.333	30.6
210.719	11.56
211.105	24.74
211.491	22.38
211.876	20.63
212.262	13.15
212.648	33.85
213.034	20.99
213.419	21.43
213.805	34.22
214.19	2.1
214.576	37.11
214.961	12.89
215.346	13.08
215.732	8.18
216.117	11.17
216.502	26.72
216.888	15.65
217.273	19.44
217.658	-8.93
218.043	4.35
218.428	36.09
218.813	-4.2
219.198	6.81
219.583	17.69
219.968	23.97
220.353	36.97
220.738	18.31
221.122	11.1
221.507	-14.26
221.892	3.56
222.276	18.93
222.661	-2.11
223.046	11.21
223.43	22.66
223.815	9.58
224.199	-6.13
224.583	18.9
224.968	12.6
225.352	-1.92
225.736	12.02
226.121	2.22
226.505	1.9
226.889	0.57
227.273	8.9
227.657	3.36
228.041	12.98
228.425	9.41
228.809	1.25
229.193	7.85
229.577	7.48
229.961	8.42
230.344	8.09
230.728	4.31
231.112	5.29
231.495	4.49
231.879	5.05
232.263	4.82
232.646	4.86
233.03	3.67
233.413	5.15
233.797	5.35
234.18	6.32
234.563	6.9
234.946	7.22
235.33	3.39
235.713	2.2
236.096	4.82
236.479	4.08
236.862	8.73
237.245	4.92
237.628	6.69
238.011	5.99
238.394	6.6
238.777	6.52
239.16	7.87
239.543	4.93
239.925	5.71
240.308	3.98
240.691	5.74
241.073	5.49
241.456	6.44
241.838	4.17
242.221	5.44
242.603	6.11
242.986	5.29
243.368	5.59
243.75	6.26
244.133	6.08
244.515	5.63
244.897	5.4
245.279	5.67
245.661	4.99
246.043	5.76
246.425	6.36
246.807	4.51
247.189	5.33
247.571	5.77
247.953	5.88
248.335	6.03
248.717	6.05
249.098	5.71
249.48	5.64
249.862	5.38
250.243	5.68
250.625	6.01
251.006	5.28
251.388	5.78
251.769	6.33
252.151	5.58
252.532	5.31
252.913	5.51
253.295	7.31
253.676	6.13
254.057	5.9
254.438	6.16
254.819	5.88
255.2	5.85
255.581	5.67
255.962	6.91
256.343	5.91
256.724	4.72
257.105	5.78
257.486	6.04
257.867	6.49
258.247	5.62
258.628	6.5
259.009	6.5
259.389	5.49
259.77	6.11
260.15	6.81
260.531	5.77
260.911	5.7
261.292	6.03
261.672	5.31
262.052	5.44
262.432	5.28
262.813	5.47
263.193	5.18
263.573	5.45
263.953	5.96
264.333	5.51
264.713	5.6
265.093	5.36
265.473	4.78
265.853	5.28
266.233	5.2
266.612	5.53
266.992	5.94
267.372	5.97
267.752	6.57
268.131	5.65
268.511	4.86
268.89	5.55
269.27	5.05
269.649	5.52
270.029	5.44
270.408	5.11
270.787	4.87
271.167	5.39
271.546	4.98
271.925	5.34
272.304	5.31
272.683	5.03
273.062	6.11
273.441	5.01
273.82	5.16
274.199	5.15
274.578	5.25
274.957	5.14
275.336	4.8
275.715	5.65
276.093	4.75
276.472	4.58
276.851	5.03
277.229	4.5
277.608	5.23
277.986	4.83
278.365	5.3
278.743	5.32
279.122	5.22
279.5	5.88
279.878	4.59
280.257	5.91
280.635	4.97
281.013	5.96
281.391	4.27
281.769	4.58
282.147	4.77
282.525	4.99
282.903	5.53
283.281	5.22
283.659	5.23
284.037	4.71
284.415	5.52
284.792	4.73
285.17	4.89
285.548	5.57
285.925	5.42
286.303	5.56
286.68	4.4
287.058	5.04
287.435	4.94
287.813	5.1
288.19	4.69
288.567	5.29
288.945	4.52
289.322	4.98
289.699	5.48
290.076	5.05
290.453	4.42
290.83	4.66
291.207	4.77
291.584	4.8
291.961	4.83
292.338	5.36
292.715	5.74
293.092	5.56
293.469	5.4
293.845	5.07
294.222	5.5
294.599	6.03
294.975	6.15
295.352	5.9
295.728	5.41
296.105	5.76
296.481	5.7
296.858	5.78
297.234	5.72
297.61	5.33
297.986	5.88
298.363	5.88
298.739	6.03
299.115	6.13
299.491	5.78
299.867	6.13
300.243	5.89
300.619	5.74
300.995	6.13
301.371	6.15
301.746	5.65
302.122	6.39
302.498	6.13
302.874	5.86
303.249	5.98
303.625	5.8
304	6.23
304.376	6.67
304.751	5.91
305.127	6.21
305.502	7.01
305.878	6.91
306.253	6.52
306.628	5.95
307.003	6.38
307.378	6.07
307.754	6.24
308.129	6.91
308.504	6.08
308.879	6.96
309.254	6.45
309.629	6.22
310.003	6.64
310.378	6.67
310.753	6.52
311.128	6.5
311.502	6.26
311.877	6.21
312.252	6.33
312.626	6.57
313.001	7.08
313.375	6.74
313.75	6.56
314.124	7.19
314.498	6.3
314.873	6.61
315.247	6.96
315.621	6.85
315.995	6.35
316.369	6.63
316.743	6.57
317.117	6.78
317.491	7.17
317.865	6.33
318.239	6.74
318.613	6.89
318.987	7.14
319.361	6.49
319.734	6.83
320.108	7.3
320.482	6.38
320.855	6.48
321.229	7.37
321.602	7.16
321.976	6.72
322.349	6.81
322.723	7.15
323.096	7.35
323.469	6.49
323.843	6.16
324.216	6.89
324.589	6.57
324.962	6.74
325.335	7.31
325.708	6.89
326.081	7.2
326.454	6.53
326.827	7.05
327.2	6.98
327.573	7.04
327.945	6.76
328.318	7.62
328.691	7.19
329.063	6.56
329.436	7.12
329.809	6.89
330.181	7.09
330.553	7.17
330.926	6.9
331.298	7.04
331.671	7.38
332.043	6.53
332.415	6.92
332.787	7.03
333.159	6.75
333.532	6.71
333.904	6.63
334.276	7.09
334.648	6.52
335.02	7.24
335.391	7.23
335.763	7.24
336.135	7.14
336.507	6.84
336.879	7.01
337.25	6.83
337.622	7.34
337.993	7.32
338.365	7.66
338.736	7.21
339.108	6.81
339.479	7.42
339.851	6.73
340.222	6.85
340.593	6.71
340.964	6.79
341.336	7.31
341.707	6.72
342.078	7.09
342.449	7.48
342.82	6.67
343.191	6.37
343.562	6.77
343.933	6.82
344.303	6.86
344.674	7.31
345.045	6.75
345.416	7.18
345.786	6.9
346.157	6.37
346.527	6.98
346.898	7.02
347.268	6.82
347.639	6.98
348.009	6.94
348.38	6.81
348.75	7.06
349.12	6.91
349.49	7.24
349.861	6.73
350.231	6.99
350.601	6.89
350.971	7.57
351.341	6.78
351.711	7.21
352.081	6.6
352.45	7.01
352.82	7.4
353.19	7.24
353.56	6.8
353.929	7.2
354.299	7.33
354.669	7.29
355.038	7.09
355.408	6.71
355.777	7.39
356.147	7.35
356.516	7.22
356.885	6.97
357.254	7.05
357.624	7.17
357.993	7.17
358.362	7.07
358.731	7.05
359.1	7.15
359.469	6.91
359.838	6.78
360.207	6.82
360.576	7.01
360.945	6.72
361.314	6.94
361.682	7.48
362.051	7.26
362.42	6.63
362.788	6.91
363.157	7.12
363.525	7.2
363.894	6.86
364.262	6.91
364.631	7.09
364.999	6.81
365.367	7.3
365.735	6.84
366.104	6.77
366.472	7.12
366.84	7.08
367.208	7.41
367.576	7.25
367.944	7.14
368.312	7.13
368.68	7.23
369.048	7.35
369.416	7.03
369.783	6.89
370.151	7.05
370.519	6.83
370.886	7.3
371.254	7.72
371.621	7.27
371.989	7.13
372.356	6.94
372.724	7.15
373.091	7.16
373.458	7.28
373.826	7.29
374.193	7.16
374.56	7.23
374.927	7.28
375.294	7.11
375.661	7.22
376.028	7.22
376.395	7.3
376.762	7.12
377.129	7.14
377.496	7.54
377.863	7.53
378.229	7.16
378.596	7.03
378.963	7.51
379.329	7.13
379.696	7.8
380.062	6.92
380.429	7.26
380.795	7.09
381.161	7.03
381.528	7.06
381.894	6.8
382.26	7.42
382.626	7.35
382.993	7.25
383.359	7.19
383.725	7.03
384.091	7.35
384.457	7.32
384.823	7.06
385.188	7.64
385.554	7.31
385.92	7.83
386.286	7.46
386.651	7.29
387.017	7.17
387.383	7.2
387.748	7.22
388.114	7.76
388.479	7.35
388.845	7.27
389.21	7.04
389.575	7.3
389.94	7.02
390.306	7.6
390.671	7.48
391.036	6.91
391.401	7.2
391.766	7.26
392.131	7.43
392.496	7.61
392.861	7.35
393.226	7.6
393.591	7.57
393.956	7.58
394.32	7.31
394.685	7.29
395.05	7.53
395.414	7.58
395.779	7.71
396.143	7.39
396.508	7.45
396.872	7.53
397.236	7.37
397.601	7.33
397.965	7.51
398.329	7.5
398.694	7.47
399.058	7.46
399.422	7.3
399.786	7.64
400.15	7.8
400.514	7.68
400.878	7.66
401.242	7.62
401.605	7.49
401.969	7.33
402.333	7.59
402.697	7.4
403.06	7.73
403.424	7.5
403.787	7.94
404.151	7.49
404.514	7.47
404.878	7.82
405.241	7.87
405.604	7.62
405.968	7.67
406.331	7.58
406.694	7.54
407.057	7.37
407.42	7.77
407.783	7.67
408.146	7.91
408.509	7.57
408.872	7.67
409.235	7.77
409.598	7.48
409.961	7.86
410.323	7.73
410.686	7.76
411.049	8
411.411	7.88
411.774	7.69
412.136	7.6
412.499	7.69
412.861	7.79
413.223	7.78
413.586	7.6
413.948	7.61
414.31	7.76
414.672	7.88
415.035	7.67
415.397	8
415.759	8.17
416.121	7.73
416.483	7.77
416.845	7.54
417.206	7.51
417.568	7.65
417.93	7.75
418.292	7.84
418.653	7.63
419.015	7.71
419.377	7.59
419.738	7.65
420.1	7.64
420.461	7.77
420.822	7.67
421.184	7.63
421.545	7.69
421.906	7.64
422.267	7.66
422.629	7.67
422.99	7.73
423.351	7.63
423.712	7.6
424.073	7.57
424.434	7.78
424.795	7.85
425.155	7.79
425.516	7.71
425.877	7.62
426.238	7.71
426.598	7.68
426.959	7.71
427.32	7.81
427.68	7.75
428.041	7.81
428.401	7.87
428.761	7.88
429.122	7.82
429.482	7.99
429.842	7.86
430.202	7.84
430.563	8.16
430.923	8.17
431.283	8.17
431.643	8.11
432.003	8.01
432.363	7.92
432.722	8.02
433.082	7.91
433.442	8.03
433.802	8.23
434.161	8.06
434.521	8.14
434.881	7.98
435.24	7.97
435.6	7.77
435.959	7.83
436.319	7.92
436.678	8.1
437.037	8.05
437.396	8.03
437.756	7.94
438.115	8.04
438.474	8
438.833	8.34
439.192	8.15
439.551	8.17
439.91	8.28
440.269	8.27
440.628	8.04
440.987	8.12
441.345	8.33
441.704	8.14
442.063	8.13
442.421	8.07
442.78	8.1
443.138	8.09
443.497	8.04
443.855	8.14
444.214	8.01
444.572	8.31
444.93	8.14
445.288	8.28
445.647	8.28
446.005	8.12
446.363	8.03
446.721	8.26
447.079	8.15
447.437	8.26
447.795	8.15
448.153	8.15
448.51	8.09
448.868	8.1
449.226	8.1
449.584	8.1
449.941	8.14
450.299	8.32
450.656	8.36
451.014	8.28
451.371	8.28
451.729	8.28
452.086	8.37
452.443	8.26
452.801	8.29
453.158	8.44
453.515	8.38
453.872	8.4
454.229	8.39
454.586	8.42
454.943	8.29
455.3	8.39
455.657	8.49
456.014	8.49
456.371	8.36
456.727	8.51
457.084	8.5
457.441	8.29
457.797	8.48
458.154	8.55
458.51	8.36
458.867	8.37
459.223	8.5
459.58	8.66
459.936	8.56
460.292	8.5
460.648	8.51
461.005	8.66
461.361	8.67
461.717	8.34
462.073	8.39
462.429	8.32
462.785	8.43
463.141	8.44
463.496	8.59
463.852	8.7
464.208	8.49
464.564	8.68
464.919	8.59
465.275	8.88
465.631	8.78
465.986	8.91
466.342	8.75
466.697	8.85
467.052	8.72
467.408	8.68
467.763	8.8
468.118	8.91
468.473	8.9
468.829	8.61
469.184	8.71
469.539	8.84
469.894	8.71
470.249	8.8
470.603	8.8
470.958	8.82
471.313	8.77
471.668	8.79
472.023	8.81
472.377	8.79
472.732	8.7
473.086	9.15
473.441	8.78
473.795	9.18
474.15	8.78
474.504	8.93
474.859	9.06
475.213	8.65
475.567	8.65
475.921	8.84
476.275	8.88
476.63	8.81
476.984	8.95
477.338	9.2
477.692	9.13
478.045	9.05
478.399	9.05
478.753	8.97
479.107	9.11
479.461	9.16
479.814	9.15
480.168	9.1
480.521	9.09
480.875	9.12
481.228	9.03
481.582	8.96
481.935	9.1
482.289	9.08
482.642	8.84
482.995	9.12
483.348	9.15
483.701	9.1
484.055	8.98
484.408	9.07
484.761	9.12
485.114	8.89
485.466	8.87
485.819	8.69
486.172	8.61
486.525	8.62
486.878	8.69
487.23	8.76
487.583	8.82
487.936	8.95
488.288	8.96
488.641	8.98
488.993	8.93
489.345	8.96
489.698	8.9
490.05	8.85
490.402	8.88
490.754	8.89
491.107	8.93
491.459	9.01
491.811	9.08
492.163	9.17
492.515	9.25
492.866	9.18
493.218	9.26
493.57	9.22
493.922	9
494.274	8.97
494.625	9.08
494.977	9.19
495.328	9.25
495.68	9.33
496.031	9.38
496.383	9.48
496.734	9.54
497.086	9.39
497.437	9.69
497.788	9.67
498.139	9.64
498.49	9.73
498.842	9.37
499.193	9.45
499.544	9.58
499.894	9.53
500.245	9.63
500.596	9.59
500.947	9.72
501.298	9.52
501.648	9.63
501.999	9.79
502.35	9.72
502.7	9.73
503.051	9.7
503.401	9.84
503.752	9.82
504.102	9.83
504.452	9.75
504.803	9.78
505.153	9.93
505.503	9.71
505.853	9.89
506.203	9.77
506.553	9.92
506.903	9.85
507.253	9.94
507.603	9.99
507.953	10.05
508.303	9.99
508.652	9.86
509.002	10.16
509.352	9.85
509.701	9.93
510.051	10
510.4	9.98
510.75	9.98
511.099	10.06
511.449	10.02
511.798	10.13
512.147	10.07
512.496	10.13
512.846	9.96
513.195	10.09
513.544	10.17
513.893	10.23
514.242	10.18
514.591	10.19
514.939	10.17
515.288	10.15
515.637	10.22
515.986	10.21
516.334	10.3
516.683	10.44
517.032	10.55
517.38	10.33
517.729	10.27
518.077	10.44
518.426	10.38
518.774	10.47
519.122	10.4
519.47	10.3
519.819	10.32
520.167	10.5
520.515	10.35
520.863	10.37
521.211	10.32
521.559	10.42
521.907	10.39
522.255	10.48
522.602	10.58
522.95	10.51
523.298	10.59
523.645	10.76
523.993	10.61
524.341	10.69
524.688	10.65
525.036	10.71
525.383	10.78
525.73	10.76
526.078	10.79
526.425	10.74
526.772	10.8
527.119	10.77
527.466	10.72
527.814	10.64
528.161	10.67
528.508	10.65
528.854	10.66
529.201	10.77
529.548	10.66
529.895	10.72
530.242	10.69
530.588	10.6
530.935	10.51
531.282	10.49
531.628	10.6
531.975	10.63
532.321	10.7
532.667	10.79
533.014	10.98
533.36	10.95
533.706	11.01
534.052	11.14
534.399	11.16
534.745	11.16
535.091	11.03
535.437	11
535.783	11
536.129	11.02
536.474	11.08
536.82	11.1
537.166	11.29
537.512	11.35
537.857	11.32
538.203	11.38
538.549	11.41
538.894	11.23
539.239	11.27
539.585	11.41
539.93	11.52
540.276	11.47
540.621	11.41
540.966	11.54
541.311	11.68
541.656	11.63
542.001	11.74
542.346	11.77
542.691	11.75
543.036	11.55
543.381	11.46
543.726	11.54
544.071	11.49
544.415	11.52
544.76	11.49
545.105	11.48
545.449	11.62
545.794	11.71
546.138	11.86
546.483	11.98
546.827	11.93
547.171	11.9
547.516	12.04
547.86	12.14
548.204	12.04
548.548	12
548.892	12.15
549.236	12.1
549.58	12.22
549.924	12.25
550.268	12.34
550.612	12.21
550.956	12.42
551.3	12.5
551.643	12.46
551.987	12.61
552.33	12.66
552.674	12.53
553.017	12.58
553.361	12.57
553.704	12.75
554.048	12.73
554.391	12.8
554.734	12.69
555.077	12.77
555.42	12.72
555.764	12.81
556.107	12.83
556.45	12.81
556.793	12.79
557.135	12.96
557.478	12.75
557.821	12.98
558.164	13.13
558.507	13.14
558.849	13
559.192	13.28
559.534	13.29
559.877	12.95
560.219	13.26
560.562	13.16
560.904	13.27
561.246	13.5
561.589	13.39
561.931	13.44
562.273	13.33
562.615	13.3
562.957	13.35
563.299	13.39
563.641	13.43
563.983	13.5
564.325	13.45
564.667	13.45
565.008	13.56
565.35	13.66
565.692	13.63
566.033	13.75
566.375	13.64
566.716	13.89
567.058	13.84
567.399	13.91
567.741	14
568.082	13.68
568.423	13.89
568.764	14.18
569.105	13.75
569.447	13.88
569.788	13.83
570.129	14.1
570.47	14.15
570.811	13.9
571.151	14.15
571.492	14.11
571.833	13.94
572.174	14.2
572.514	14.22
572.855	14.13
573.195	14.11
573.536	14.32
573.876	14.38
574.217	14.4
574.557	14.26
574.898	14.46
575.238	14.33
575.578	14.36
575.918	14.6
576.258	14.29
576.598	14.56
576.938	14.66
577.278	14.5
577.618	14.42
577.958	14.7
578.298	14.87
578.638	14.81
578.977	14.94
579.317	14.82
579.657	14.7
579.996	14.77
580.336	15.07
580.675	15.05
581.014	15.05
581.354	14.98
581.693	15.11
582.032	15.23
582.372	15.04
582.711	15.18
583.05	15.23
583.389	15.24
583.728	15.33
584.067	15.18
584.406	15.66
584.745	15.08
585.083	15.76
585.422	15.38
585.761	15.48
586.1	15.6
586.438	15.84
586.777	15.58
587.115	15.68
587.454	15.3
587.792	15.7
588.13	16.07
588.469	15.89
588.807	15.84
589.145	15.91
589.483	15.7
589.821	15.79
590.159	16.01
590.497	16.23
590.835	16.22
591.173	15.97
591.511	16.17
591.849	16.27
592.187	15.92
592.524	16.12
592.862	16.25
593.2	16.15
593.537	16.14
593.875	16.01
594.212	16.17
594.55	16.4
594.887	16.07
595.224	16.35
595.561	16.4
595.899	16.62
596.236	16.72
596.573	16.44
596.91	16.68
597.247	16.49
597.584	16.72
597.921	16.72
598.258	16.59
598.594	16.55
598.931	16.58
599.268	16.7
599.604	16.91
599.941	16.83
600.277	16.63
600.614	16.84
600.95	17.02
601.287	16.87
601.623	16.93
601.959	17.17
602.296	17.15
602.632	16.89
602.968	17.55
603.304	17.02
603.64	17.16
603.976	17.48
604.312	17.15
604.648	17.18
604.984	17.29
605.319	17.36
605.655	17.41
605.991	17.34
606.326	17.43
606.662	17.36
606.998	17.3
607.333	17.62
607.668	17.48
608.004	17.43
608.339	17.37
608.674	17.57
609.01	17.22
609.345	17.49
609.68	17.82
610.015	17.78
610.35	17.76
610.685	17.97
611.02	17.96
611.355	18.08
611.689	17.97
612.024	18
612.359	18.07
612.694	18.03
613.028	18.01
613.363	17.69
613.697	17.84
614.032	17.89
614.366	17.79
614.7	18.22
615.035	18.47
615.369	18.81
615.703	18.24
616.037	18.02
616.371	18.75
616.705	19.13
617.039	18.56
617.373	18.28
617.707	18.56
618.041	18.76
618.375	18.74
618.709	18.65
619.042	18.9
619.376	18.63
619.71	18.63
620.043	18.51
620.377	18.76
620.71	18.91
621.043	19.18
621.377	18.78
621.71	19.12
622.043	19.07
622.376	19.08
622.709	19.23
623.043	19.44
623.376	19.02
623.709	19.46
624.041	19.36
624.374	19.49
624.707	19.7
625.04	19.58
625.373	19.24
625.705	19.43
626.038	19.11
626.37	19.56
626.703	19.54
627.035	19.51
627.368	19.66
627.7	19.51
628.032	19.7
628.365	19.76
628.697	19.82
629.029	19.86
629.361	19.68
629.693	19.55
630.025	19.81
630.357	19.68
630.689	19.94
631.021	19.85
631.353	20
631.684	20.1
632.016	20.19
632.348	20.16
632.679	19.82
633.011	19.85
633.342	20.08
633.674	20.32
634.005	19.88
634.336	20.12
634.668	20.25
634.999	19.98
635.33	20.64
635.661	20.4
635.992	20.28
636.323	20.33
636.654	20.6
636.985	20.41
637.316	20.34
637.647	20.23
637.977	20.53
638.308	20.88
638.639	20.22
638.969	20.31
639.3	20.56
639.63	20.91
639.961	20.46
640.291	20.48
640.622	21.11
640.952	20.94
641.282	21.34
641.612	21.18
641.943	21.1
642.273	20.97
642.603	21.14
642.933	21.2
643.263	20.64
643.592	21.3
643.922	21.42
644.252	21.04
644.582	21.37
644.911	20.8
645.241	20.91
645.571	21.25
645.9	21.41
646.23	21.36
646.559	21.52
646.888	21.31
647.218	21.62
647.547	21.08
647.876	21.53
648.205	21.48
648.534	21.34
648.863	21.66
649.192	21.24
649.521	21.38
649.85	21.78
650.179	21.88
650.508	21.53
650.837	22.14
651.165	22.08
651.494	21.41
651.822	21.38
652.151	21.61
652.479	22.12
652.808	21.7
653.136	22.26
653.465	22.1
653.793	22.02
654.121	22.54
654.449	21.95
654.777	22.16
655.105	22.46
655.433	22.27
655.761	22.5
656.089	22.52
656.417	22.53
656.745	22.71
657.073	22.29
657.4	23.2
657.728	22.43
658.056	22.92
658.383	22.76
658.711	21.99
659.038	22.04
659.365	22.75
659.693	22.67
660.02	23.17
660.347	22.57
660.674	22.49
661.001	22.33
661.329	22.29
661.656	22.54
661.982	22.61
662.309	23
662.636	22.48
662.963	22.65
663.29	23.22
663.616	22.5
663.943	23.46
664.27	23.01
664.596	23
664.923	22.8
665.249	23.11
665.576	22.44
665.902	23.16
666.228	23.07
666.554	23.08
666.881	23.47
667.207	23.27
667.533	22.7
667.859	23.11
668.185	23.71
668.511	23.66
668.837	23.1
669.162	23.25
669.488	23.48
669.814	24.1
670.139	23.85
670.465	23.88
670.791	23.76
671.116	23.74
671.442	24.34
671.767	22.77
672.092	23.99
672.418	23.61
672.743	23.7
673.068	23.75
673.393	23.37
673.718	24.35
674.043	24.79
674.368	24.33
674.693	24.11
675.018	24.21
675.343	23.43
675.667	23.45
675.992	23.59
676.317	24.16
676.641	24.4
676.966	24.25
677.29	23.6
677.615	24.47
677.939	24.49
678.264	23.83
678.588	24.88
678.912	24.03
679.236	24.21
679.56	24.47
679.885	24.05
680.209	24.82
680.532	24.14
680.856	23.8
681.18	25.15
681.504	24.69
