Data from 0235_chest_Reflection__4__287.txt Node

Date: Fri Sep 22 23:00:15 CDT 2023
User: ToomeyLab
Spectrometer: FLMS14357
Trigger mode: 0
Integration Time (sec): 1.000000E-2
Scans to average: 100
Electric dark correction enabled: true
Nonlinearity correction enabled: false
Boxcar width: 0
XAxis mode: Wavelengths
Number of Pixels in Spectrum: 2048
>>>>>Begin Spectral Data<<<<<
189.047	-134.12
189.435	-134.12
189.823	-134.12
190.211	-125.48
190.599	-247.61
190.987	-4.16
191.375	-5000
191.763	85.35
192.151	631.83
192.538	66.97
192.926	21.9
193.314	-26.31
193.702	699.46
194.089	134.65
194.477	-88.17
194.864	99.65
195.252	11.52
195.639	137.07
196.027	48.51
196.414	87.89
196.801	-1474.34
197.189	131.67
197.576	309.48
197.963	-104
198.351	23.99
198.738	-4.75
199.125	-5.32
199.512	51.93
199.899	23.75
200.286	81.38
200.673	-12.85
201.06	12.39
201.447	48.61
201.833	-0.21
202.22	34.63
202.607	9.55
202.994	60.07
203.38	37.12
203.767	-9.26
204.154	29.78
204.54	43.49
204.927	5.72
205.313	16.19
205.699	50.24
206.086	28.67
206.472	47.23
206.858	27.88
207.245	-0.65
207.631	37.43
208.017	37.77
208.403	16.55
208.789	28.49
209.175	33.05
209.561	28.18
209.947	56
210.333	49.18
210.719	-17.29
211.105	24
211.491	4.71
211.876	45.11
212.262	45.69
212.648	26.69
213.034	39.61
213.419	22.51
213.805	11.25
214.19	9.25
214.576	27.13
214.961	18.59
215.346	-14.94
215.732	26.62
216.117	29.88
216.502	57.37
216.888	15.83
217.273	31.6
217.658	5.96
218.043	34.46
218.428	43.3
218.813	-9.57
219.198	14.15
219.583	24.54
219.968	-1.86
220.353	20.36
220.738	-0.82
221.122	20.99
221.507	13.98
221.892	16.28
222.276	12.28
222.661	-17.16
223.046	26.73
223.43	18.43
223.815	7.81
224.199	8.46
224.583	5.71
224.968	21.45
225.352	6.88
225.736	15.1
226.121	8.99
226.505	17.2
226.889	10.83
227.273	6.2
227.657	3.13
228.041	7.75
228.425	9.45
228.809	5.91
229.193	4.36
229.577	5.11
229.961	7.07
230.344	5.11
230.728	4.24
231.112	5.94
231.495	4.62
231.879	4.72
232.263	5.43
232.646	5.25
233.03	4.94
233.413	4.55
233.797	4.84
234.18	5.86
234.563	8.18
234.946	6.77
235.33	4.74
235.713	2.84
236.096	5.61
236.479	3.31
236.862	6.29
237.245	5.86
237.628	5.89
238.011	4.87
238.394	5.55
238.777	7.98
239.16	5.14
239.543	7.47
239.925	5.33
240.308	5.13
240.691	6.77
241.073	5.67
241.456	6.13
241.838	6.05
242.221	5.49
242.603	5.4
242.986	4.87
243.368	5.09
243.75	6.06
244.133	6.31
244.515	4.97
244.897	5.37
245.279	4.93
245.661	5.2
246.043	5.73
246.425	4.16
246.807	6.2
247.189	3.93
247.571	6.19
247.953	6.08
248.335	5.51
248.717	5.42
249.098	5.51
249.48	5.38
249.862	5.31
250.243	5.34
250.625	5.92
251.006	4.92
251.388	5.45
251.769	6.35
252.151	5.14
252.532	5.38
252.913	5.36
253.295	7.14
253.676	5.99
254.057	5.68
254.438	5.62
254.819	4.66
255.2	5.32
255.581	5.18
255.962	6.65
256.343	4.75
256.724	4.22
257.105	6.22
257.486	5.77
257.867	5.48
258.247	5.55
258.628	6.9
259.009	5.56
259.389	4.57
259.77	5.44
260.15	6.23
260.531	4.98
260.911	5.29
261.292	5.27
261.672	4.5
262.052	5.01
262.432	5.19
262.813	5.51
263.193	5
263.573	5.73
263.953	4.87
264.333	5.14
264.713	5.6
265.093	5.01
265.473	5.05
265.853	5.52
266.233	4.85
266.612	4.3
266.992	5.7
267.372	5.45
267.752	5.24
268.131	4.93
268.511	4.99
268.89	5.42
269.27	4.8
269.649	5.35
270.029	4.82
270.408	4.9
270.787	4.64
271.167	4.66
271.546	4.67
271.925	5.52
272.304	4.41
272.683	4.78
273.062	5.47
273.441	5.02
273.82	5.06
274.199	4.89
274.578	4.98
274.957	4.67
275.336	4.4
275.715	4.82
276.093	4.76
276.472	4.33
276.851	5.14
277.229	4.7
277.608	5.39
277.986	4.89
278.365	4.92
278.743	4.88
279.122	4.45
279.5	5.27
279.878	4.99
280.257	5.72
280.635	4.28
281.013	4.97
281.391	4.43
281.769	4.93
282.147	4.48
282.525	4.7
282.903	5.03
283.281	4.88
283.659	5.48
284.037	5.23
284.415	4.95
284.792	4.52
285.17	4.58
285.548	5.39
285.925	4.92
286.303	4.54
286.68	4.27
287.058	4.68
287.435	4.98
287.813	4.62
288.19	4.32
288.567	4.66
288.945	4.59
289.322	4.83
289.699	4.8
290.076	4.84
290.453	4.94
290.83	4.35
291.207	4.97
291.584	4.97
291.961	4.82
292.338	4.9
292.715	5.24
293.092	4.91
293.469	5
293.845	4.82
294.222	5.22
294.599	5.17
294.975	5.39
295.352	5.19
295.728	5.25
296.105	5.7
296.481	5.41
296.858	5.48
297.234	5.33
297.61	5.62
297.986	5.51
298.363	5.34
298.739	4.97
299.115	5.56
299.491	5.47
299.867	5.5
300.243	5.19
300.619	5.29
300.995	5.3
301.371	6.04
301.746	5.75
302.122	5.53
302.498	5.42
302.874	5.71
303.249	5.53
303.625	5.13
304	5.91
304.376	5.86
304.751	5.82
305.127	5.87
305.502	5.6
305.878	5.63
306.253	5.9
306.628	6.3
307.003	5.65
307.378	5.79
307.754	6.09
308.129	5.83
308.504	5.11
308.879	6.15
309.254	5.8
309.629	6.04
310.003	6.31
310.378	6.36
310.753	6.03
311.128	6.06
311.502	6.03
311.877	5.53
312.252	5.68
312.626	5.95
313.001	6.5
313.375	6.05
313.75	6.02
314.124	5.96
314.498	5.25
314.873	5.98
315.247	6.01
315.621	5.7
315.995	5.85
316.369	6.28
316.743	6.24
317.117	6.33
317.491	6.49
317.865	6.1
318.239	6.2
318.613	6.17
318.987	6.1
319.361	5.39
319.734	5.9
320.108	5.95
320.482	6.03
320.855	5.91
321.229	6.71
321.602	6.28
321.976	5.69
322.349	6.08
322.723	5.93
323.096	5.98
323.469	6.61
323.843	5.94
324.216	6.4
324.589	6
324.962	6.21
325.335	5.73
325.708	6.16
326.081	6.38
326.454	5.87
326.827	6.29
327.2	6.06
327.573	6.31
327.945	6.09
328.318	6.48
328.691	6.62
329.063	6.21
329.436	6.28
329.809	6.48
330.181	5.95
330.553	5.52
330.926	6.6
331.298	6.47
331.671	6.31
332.043	5.52
332.415	6.1
332.787	6.25
333.159	5.7
333.532	5.88
333.904	6.13
334.276	6.2
334.648	5.64
335.02	5.75
335.391	5.97
335.763	6.18
336.135	6.16
336.507	6.32
336.879	6.28
337.25	6.74
337.622	6.25
337.993	6.34
338.365	6.33
338.736	5.91
339.108	6.19
339.479	6.07
339.851	5.63
340.222	5.99
340.593	5.67
340.964	6.06
341.336	6.08
341.707	5.7
342.078	5.83
342.449	5.72
342.82	5.85
343.191	6.25
343.562	5.87
343.933	5.81
344.303	5.77
344.674	6.04
345.045	5.75
345.416	6.44
345.786	5.61
346.157	5.73
346.527	6.08
346.898	6.41
347.268	5.88
347.639	6.08
348.009	6.05
348.38	6.23
348.75	6.26
349.12	6.4
349.49	6.57
349.861	5.75
350.231	6.04
350.601	6.2
350.971	6.48
351.341	5.72
351.711	6.14
352.081	5.66
352.45	5.96
352.82	6.33
353.19	6.5
353.56	6.13
353.929	5.99
354.299	6
354.669	6.15
355.038	5.94
355.408	6.05
355.777	6.45
356.147	6.08
356.516	6.07
356.885	5.95
357.254	6.16
357.624	5.78
357.993	6.41
358.362	6.42
358.731	6.23
359.1	6.24
359.469	6.02
359.838	5.83
360.207	5.98
360.576	6.21
360.945	6.06
361.314	6.59
361.682	6.54
362.051	6.21
362.42	6.21
362.788	5.86
363.157	6.05
363.525	5.89
363.894	6.19
364.262	5.97
364.631	5.9
364.999	5.65
365.367	6.33
365.735	6.09
366.104	6.23
366.472	6.27
366.84	6.01
367.208	6.49
367.576	6.32
367.944	5.92
368.312	6.32
368.68	6.18
369.048	6.27
369.416	5.95
369.783	6.01
370.151	5.92
370.519	6.07
370.886	6.29
371.254	6.5
371.621	5.98
371.989	6.38
372.356	6.03
372.724	6.51
373.091	6.47
373.458	6.17
373.826	6.37
374.193	6.5
374.56	6.08
374.927	6.27
375.294	6.28
375.661	6.41
376.028	6.33
376.395	6.4
376.762	6.05
377.129	6.24
377.496	6.39
377.863	6.43
378.229	6.51
378.596	6.19
378.963	6.41
379.329	6.41
379.696	6.47
380.062	5.86
380.429	6.3
380.795	6.27
381.161	6.23
381.528	6.52
381.894	6.03
382.26	5.75
382.626	6.22
382.993	6.39
383.359	5.93
383.725	6.34
384.091	6.39
384.457	6.51
384.823	6.39
385.188	6.25
385.554	6.2
385.92	6.44
386.286	6.31
386.651	6.34
387.017	6.67
387.383	6.57
387.748	6.49
388.114	6.19
388.479	6.51
388.845	6.26
389.21	6.14
389.575	6.61
389.94	6.34
390.306	6.23
390.671	6.6
391.036	6.2
391.401	6.25
391.766	6.47
392.131	6.19
392.496	6.76
392.861	6.35
393.226	6.59
393.591	6.42
393.956	6.27
394.32	6.35
394.685	6.1
395.05	6.76
395.414	6.66
395.779	6.44
396.143	6.52
396.508	6.35
396.872	6.37
397.236	6.35
397.601	6.56
397.965	6.54
398.329	6.52
398.694	6.49
399.058	6.54
399.422	6.26
399.786	6.55
400.15	6.56
400.514	6.39
400.878	6.7
401.242	6.39
401.605	6.48
401.969	6.23
402.333	6.71
402.697	6.38
403.06	6.67
403.424	6.45
403.787	6.61
404.151	6.55
404.514	6.72
404.878	6.62
405.241	7
405.604	6.6
405.968	6.63
406.331	6.54
406.694	6.5
407.057	6.39
407.42	6.65
407.783	6.57
408.146	6.6
408.509	6.39
408.872	6.5
409.235	6.49
409.598	6.63
409.961	6.77
410.323	6.77
410.686	6.59
411.049	6.69
411.411	6.79
411.774	6.26
412.136	6.5
412.499	6.61
412.861	6.73
413.223	6.67
413.586	6.53
413.948	6.77
414.31	6.59
414.672	6.65
415.035	6.54
415.397	6.79
415.759	7.11
416.121	6.58
416.483	6.61
416.845	6.7
417.206	6.47
417.568	6.79
417.93	6.57
418.292	6.6
418.653	6.53
419.015	6.58
419.377	6.41
419.738	6.67
420.1	6.44
420.461	6.6
420.822	6.51
421.184	6.65
421.545	6.62
421.906	6.54
422.267	6.53
422.629	6.59
422.99	6.63
423.351	6.48
423.712	6.54
424.073	6.46
424.434	6.61
424.795	6.6
425.155	6.75
425.516	6.52
425.877	6.63
426.238	6.4
426.598	6.54
426.959	6.61
427.32	6.71
427.68	6.58
428.041	6.54
428.401	6.7
428.761	6.8
429.122	6.56
429.482	6.75
429.842	6.67
430.202	6.81
430.563	6.86
430.923	6.94
431.283	6.98
431.643	6.98
432.003	6.89
432.363	6.95
432.722	7.03
433.082	6.82
433.442	6.79
433.802	6.93
434.161	6.71
434.521	6.89
434.881	6.91
435.24	6.84
435.6	6.67
435.959	6.83
436.319	6.72
436.678	6.97
437.037	7
437.396	6.8
437.756	7.01
438.115	6.86
438.474	6.9
438.833	7.04
439.192	6.76
439.551	6.92
439.91	7.11
440.269	6.93
440.628	6.86
440.987	7.1
441.345	7.06
441.704	7.08
442.063	6.94
442.421	6.94
442.78	6.96
443.138	6.91
443.497	6.95
443.855	6.96
444.214	6.85
444.572	7.03
444.93	7.03
445.288	6.97
445.647	7.03
446.005	7.04
446.363	6.91
446.721	7.11
447.079	6.97
447.437	7.03
447.795	7.16
448.153	6.95
448.51	7.05
448.868	6.94
449.226	6.9
449.584	6.94
449.941	6.91
450.299	7.01
450.656	7.1
451.014	7.09
451.371	7.12
451.729	7.14
452.086	7.05
452.443	7.14
452.801	7.23
453.158	7.09
453.515	7.14
453.872	7.05
454.229	7.16
454.586	7.2
454.943	7.08
455.3	7.29
455.657	7.24
456.014	7.27
456.371	7.32
456.727	7.49
457.084	7.31
457.441	7.29
457.797	7.33
458.154	7.25
458.51	7.36
458.867	7.48
459.223	7.4
459.58	7.4
459.936	7.21
460.292	7.39
460.648	7.43
461.005	7.34
461.361	7.42
461.717	7.08
462.073	7.24
462.429	7.06
462.785	7.13
463.141	7.25
463.496	7.23
463.852	7.38
464.208	7.36
464.564	7.44
464.919	7.25
465.275	7.59
465.631	7.63
465.986	7.67
466.342	7.52
466.697	7.58
467.052	7.51
467.408	7.53
467.763	7.39
468.118	7.63
468.473	7.56
468.829	7.39
469.184	7.46
469.539	7.45
469.894	7.57
470.249	7.55
470.603	7.44
470.958	7.37
471.313	7.54
471.668	7.73
472.023	7.7
472.377	7.78
472.732	7.58
473.086	7.86
473.441	7.37
473.795	7.9
474.15	7.48
474.504	7.46
474.859	7.74
475.213	7.44
475.567	7.54
475.921	7.68
476.275	7.64
476.63	7.64
476.984	7.71
477.338	7.73
477.692	7.56
478.045	7.83
478.399	7.84
478.753	7.71
479.107	7.68
479.461	7.64
479.814	7.63
480.168	7.79
480.521	7.79
480.875	7.88
481.228	7.73
481.582	7.61
481.935	7.76
482.289	7.82
482.642	7.56
482.995	7.67
483.348	7.7
483.701	7.73
484.055	7.68
484.408	7.7
484.761	7.74
485.114	7.5
485.466	7.5
485.819	7.42
486.172	7.43
486.525	7.35
486.878	7.41
487.23	7.47
487.583	7.57
487.936	7.62
488.288	7.66
488.641	7.7
488.993	7.71
489.345	7.66
489.698	7.55
490.05	7.61
490.402	7.56
490.754	7.58
491.107	7.68
491.459	7.75
491.811	7.7
492.163	7.9
492.515	7.84
492.866	7.82
493.218	7.91
493.57	7.89
493.922	7.73
494.274	7.74
494.625	7.8
494.977	7.92
495.328	7.91
495.68	8.02
496.031	8.02
496.383	8.03
496.734	8.09
497.086	8.07
497.437	8.15
497.788	8.2
498.139	8.14
498.49	8.19
498.842	8.08
499.193	8.04
499.544	8.2
499.894	8.11
500.245	8.13
500.596	8.13
500.947	8.28
501.298	8.27
501.648	8.31
501.999	8.28
502.35	8.26
502.7	8.47
503.051	8.25
503.401	8.42
503.752	8.43
504.102	8.32
504.452	8.33
504.803	8.4
505.153	8.41
505.503	8.31
505.853	8.57
506.203	8.25
506.553	8.41
506.903	8.38
507.253	8.4
507.603	8.44
507.953	8.55
508.303	8.56
508.652	8.54
509.002	8.74
509.352	8.5
509.701	8.58
510.051	8.69
510.4	8.58
510.75	8.59
511.099	8.4
511.449	8.71
511.798	8.57
512.147	8.68
512.496	8.59
512.846	8.52
513.195	8.62
513.544	8.57
513.893	8.82
514.242	8.71
514.591	8.87
514.939	8.79
515.288	8.7
515.637	8.93
515.986	8.7
516.334	8.79
516.683	8.85
517.032	9.06
517.38	8.94
517.729	8.81
518.077	8.82
518.426	8.85
518.774	8.91
519.122	8.92
519.47	8.88
519.819	9
520.167	9.05
520.515	8.92
520.863	8.78
521.211	8.9
521.559	8.88
521.907	8.9
522.255	9.03
522.602	8.99
522.95	9.17
523.298	9.14
523.645	9.15
523.993	9.18
524.341	9.12
524.688	9.25
525.036	9.04
525.383	9.25
525.73	9.26
526.078	9.24
526.425	9.33
526.772	9.4
527.119	9.34
527.466	9.23
527.814	9.19
528.161	9.18
528.508	9.22
528.854	9.24
529.201	9.29
529.548	9.31
529.895	9.27
530.242	9.23
530.588	9.17
530.935	9.08
531.282	9.09
531.628	9.11
531.975	9.12
532.321	9.12
532.667	9.33
533.014	9.45
533.36	9.48
533.706	9.54
534.052	9.54
534.399	9.64
534.745	9.64
535.091	9.5
535.437	9.49
535.783	9.41
536.129	9.5
536.474	9.67
536.82	9.53
537.166	9.76
537.512	9.65
537.857	9.79
538.203	9.86
538.549	9.84
538.894	9.7
539.239	9.74
539.585	9.75
539.93	9.85
540.276	9.97
540.621	9.94
540.966	10.05
541.311	10.1
541.656	10
542.001	10.16
542.346	10.09
542.691	10.28
543.036	10.03
543.381	10
543.726	9.98
544.071	9.94
544.415	9.97
544.76	10.01
545.105	10.03
545.449	10.2
545.794	10.31
546.138	10.27
546.483	10.26
546.827	10.26
547.171	10.41
547.516	10.53
547.86	10.51
548.204	10.55
548.548	10.48
548.892	10.68
549.236	10.44
549.58	10.7
549.924	10.74
550.268	10.73
550.612	10.61
550.956	10.68
551.3	10.77
551.643	10.9
551.987	10.89
552.33	10.85
552.674	10.83
553.017	10.98
553.361	10.75
553.704	11.14
554.048	11.15
554.391	11.09
554.734	11.24
555.077	11.22
555.42	11.21
555.764	11.08
556.107	11.27
556.45	11.17
556.793	11.35
557.135	11.44
557.478	11.47
557.821	11.42
558.164	11.44
558.507	11.62
558.849	11.38
559.192	11.52
559.534	11.61
559.877	11.46
560.219	11.53
560.562	11.68
560.904	11.69
561.246	11.69
561.589	11.54
561.931	11.7
562.273	11.57
562.615	11.91
562.957	11.61
563.299	11.97
563.641	11.85
563.983	11.95
564.325	11.81
564.667	11.93
565.008	11.77
565.35	12.07
565.692	12.05
566.033	12.02
566.375	12.06
566.716	12.37
567.058	12.28
567.399	12.22
567.741	12.34
568.082	12.15
568.423	12.34
568.764	12.4
569.105	12.18
569.447	12.3
569.788	12.33
570.129	12.41
570.47	12.47
570.811	12.55
571.151	12.54
571.492	12.5
571.833	12.45
572.174	12.57
572.514	12.65
572.855	12.59
573.195	12.63
573.536	12.72
573.876	12.8
574.217	12.81
574.557	12.75
574.898	12.88
575.238	12.77
575.578	13.05
575.918	13.07
576.258	12.8
576.598	13.11
576.938	13.04
577.278	13.21
577.618	12.93
577.958	13.32
578.298	13.23
578.638	13.11
578.977	13.41
579.317	13.45
579.657	13.43
579.996	13.34
580.336	13.55
580.675	13.68
581.014	13.46
581.354	13.44
581.693	13.64
582.032	13.52
582.372	13.71
582.711	13.67
583.05	13.83
583.389	13.89
583.728	13.79
584.067	13.96
584.406	13.99
584.745	13.98
585.083	14.3
585.422	14.36
585.761	14.27
586.1	14.05
586.438	14.12
586.777	14.06
587.115	14.31
587.454	14.24
587.792	14.4
588.13	14.4
588.469	14.32
588.807	14.29
589.145	14.52
589.483	14.56
589.821	14.52
590.159	14.44
590.497	14.58
590.835	14.89
591.173	14.76
591.511	14.78
591.849	14.69
592.187	14.85
592.524	14.82
592.862	14.86
593.2	14.94
593.537	14.59
593.875	14.74
594.212	15.02
594.55	15.28
594.887	14.88
595.224	15.2
595.561	15.34
595.899	15.27
596.236	15.61
596.573	15.54
596.91	15.24
597.247	15.51
597.584	15.43
597.921	15.85
598.258	15.32
598.594	15.41
598.931	15.43
599.268	15.55
599.604	15.52
599.941	15.68
600.277	15.69
600.614	15.61
600.95	15.62
601.287	15.55
601.623	15.8
601.959	15.78
602.296	16.04
602.632	15.93
602.968	15.98
603.304	16.08
603.64	16.16
603.976	16.01
604.312	16.27
604.648	16.04
604.984	16.28
605.319	16.25
605.655	16.31
605.991	16.08
606.326	16.49
606.662	16.24
606.998	16.25
607.333	16.51
607.668	16.24
608.004	16.36
608.339	16.43
608.674	16.7
609.01	16.55
609.345	16.43
609.68	16.98
610.015	16.54
610.35	16.93
610.685	17.03
611.02	17.14
611.355	16.9
611.689	16.9
612.024	17.02
612.359	16.92
612.694	16.94
613.028	17.14
613.363	17.23
613.697	17.21
614.032	17.45
614.366	17.27
614.7	17.12
615.035	17.51
615.369	17.15
615.703	17.3
616.037	17.55
616.371	17.72
616.705	17.98
617.039	17.65
617.373	17.92
617.707	17.86
618.041	17.95
618.375	17.9
618.709	17.77
619.042	17.85
619.376	18.1
619.71	17.87
620.043	17.57
620.377	17.56
620.71	18.31
621.043	18.1
621.377	17.95
621.71	17.98
622.043	18.11
622.376	18.74
622.709	18.82
623.043	18.31
623.376	18.53
623.709	18.29
624.041	18.24
624.374	18.67
624.707	19.07
625.04	18.59
625.373	18.24
625.705	18.67
626.038	18.54
626.37	18.8
626.703	18.96
627.035	18.78
627.368	18.76
627.7	19.18
628.032	19.24
628.365	18.89
628.697	19.01
629.029	18.9
629.361	19.03
629.693	19.14
630.025	18.98
630.357	18.92
630.689	19.28
631.021	19.11
631.353	19
631.684	19.22
632.016	19.37
632.348	19.27
632.679	19.53
633.011	19.38
633.342	19.92
633.674	19.77
634.005	19.54
634.336	19.59
634.668	19.61
634.999	19.6
635.33	19.76
635.661	19.39
635.992	19.36
636.323	19.49
636.654	19.56
636.985	19.69
637.316	19.83
637.647	20.13
637.977	19.63
638.308	20.41
638.639	19.97
638.969	19.73
639.3	20.4
639.63	20.08
639.961	20.15
640.291	19.91
640.622	20.54
640.952	20.55
641.282	20.38
641.612	20.01
641.943	20.74
642.273	20.83
642.603	20.57
642.933	20.47
643.263	20.48
643.592	20.63
643.922	20.7
644.252	20.65
644.582	20.83
644.911	20.88
645.241	21.03
645.571	20.51
645.9	21.51
646.23	21.24
646.559	21.38
646.888	21.13
647.218	20.8
647.547	21.22
647.876	21.1
648.205	20.48
648.534	21.6
648.863	21.39
649.192	20.7
649.521	21.4
649.85	21.96
650.179	21.14
650.508	21.49
650.837	21.84
651.165	21.5
651.494	21.6
651.822	21.8
652.151	21.51
652.479	21.5
652.808	21.42
653.136	21.86
653.465	22.12
653.793	21.81
654.121	22.09
654.449	21.52
654.777	21.86
655.105	21.89
655.433	22.28
655.761	22.21
656.089	22.62
656.417	22.39
656.745	22.17
657.073	22.3
657.4	22.47
657.728	23.05
658.056	22.86
658.383	22.94
658.711	23.02
659.038	22.1
659.365	22.19
659.693	22.52
660.02	22.96
660.347	22.77
660.674	22.32
661.001	22.48
661.329	23
661.656	22.71
661.982	22.63
662.309	23.2
662.636	22.64
662.963	22.95
663.29	23.19
663.616	22.33
663.943	22.99
664.27	23.1
664.596	23.17
664.923	23.04
665.249	23.29
665.576	22.91
665.902	23.16
666.228	22.66
666.554	23.2
666.881	24.29
667.207	23.21
667.533	23.63
667.859	24.55
668.185	23.52
668.511	24.27
668.837	23.13
669.162	23.44
669.488	24
669.814	23.36
670.139	24.05
670.465	24.48
670.791	24.49
671.116	23.77
671.442	24.57
671.767	23.77
672.092	24.51
672.418	24.32
672.743	24.31
673.068	24.47
673.393	23.93
673.718	24.64
674.043	24.27
674.368	24.89
674.693	24.3
675.018	23.57
675.343	23.84
675.667	23.86
675.992	23.72
676.317	24.2
676.641	24.62
676.966	24.74
677.29	24.82
677.615	25.06
677.939	25.08
678.264	25.24
678.588	24.64
678.912	25.29
679.236	24.68
679.56	24.91
679.885	24.49
680.209	25.71
680.532	25.25
680.856	25.06
681.18	25.38
681.504	25.12
681.828	24.68
682.152	24.96
682.475	25.63
682.799	25.08
683.122	25.12
683.446	25.77
