Data from 0235_crown_Reflection__0__288.txt Node

Date: Fri Sep 22 23:01:29 CDT 2023
User: ToomeyLab
Spectrometer: FLMS14357
Trigger mode: 0
Integration Time (sec): 1.000000E-2
Scans to average: 100
Electric dark correction enabled: true
Nonlinearity correction enabled: false
Boxcar width: 0
XAxis mode: Wavelengths
Number of Pixels in Spectrum: 2048
>>>>>Begin Spectral Data<<<<<
189.047	296.47
189.435	296.47
189.823	296.47
190.211	-42.88
190.599	91.95
190.987	-64.28
191.375	2685.71
191.763	82.11
192.151	194.16
192.538	-50.96
192.926	87.75
193.314	25.26
193.702	404.32
194.089	96.08
194.477	26.83
194.864	121.59
195.252	76.45
195.639	43.79
196.027	60.54
196.414	112.11
196.801	-499.12
197.189	-91.51
197.576	114.32
197.963	-117.45
198.351	30.28
198.738	16.11
199.125	-32.14
199.512	37.47
199.899	29.31
200.286	68.01
200.673	38.6
201.06	17.29
201.447	35.58
201.833	82.24
202.22	45.54
202.607	35.51
202.994	44.85
203.38	51.88
203.767	21.58
204.154	44.92
204.54	30.53
204.927	-1.09
205.313	36.23
205.699	88.23
206.086	50.13
206.472	41.95
206.858	42.91
207.245	-3.22
207.631	26.74
208.017	8.83
208.403	26.3
208.789	23.86
209.175	50.42
209.561	31.44
209.947	46.62
210.333	29.93
210.719	9.31
211.105	38.83
211.491	32.39
211.876	39.44
212.262	8.97
212.648	26.24
213.034	30.3
213.419	35.48
213.805	15.34
214.19	23.76
214.576	-0.87
214.961	8.33
215.346	19.94
215.732	16.37
216.117	-7.2
216.502	57.96
216.888	13.37
217.273	5.23
217.658	-14.49
218.043	31.99
218.428	29.47
218.813	-5.89
219.198	8.05
219.583	13.5
219.968	25.36
220.353	43.03
220.738	38.98
221.122	10.99
221.507	9.94
221.892	3.27
222.276	-3.62
222.661	-23.8
223.046	26.42
223.43	21.26
223.815	12.77
224.199	5.12
224.583	21.62
224.968	6.78
225.352	2.65
225.736	8.4
226.121	14.2
226.505	18.75
226.889	9.22
227.273	9.49
227.657	9.34
228.041	6.19
228.425	11.99
228.809	5.8
229.193	5.66
229.577	8.05
229.961	6.02
230.344	7.36
230.728	4.14
231.112	6.25
231.495	4.61
231.879	5.75
232.263	4.4
232.646	4.87
233.03	5.84
233.413	7.26
233.797	4.51
234.18	6.22
234.563	5.94
234.946	8.61
235.33	4.32
235.713	3.11
236.096	3.73
236.479	4.21
236.862	7.54
237.245	5.04
237.628	8.08
238.011	7.82
238.394	4.76
238.777	6.43
239.16	5.75
239.543	7.76
239.925	6.21
240.308	7.08
240.691	5.4
241.073	6.18
241.456	5.63
241.838	4.8
242.221	4.06
242.603	6.41
242.986	6.12
243.368	4.24
243.75	6
244.133	5.46
244.515	4.79
244.897	4.74
245.279	5.6
245.661	5.5
246.043	5.95
246.425	4.94
246.807	6
247.189	4.87
247.571	5.58
247.953	6.09
248.335	5.93
248.717	5.45
249.098	4.99
249.48	4.77
249.862	5
250.243	4.81
250.625	5.04
251.006	5.14
251.388	5.21
251.769	5.57
252.151	4.92
252.532	4.45
252.913	5.75
253.295	6.34
253.676	5.47
254.057	5.15
254.438	5.92
254.819	4.25
255.2	5.5
255.581	5.23
255.962	5.54
256.343	4.4
256.724	4.66
257.105	5.66
257.486	5.97
257.867	5.24
258.247	5.32
258.628	5.96
259.009	4.68
259.389	4.51
259.77	5.72
260.15	5.36
260.531	4.94
260.911	4.69
261.292	4.99
261.672	4.31
262.052	4.91
262.432	4.79
262.813	4.9
263.193	4.64
263.573	5.37
263.953	5.01
264.333	5.34
264.713	4.67
265.093	5.19
265.473	4.91
265.853	4.28
266.233	4.74
266.612	4.11
266.992	4.82
267.372	4.86
267.752	4.59
268.131	4.35
268.511	4.88
268.89	4.91
269.27	4.86
269.649	4.49
270.029	4.4
270.408	4.49
270.787	5.19
271.167	4.7
271.546	4.47
271.925	5.34
272.304	4.47
272.683	4.26
273.062	5.25
273.441	4.32
273.82	4.91
274.199	5.09
274.578	5.02
274.957	4.69
275.336	4.91
275.715	4.39
276.093	4.48
276.472	4.12
276.851	4.84
277.229	4.32
277.608	5.05
277.986	4.46
278.365	5.11
278.743	4.44
279.122	5.14
279.5	5.06
279.878	4.68
280.257	5.19
280.635	5
281.013	5.09
281.391	4.16
281.769	4.76
282.147	5.05
282.525	4.91
282.903	5.09
283.281	4.89
283.659	4.79
284.037	4.41
284.415	5.04
284.792	4.29
285.17	4.88
285.548	5.43
285.925	4.55
286.303	4.17
286.68	4.12
287.058	4.51
287.435	4.44
287.813	4.31
288.19	4.08
288.567	4.83
288.945	4.41
289.322	4.43
289.699	4.38
290.076	4.61
290.453	4.79
290.83	4.4
291.207	4.37
291.584	4.1
291.961	4.58
292.338	4.42
292.715	5.01
293.092	4.54
293.469	4.28
293.845	4.28
294.222	4.83
294.599	4.38
294.975	4.85
295.352	5.07
295.728	4.56
296.105	4.47
296.481	4.44
296.858	4.61
297.234	4.42
297.61	4.71
297.986	4.67
298.363	4.55
298.739	4.58
299.115	4.64
299.491	4.58
299.867	4.68
300.243	4.52
300.619	4.73
300.995	4.36
301.371	4.51
301.746	5
302.122	4.6
302.498	4.28
302.874	4.31
303.249	4.68
303.625	4.37
304	4.62
304.376	4.85
304.751	4.97
305.127	4.87
305.502	5.31
305.878	5.11
306.253	4.94
306.628	4.27
307.003	4.88
307.378	4.32
307.754	4.94
308.129	4.46
308.504	4.65
308.879	5.13
309.254	4.88
309.629	4.83
310.003	5.37
310.378	4.9
310.753	4.6
311.128	4.85
311.502	4.96
311.877	3.93
312.252	4.69
312.626	4.58
313.001	4.92
313.375	4.86
313.75	5.04
314.124	4.93
314.498	4.45
314.873	4.86
315.247	4.77
315.621	5.18
315.995	4.58
316.369	4.65
316.743	4.38
317.117	5.56
317.491	5.69
317.865	4.73
318.239	5.28
318.613	4.83
318.987	4.8
319.361	4.39
319.734	5.09
320.108	5.37
320.482	4.73
320.855	4.43
321.229	4.73
321.602	5.28
321.976	4.34
322.349	4.62
322.723	5.22
323.096	4.68
323.469	4.79
323.843	4.39
324.216	5.22
324.589	4.96
324.962	4.21
325.335	4.95
325.708	4.56
326.081	5
326.454	4.43
326.827	4.89
327.2	4.81
327.573	5.54
327.945	4.65
328.318	4.97
328.691	4.78
329.063	4.92
329.436	4.97
329.809	4.97
330.181	5.23
330.553	4.33
330.926	4.56
331.298	5.07
331.671	5.21
332.043	4.38
332.415	4.73
332.787	4.96
333.159	4.38
333.532	3.91
333.904	5.01
334.276	4.72
334.648	4
335.02	4.91
335.391	5.05
335.763	4.72
336.135	4.8
336.507	5.08
336.879	4.81
337.25	4.76
337.622	4.8
337.993	4.94
338.365	5.12
338.736	4.87
339.108	4.73
339.479	5.04
339.851	4.42
340.222	4.96
340.593	5.1
340.964	4.47
341.336	4.77
341.707	4.71
342.078	4.54
342.449	4.66
342.82	4.35
343.191	4.07
343.562	4.6
343.933	5.01
344.303	4.81
344.674	4.85
345.045	4.62
345.416	4.74
345.786	4.12
346.157	4.67
346.527	4.72
346.898	4.67
347.268	4.72
347.639	5.06
348.009	4.49
348.38	4.55
348.75	4.86
349.12	4.61
349.49	4.72
349.861	4.55
350.231	4.73
350.601	4.72
350.971	4.9
351.341	4.77
351.711	4.63
352.081	4.52
352.45	4.46
352.82	4.88
353.19	4.62
353.56	4.4
353.929	4.62
354.299	4.3
354.669	4.4
355.038	4.51
355.408	4.64
355.777	5.23
356.147	4.98
356.516	4.67
356.885	4.84
357.254	5.11
357.624	3.96
357.993	4.61
358.362	4.7
358.731	4.46
359.1	4.51
359.469	4.71
359.838	4.21
360.207	4.52
360.576	4.68
360.945	4.62
361.314	4.5
361.682	5.04
362.051	4.94
362.42	4.51
362.788	4.47
363.157	4.64
363.525	4.55
363.894	4.39
364.262	4.54
364.631	4.55
364.999	4.25
365.367	4.7
365.735	4.66
366.104	4.59
366.472	5.04
366.84	4.56
367.208	4.86
367.576	4.6
367.944	4.38
368.312	4.82
368.68	4.6
369.048	4.71
369.416	4.41
369.783	4.29
370.151	4.58
370.519	4.77
370.886	4.78
371.254	4.86
371.621	4.65
371.989	4.83
372.356	4.78
372.724	4.9
373.091	4.84
373.458	4.71
373.826	4.54
374.193	4.84
374.56	5
374.927	4.82
375.294	4.65
375.661	4.56
376.028	5.03
376.395	5.14
376.762	4.41
377.129	4.99
377.496	4.8
377.863	4.77
378.229	4.98
378.596	4.68
378.963	4.89
379.329	4.94
379.696	4.9
380.062	4.35
380.429	4.68
380.795	4.53
381.161	4.72
381.528	4.69
381.894	4.44
382.26	4.62
382.626	4.7
382.993	4.6
383.359	4.62
383.725	4.86
384.091	4.93
384.457	4.24
384.823	4.89
385.188	5.04
385.554	4.78
385.92	4.89
386.286	4.72
386.651	4.67
387.017	5.04
387.383	4.56
387.748	4.96
388.114	4.62
388.479	4.89
388.845	4.72
389.21	4.52
389.575	4.98
389.94	4.64
390.306	5.09
390.671	5.01
391.036	4.38
391.401	4.66
391.766	4.68
392.131	4.62
392.496	4.88
392.861	4.65
393.226	5
393.591	4.64
393.956	4.67
394.32	4.56
394.685	4.68
395.05	4.97
395.414	4.77
395.779	4.87
396.143	4.74
396.508	4.71
396.872	4.51
397.236	4.84
397.601	4.53
397.965	5.01
398.329	4.86
398.694	4.74
399.058	4.93
399.422	4.64
399.786	4.78
400.15	4.79
400.514	4.97
400.878	4.79
401.242	4.85
401.605	4.99
401.969	4.62
402.333	4.84
402.697	4.61
403.06	4.67
403.424	4.78
403.787	4.94
404.151	4.8
404.514	4.89
404.878	5.06
405.241	4.99
405.604	4.85
405.968	4.86
406.331	4.88
406.694	4.97
407.057	4.68
407.42	4.79
407.783	4.85
408.146	4.93
408.509	4.73
408.872	4.71
409.235	5.08
409.598	4.82
409.961	5.1
410.323	5.08
410.686	4.88
411.049	4.91
411.411	5.02
411.774	4.85
412.136	4.74
412.499	4.9
412.861	4.91
413.223	4.68
413.586	4.85
413.948	5.02
414.31	4.76
414.672	4.98
415.035	4.66
415.397	5.09
415.759	5.08
416.121	4.76
416.483	4.79
416.845	4.84
417.206	4.71
417.568	4.87
417.93	4.9
418.292	4.78
418.653	4.8
419.015	4.76
419.377	4.62
419.738	4.88
420.1	4.68
420.461	4.81
420.822	4.83
421.184	4.71
421.545	4.73
421.906	4.66
422.267	4.66
422.629	4.71
422.99	4.77
423.351	4.64
423.712	4.64
424.073	4.69
424.434	4.72
424.795	4.77
425.155	4.76
425.516	4.9
425.877	4.76
426.238	4.62
426.598	4.58
426.959	4.69
427.32	4.67
427.68	4.7
428.041	4.74
428.401	4.8
428.761	4.99
429.122	4.76
429.482	4.8
429.842	4.71
430.202	4.91
430.563	4.66
430.923	4.81
431.283	4.92
431.643	4.78
432.003	4.95
432.363	5.1
432.722	5.06
433.082	4.88
433.442	4.85
433.802	4.98
434.161	4.9
434.521	4.78
434.881	4.95
435.24	4.85
435.6	4.74
435.959	4.61
436.319	4.79
436.678	4.9
437.037	4.96
437.396	4.78
437.756	4.81
438.115	4.92
438.474	4.8
438.833	4.95
439.192	4.87
439.551	4.89
439.91	4.93
440.269	4.88
440.628	4.86
440.987	4.94
441.345	4.85
441.704	5.01
442.063	4.85
442.421	4.78
442.78	4.97
443.138	4.85
443.497	4.79
443.855	4.85
444.214	4.71
444.572	4.87
444.93	4.91
445.288	4.88
445.647	4.85
446.005	4.88
446.363	4.66
446.721	4.93
447.079	4.8
447.437	4.9
447.795	4.93
448.153	4.74
448.51	4.79
448.868	4.8
449.226	4.83
449.584	4.83
449.941	4.8
450.299	4.8
450.656	4.85
451.014	4.8
451.371	4.72
451.729	4.9
452.086	4.8
452.443	5.03
452.801	5.02
453.158	4.97
453.515	5.07
453.872	4.85
454.229	5.02
454.586	4.93
454.943	4.84
455.3	4.94
455.657	4.84
456.014	4.83
456.371	4.99
456.727	5.04
457.084	5
457.441	4.8
457.797	4.85
458.154	4.9
458.51	5.02
458.867	4.94
459.223	4.99
459.58	5.08
459.936	5.04
460.292	4.94
460.648	5.02
461.005	5.02
461.361	5.05
461.717	4.76
462.073	4.8
462.429	4.77
462.785	4.92
463.141	4.86
463.496	4.97
463.852	4.9
464.208	4.95
464.564	5.13
464.919	5.01
465.275	5.18
465.631	5.12
465.986	5.06
466.342	5.07
466.697	5.25
467.052	5.04
467.408	5.13
467.763	5.25
468.118	5.19
468.473	5.22
468.829	5.05
469.184	5
469.539	4.94
469.894	5
470.249	5.11
470.603	5.01
470.958	4.96
471.313	5.11
471.668	5.18
472.023	5.24
472.377	5.02
472.732	4.87
473.086	5.21
473.441	4.99
473.795	5.36
474.15	5.1
474.504	5.03
474.859	5.25
475.213	4.99
475.567	4.91
475.921	5.13
476.275	5.02
476.63	5.16
476.984	4.95
477.338	5.1
477.692	5.06
478.045	5.23
478.399	5.23
478.753	5.1
479.107	5.07
479.461	5.09
479.814	5.25
480.168	5.19
480.521	5.32
480.875	5.19
481.228	5.11
481.582	5.05
481.935	5.12
482.289	5.04
482.642	5.05
482.995	5.07
483.348	5.13
483.701	5.07
484.055	5.02
484.408	4.91
484.761	5.09
485.114	4.88
485.466	4.85
485.819	4.73
486.172	4.71
486.525	4.69
486.878	4.72
487.23	4.8
487.583	4.89
487.936	4.91
488.288	4.99
488.641	4.95
488.993	4.83
489.345	4.86
489.698	4.77
490.05	4.82
490.402	4.88
490.754	4.82
491.107	4.88
491.459	4.98
491.811	4.97
492.163	5.06
492.515	5.08
492.866	4.97
493.218	5.06
493.57	4.96
493.922	4.86
494.274	4.86
494.625	4.94
494.977	5.02
495.328	5.15
495.68	5.1
496.031	5.07
496.383	5.22
496.734	5.18
497.086	5.2
497.437	5.26
497.788	5.24
498.139	5.2
498.49	5.36
498.842	5.07
499.193	5.16
499.544	5.15
499.894	5.15
500.245	5.19
500.596	5.22
500.947	5.2
501.298	5.29
501.648	5.3
501.999	5.24
502.35	5.34
502.7	5.15
503.051	5.16
503.401	5.21
503.752	5.24
504.102	5.32
504.452	5.19
504.803	5.37
505.153	5.34
505.503	5.28
505.853	5.35
506.203	5.26
506.553	5.24
506.903	5.35
507.253	5.17
507.603	5.21
507.953	5.25
508.303	5.28
508.652	5.31
509.002	5.42
509.352	5.22
509.701	5.39
510.051	5.3
510.4	5.17
510.75	5.28
511.099	5.15
511.449	5.22
511.798	5.34
512.147	5.23
512.496	5.27
512.846	5.24
513.195	5.35
513.544	5.27
513.893	5.37
514.242	5.3
514.591	5.31
514.939	5.3
515.288	5.28
515.637	5.24
515.986	5.24
516.334	5.36
516.683	5.33
517.032	5.52
517.38	5.41
517.729	5.37
518.077	5.4
518.426	5.52
518.774	5.44
519.122	5.39
519.47	5.22
519.819	5.4
520.167	5.37
520.515	5.28
520.863	5.2
521.211	5.26
521.559	5.26
521.907	5.26
522.255	5.31
522.602	5.3
522.95	5.34
523.298	5.55
523.645	5.47
523.993	5.37
524.341	5.4
524.688	5.29
525.036	5.39
525.383	5.4
525.73	5.4
526.078	5.33
526.425	5.46
526.772	5.56
527.119	5.34
527.466	5.29
527.814	5.29
528.161	5.08
528.508	5.29
528.854	5.38
529.201	5.35
529.548	5.32
529.895	5.23
530.242	5.2
530.588	5.1
530.935	4.98
531.282	5.03
531.628	5.14
531.975	5.1
532.321	5.21
532.667	5.31
533.014	5.31
533.36	5.35
533.706	5.34
534.052	5.41
534.399	5.48
534.745	5.4
535.091	5.19
535.437	5.19
535.783	5.14
536.129	5.19
536.474	5.31
536.82	5.26
537.166	5.48
537.512	5.39
537.857	5.42
538.203	5.39
538.549	5.33
538.894	5.23
539.239	5.34
539.585	5.31
539.93	5.45
540.276	5.43
540.621	5.5
540.966	5.58
541.311	5.64
541.656	5.49
542.001	5.44
542.346	5.47
542.691	5.54
543.036	5.36
543.381	5.22
543.726	5.21
544.071	5.26
544.415	5.26
544.76	5.3
545.105	5.3
545.449	5.31
545.794	5.38
546.138	5.4
546.483	5.41
546.827	5.4
547.171	5.51
547.516	5.64
547.86	5.53
548.204	5.57
548.548	5.49
548.892	5.53
549.236	5.46
549.58	5.58
549.924	5.54
550.268	5.67
550.612	5.53
550.956	5.65
551.3	5.6
551.643	5.63
551.987	5.6
552.33	5.66
552.674	5.54
553.017	5.6
553.361	5.74
553.704	5.76
554.048	5.53
554.391	5.62
554.734	5.74
555.077	5.61
555.42	5.58
555.764	5.65
556.107	5.79
556.45	5.83
556.793	5.58
557.135	5.73
557.478	5.6
557.821	5.7
558.164	5.79
558.507	5.91
558.849	5.54
559.192	5.89
559.534	5.92
559.877	5.77
560.219	5.8
560.562	5.78
560.904	5.85
561.246	6.02
561.589	5.79
561.931	5.8
562.273	5.64
562.615	5.8
562.957	5.66
563.299	5.83
563.641	5.74
563.983	5.71
564.325	5.85
564.667	5.9
565.008	5.82
565.35	5.91
565.692	5.67
566.033	5.83
566.375	6
566.716	5.8
567.058	5.81
567.399	5.86
567.741	5.93
568.082	5.91
568.423	5.88
568.764	6.06
569.105	5.67
569.447	5.78
569.788	5.67
570.129	5.93
570.47	5.98
570.811	5.73
571.151	5.86
571.492	5.89
571.833	5.77
572.174	5.9
572.514	5.93
572.855	5.93
573.195	5.56
573.536	5.91
573.876	5.73
574.217	5.77
574.557	5.84
574.898	5.86
575.238	5.78
575.578	5.84
575.918	5.97
576.258	5.7
576.598	5.92
576.938	5.97
577.278	5.94
577.618	5.81
577.958	5.85
578.298	6.05
578.638	5.73
578.977	5.9
579.317	5.87
579.657	6.06
579.996	5.91
580.336	6.15
580.675	6.04
581.014	5.97
581.354	5.87
581.693	5.96
582.032	5.87
582.372	6.03
582.711	6.31
583.05	5.92
583.389	5.94
583.728	5.89
584.067	6.02
584.406	6.12
584.745	5.65
585.083	6.29
585.422	6.18
585.761	6.02
586.1	6.17
586.438	6.08
586.777	6.18
587.115	6.21
587.454	5.88
587.792	6.22
588.13	6.13
588.469	6.02
588.807	6.27
589.145	6.35
589.483	6.13
589.821	5.95
590.159	6.02
590.497	6.32
590.835	6.23
591.173	6.23
591.511	6.09
591.849	6.06
592.187	5.96
592.524	6.13
592.862	6.08
593.2	6.17
593.537	6.02
593.875	6.09
594.212	6.22
594.55	6.38
594.887	6.08
595.224	6.11
595.561	6.26
595.899	6.24
596.236	6.38
596.573	6.41
596.91	6.3
597.247	6.21
597.584	6.38
597.921	6.38
598.258	6.11
598.594	6.1
598.931	5.97
599.268	6.16
599.604	6.08
599.941	6.23
600.277	6.08
600.614	5.96
600.95	6.24
601.287	6.2
601.623	6.19
601.959	6.24
602.296	6.33
602.632	6.32
602.968	6.13
603.304	6.45
603.64	6.26
603.976	6.36
604.312	6.23
604.648	6.2
604.984	6.08
605.319	6.25
605.655	6.09
605.991	6.13
606.326	6.29
606.662	6.18
606.998	6.05
607.333	6.14
607.668	6.1
608.004	6.35
608.339	5.95
608.674	6.23
609.01	6.15
609.345	6.19
609.68	6.55
610.015	6.24
610.35	6.45
610.685	6.46
611.02	6.32
611.355	6.42
611.689	6.13
612.024	6.48
612.359	6.19
612.694	6.49
613.028	6.26
613.363	6.08
613.697	6.25
614.032	6.13
614.366	6.3
614.7	6.28
615.035	6.21
615.369	6.31
615.703	6.3
616.037	6.31
616.371	6.63
616.705	6.87
617.039	6.61
617.373	6.48
617.707	6.28
618.041	6.33
618.375	6.62
618.709	6.39
619.042	6.44
619.376	6.68
619.71	6.5
620.043	6.4
620.377	6.19
620.71	6.36
621.043	6.6
621.377	6.61
621.71	6.33
622.043	6.41
622.376	7
622.709	6.57
623.043	6.31
623.376	6.53
623.709	6.73
624.041	6.93
624.374	6.79
624.707	7.1
625.04	6.53
625.373	6.04
625.705	6.55
626.038	6.01
626.37	6.59
626.703	6.63
627.035	6.23
627.368	6.67
627.7	6.81
628.032	6.9
628.365	6.96
628.697	6.49
629.029	6.56
629.361	6.45
629.693	6.38
630.025	6.46
630.357	6.48
630.689	6.54
631.021	6.32
631.353	6.4
631.684	6.56
632.016	6.7
632.348	6.99
632.679	6.54
633.011	6.59
633.342	6.91
633.674	6.63
634.005	6.65
634.336	6.92
634.668	6.83
634.999	6.56
635.33	6.85
635.661	6.77
635.992	6.6
636.323	6.59
636.654	6.37
636.985	6.44
637.316	6.33
637.647	6.86
637.977	6.25
638.308	7.15
638.639	6.73
638.969	6.85
639.3	6.92
639.63	7.16
639.961	6.26
640.291	6.72
640.622	7.19
640.952	6.66
641.282	7.08
641.612	6.62
641.943	6.89
642.273	6.89
642.603	6.33
642.933	6.54
643.263	6.67
643.592	6.49
643.922	6.81
644.252	6.64
644.582	6.92
644.911	6.58
645.241	7.08
645.571	6.54
645.9	6.83
646.23	6.97
646.559	7.24
646.888	6.83
647.218	6.9
647.547	6.95
647.876	6.78
648.205	6.71
648.534	7.15
648.863	6.61
649.192	6.48
649.521	7.01
649.85	7.11
650.179	7.19
650.508	6.63
650.837	7.37
651.165	6.87
651.494	7
651.822	6.58
652.151	6.82
652.479	7.14
652.808	7.3
653.136	7.17
653.465	7.11
653.793	6.73
654.121	7.28
654.449	6.88
654.777	7
655.105	7.45
655.433	7.13
655.761	7.62
656.089	7.23
656.417	6.91
656.745	7.17
657.073	6.71
657.4	7.63
657.728	7.5
658.056	6.93
658.383	6.92
658.711	7.37
659.038	6.95
659.365	7.11
659.693	6.11
660.02	7.56
660.347	7.3
660.674	6.54
661.001	6.93
661.329	7.22
661.656	7.1
661.982	7.07
662.309	7.12
662.636	6.99
662.963	7.04
663.29	7.06
663.616	7.02
663.943	7.44
664.27	7.43
664.596	7.3
664.923	7.49
665.249	7.61
665.576	6.53
665.902	7.07
666.228	7.17
666.554	6.93
666.881	7.28
667.207	6.85
667.533	6.76
667.859	7.49
668.185	6.8
668.511	7.92
668.837	6.78
669.162	6.77
669.488	7.74
669.814	7.2
670.139	7.7
670.465	7.67
670.791	7.26
671.116	7.13
671.442	8.14
671.767	6.85
672.092	7.82
672.418	7.88
672.743	7.27
673.068	7.56
673.393	7.08
673.718	7.95
674.043	7.4
674.368	7.46
674.693	6.94
675.018	7.29
675.343	7.43
675.667	7.42
675.992	7.28
676.317	7.51
676.641	7.67
676.966	7.84
677.29	7.01
677.615	7.52
677.939	7.72
678.264	7.17
678.588	8.2
678.912	6.94
679.236	7.27
679.56	7.47
679.885	7.09
680.209	8.12
680.532	7.28
680.856	6.7
681.18	7.5
681.504	7.38
681.828	7.29
682.152	6.88
682.475	8.31
682.799	7.59
683.122	7.36
683.446	7.07
683.769	7.26
684.093	8.03
684.416	7.74
684.739	7.71
685.062	7.69
685.386	7.04
685.709	7.22
686.032	7.15
686.355	7.46
686.678	7.73
687.001	7.74
687.324	8.85
687.646	7.7
687.969	8.13
688.292	7.45
688.614	7.5
688.937	7.68
689.26	7.55
689.582	7.75
689.904	7.52
690.227	7.93
690.549	7.94
690.871	8.02
691.194	7.51
691.516	7.63
691.838	8.14
692.16	7.31
692.482	7.33
692.804	7.38
693.126	7.27
693.448	8.06
