Data from 0235_chest_Reflection__0__283.txt Node

Date: Fri Sep 22 22:59:26 CDT 2023
User: ToomeyLab
Spectrometer: FLMS14357
Trigger mode: 0
Integration Time (sec): 1.000000E-2
Scans to average: 100
Electric dark correction enabled: true
Nonlinearity correction enabled: false
Boxcar width: 0
XAxis mode: Wavelengths
Number of Pixels in Spectrum: 2048
>>>>>Begin Spectral Data<<<<<
189.047	325.88
189.435	325.88
189.823	325.88
190.211	-131.99
190.599	-158.58
190.987	-48.54
191.375	6728.57
191.763	28.29
192.151	74.54
192.538	-223.79
192.926	123.54
193.314	55.96
193.702	281.62
194.089	72.06
194.477	27.91
194.864	186.65
195.252	33.35
195.639	97.06
196.027	98.94
196.414	-19.03
196.801	2146.02
197.189	142.36
197.576	-0.61
197.963	-62.04
198.351	-2.65
198.738	52.13
199.125	2.07
199.512	33.32
199.899	43.93
200.286	43.87
200.673	-9.35
201.06	-3.19
201.447	16.27
201.833	-70.37
202.22	14.79
202.607	47.19
202.994	67.7
203.38	0.26
203.767	12.45
204.154	32.64
204.54	15.01
204.927	-17.22
205.313	6.73
205.699	41.97
206.086	42.63
206.472	40.26
206.858	39.26
207.245	40.18
207.631	28.7
208.017	37.73
208.403	15.7
208.789	26.63
209.175	38.9
209.561	29.44
209.947	18.8
210.333	-2.69
210.719	-8.74
211.105	21.5
211.491	46.37
211.876	43.53
212.262	26.42
212.648	18.21
213.034	35.63
213.419	-4.94
213.805	-1.92
214.19	-3.06
214.576	0.98
214.961	5.84
215.346	2.37
215.732	21.15
216.117	3.72
216.502	34.62
216.888	2.4
217.273	4.57
217.658	-5.16
218.043	22.6
218.428	44.33
218.813	-29.63
219.198	-3.7
219.583	-0.17
219.968	-6.03
220.353	27.97
220.738	13.59
221.122	7.74
221.507	-4.54
221.892	-21.06
222.276	17.59
222.661	-27.64
223.046	17.05
223.43	29.95
223.815	10.49
224.199	-10.93
224.583	6.24
224.968	3.77
225.352	6.53
225.736	1.64
226.121	8.76
226.505	2.69
226.889	7.87
227.273	7.62
227.657	-2.81
228.041	2.21
228.425	9.7
228.809	0.37
229.193	4.65
229.577	10.35
229.961	5.5
230.344	3.46
230.728	2.36
231.112	3.45
231.495	2.85
231.879	3.19
232.263	1.3
232.646	2.39
233.03	2.68
233.413	2.81
233.797	3.35
234.18	3.82
234.563	3.66
234.946	3.35
235.33	1.85
235.713	2.47
236.096	2.77
236.479	2.25
236.862	5.86
237.245	4.98
237.628	5.03
238.011	5.41
238.394	3.72
238.777	5.43
239.16	2.7
239.543	4.83
239.925	4.24
240.308	3.18
240.691	4.27
241.073	3.44
241.456	4.16
241.838	3.41
242.221	3.22
242.603	2.85
242.986	2.76
243.368	3.07
243.75	4.2
244.133	3.31
244.515	3.08
244.897	3.03
245.279	3.18
245.661	3.16
246.043	3.85
246.425	2.84
246.807	5.21
247.189	2.5
247.571	2.78
247.953	4.38
248.335	3.53
248.717	3.25
249.098	3.39
249.48	3.11
249.862	3.07
250.243	3.32
250.625	3.43
251.006	3.14
251.388	3.62
251.769	3.02
252.151	2.72
252.532	3.37
252.913	4.64
253.295	4.3
253.676	3.31
254.057	4.14
254.438	3.95
254.819	2.99
255.2	3.55
255.581	3.18
255.962	3.18
256.343	1.85
256.724	2.96
257.105	4.26
257.486	4.15
257.867	3.49
258.247	2.84
258.628	3.96
259.009	3.1
259.389	3.45
259.77	4.68
260.15	3.78
260.531	3.44
260.911	2.96
261.292	3.02
261.672	2.66
262.052	2.77
262.432	2.9
262.813	3.01
263.193	2.73
263.573	3.5
263.953	2.99
264.333	2.83
264.713	3.72
265.093	3.62
265.473	2.9
265.853	2.54
266.233	3.34
266.612	2.64
266.992	3.2
267.372	3.08
267.752	3.81
268.131	3.33
268.511	2.32
268.89	3.1
269.27	2.61
269.649	3.06
270.029	2.98
270.408	2.58
270.787	2.79
271.167	3.19
271.546	2.63
271.925	2.94
272.304	2.66
272.683	2.62
273.062	3.21
273.441	2.74
273.82	3.66
274.199	3.45
274.578	2.97
274.957	2.92
275.336	3.08
275.715	2.82
276.093	2.76
276.472	2.78
276.851	2.77
277.229	2.49
277.608	3.15
277.986	2.9
278.365	3.24
278.743	3.01
279.122	2.97
279.5	3.12
279.878	2.78
280.257	3.56
280.635	3
281.013	2.76
281.391	1.95
281.769	2.81
282.147	3.16
282.525	2.48
282.903	3.3
283.281	2.94
283.659	3.24
284.037	2.32
284.415	3.08
284.792	2.41
285.17	3.13
285.548	3.27
285.925	3.2
286.303	3.12
286.68	2.44
287.058	2.75
287.435	2.93
287.813	2.66
288.19	2.54
288.567	3.11
288.945	2.96
289.322	2.88
289.699	3.37
290.076	3
290.453	2.75
290.83	2.56
291.207	2.83
291.584	2.84
291.961	2.61
292.338	2.9
292.715	3.12
293.092	2.75
293.469	2.82
293.845	2.82
294.222	3
294.599	3.38
294.975	3.48
295.352	3.42
295.728	3.16
296.105	3.59
296.481	3.1
296.858	3.47
297.234	3.46
297.61	3.17
297.986	3.66
298.363	3.4
298.739	3.42
299.115	3.69
299.491	3.6
299.867	3.66
300.243	3.03
300.619	3.39
300.995	3.1
301.371	4.33
301.746	3.54
302.122	3.83
302.498	3.46
302.874	2.84
303.249	3.63
303.625	3.43
304	3.91
304.376	3.76
304.751	4.13
305.127	3.61
305.502	4.23
305.878	3.75
306.253	3.74
306.628	3.45
307.003	3.68
307.378	3.23
307.754	3.71
308.129	3.39
308.504	3.76
308.879	3.3
309.254	3.73
309.629	4.2
310.003	3.93
310.378	3.85
310.753	3.49
311.128	4.09
311.502	3.74
311.877	3.47
312.252	3.48
312.626	3.74
313.001	3.77
313.375	3.89
313.75	4.33
314.124	3.93
314.498	3.35
314.873	3.88
315.247	4.12
315.621	3.9
315.995	4.27
316.369	3.58
316.743	3.76
317.117	4.53
317.491	4.25
317.865	3.53
318.239	4.03
318.613	3.9
318.987	3.87
319.361	4.08
319.734	4.4
320.108	4.65
320.482	4.17
320.855	3.52
321.229	4.45
321.602	3.84
321.976	3.8
322.349	4.09
322.723	4.19
323.096	4.51
323.469	3.98
323.843	4.26
324.216	4.86
324.589	4.23
324.962	3.66
325.335	4.07
325.708	4.04
326.081	4.6
326.454	3.78
326.827	4.04
327.2	4.19
327.573	4.47
327.945	4.22
328.318	4.16
328.691	3.88
329.063	3.88
329.436	4.17
329.809	4.27
330.181	4.15
330.553	3.71
330.926	3.96
331.298	4.75
331.671	4.6
332.043	3.55
332.415	3.9
332.787	4.64
333.159	4.12
333.532	3.55
333.904	4.45
334.276	3.92
334.648	4
335.02	3.91
335.391	4.04
335.763	4.34
336.135	4.18
336.507	4.26
336.879	4.1
337.25	3.89
337.622	4.41
337.993	4.09
338.365	4.18
338.736	3.92
339.108	4.18
339.479	3.91
339.851	3.82
340.222	3.98
340.593	4.12
340.964	3.48
341.336	3.75
341.707	3.86
342.078	4.26
342.449	4.34
342.82	3.8
343.191	3.76
343.562	3.98
343.933	4.54
344.303	4.22
344.674	4.43
345.045	3.83
345.416	4.4
345.786	3.97
346.157	4.01
346.527	3.75
346.898	4.26
347.268	3.97
347.639	4.11
348.009	4.21
348.38	4.11
348.75	4.48
349.12	4.01
349.49	4.55
349.861	4.03
350.231	4.28
350.601	4.55
350.971	4.34
351.341	4.08
351.711	4.36
352.081	3.89
352.45	4.17
352.82	4.24
353.19	4.19
353.56	4.38
353.929	4.54
354.299	3.85
354.669	3.97
355.038	4.15
355.408	4.04
355.777	4.42
356.147	4.08
356.516	4.24
356.885	4.06
357.254	4.29
357.624	3.7
357.993	4.3
358.362	4.24
358.731	3.88
359.1	3.92
359.469	4.13
359.838	4.07
360.207	3.94
360.576	4.22
360.945	4.02
361.314	4.36
361.682	4.04
362.051	4.33
362.42	3.99
362.788	3.99
363.157	4.26
363.525	4.02
363.894	3.98
364.262	3.92
364.631	4.14
364.999	4.1
365.367	4.19
365.735	4.13
366.104	4.35
366.472	4.31
366.84	3.96
367.208	4.39
367.576	4.36
367.944	3.8
368.312	4.75
368.68	4.3
369.048	4.45
369.416	4.31
369.783	4.03
370.151	3.96
370.519	3.75
370.886	3.97
371.254	4.37
371.621	4.2
371.989	4.43
372.356	4.08
372.724	4.58
373.091	4.39
373.458	4.14
373.826	4.42
374.193	4.39
374.56	4.56
374.927	4.56
375.294	3.88
375.661	4.18
376.028	4.72
376.395	4.26
376.762	4.49
377.129	4.46
377.496	4.33
377.863	4.73
378.229	4.4
378.596	4.16
378.963	4.78
379.329	4.21
379.696	4.62
380.062	4.11
380.429	4.39
380.795	4.38
381.161	4.43
381.528	4.15
381.894	3.71
382.26	4.38
382.626	4.21
382.993	4.2
383.359	4.13
383.725	4.18
384.091	4.55
384.457	4.38
384.823	4.45
385.188	4.2
385.554	4.25
385.92	4.64
386.286	4.5
386.651	4.44
387.017	4.34
387.383	4.25
387.748	4.24
388.114	4.2
388.479	4.41
388.845	3.97
389.21	4.27
389.575	4.65
389.94	4.31
390.306	4.33
390.671	4.5
391.036	4.28
391.401	4.26
391.766	4.2
392.131	4.44
392.496	4.53
392.861	4.23
393.226	4.71
393.591	4.43
393.956	4.44
394.32	4.32
394.685	4.2
395.05	4.66
395.414	4.38
395.779	4.27
396.143	4.34
396.508	4.28
396.872	4.24
397.236	4.26
397.601	4.17
397.965	4.39
398.329	4.27
398.694	4.48
399.058	4.34
399.422	4.1
399.786	4.35
400.15	4.54
400.514	4.19
400.878	4.4
401.242	4.39
401.605	4.25
401.969	4.22
402.333	4.4
402.697	4.32
403.06	4.41
403.424	4.36
403.787	4.54
404.151	4.53
404.514	4.5
404.878	4.57
405.241	4.77
405.604	4.4
405.968	4.66
406.331	4.42
406.694	4.27
407.057	4.25
407.42	4.42
407.783	4.62
408.146	4.47
408.509	4.11
408.872	4.25
409.235	4.5
409.598	4.42
409.961	4.56
410.323	4.6
410.686	4.53
411.049	4.57
411.411	4.64
411.774	4.14
412.136	4.33
412.499	4.5
412.861	4.32
413.223	4.61
413.586	4.46
413.948	4.59
414.31	4.31
414.672	4.39
415.035	4.57
415.397	4.64
415.759	4.76
416.121	4.43
416.483	4.4
416.845	4.4
417.206	4.29
417.568	4.41
417.93	4.53
418.292	4.5
418.653	4.36
419.015	4.56
419.377	4.32
419.738	4.56
420.1	4.4
420.461	4.44
420.822	4.35
421.184	4.37
421.545	4.38
421.906	4.38
422.267	4.36
422.629	4.37
422.99	4.37
423.351	4.35
423.712	4.29
424.073	4.24
424.434	4.44
424.795	4.38
425.155	4.45
425.516	4.37
425.877	4.32
426.238	4.22
426.598	4.25
426.959	4.29
427.32	4.39
427.68	4.39
428.041	4.35
428.401	4.52
428.761	4.56
429.122	4.48
429.482	4.58
429.842	4.59
430.202	4.34
430.563	4.5
430.923	4.74
431.283	4.57
431.643	4.54
432.003	4.46
432.363	4.63
432.722	4.67
433.082	4.57
433.442	4.6
433.802	4.56
434.161	4.57
434.521	4.59
434.881	4.62
435.24	4.55
435.6	4.38
435.959	4.35
436.319	4.55
436.678	4.67
437.037	4.67
437.396	4.55
437.756	4.66
438.115	4.59
438.474	4.59
438.833	4.64
439.192	4.71
439.551	4.68
439.91	4.71
440.269	4.66
440.628	4.35
440.987	4.66
441.345	4.82
441.704	4.5
442.063	4.48
442.421	4.57
442.78	4.68
443.138	4.58
443.497	4.61
443.855	4.67
444.214	4.57
444.572	4.73
444.93	4.66
445.288	4.78
445.647	4.62
446.005	4.58
446.363	4.48
446.721	4.7
447.079	4.44
447.437	4.69
447.795	4.68
448.153	4.58
448.51	4.57
448.868	4.55
449.226	4.62
449.584	4.5
449.941	4.6
450.299	4.67
450.656	4.72
451.014	4.79
451.371	4.85
451.729	4.73
452.086	4.65
452.443	4.8
452.801	4.73
453.158	4.84
453.515	4.94
453.872	4.9
454.229	4.87
454.586	4.69
454.943	4.73
455.3	4.74
455.657	4.79
456.014	4.8
456.371	4.84
456.727	4.88
457.084	4.86
457.441	4.74
457.797	4.78
458.154	4.77
458.51	4.78
458.867	4.96
459.223	4.74
459.58	4.97
459.936	4.91
460.292	4.81
460.648	4.88
461.005	4.82
461.361	4.87
461.717	4.68
462.073	4.67
462.429	4.59
462.785	4.71
463.141	4.77
463.496	4.99
463.852	4.85
464.208	4.91
464.564	5.09
464.919	4.89
465.275	5.15
465.631	5.18
465.986	5.12
466.342	4.98
466.697	5.08
467.052	4.99
467.408	5.05
467.763	4.9
468.118	5.08
468.473	5.05
468.829	4.93
469.184	4.88
469.539	5.03
469.894	4.97
470.249	4.97
470.603	4.93
470.958	5.09
471.313	5.11
471.668	4.98
472.023	5.02
472.377	4.9
472.732	4.81
473.086	5.21
473.441	4.85
473.795	5.38
474.15	4.97
474.504	4.94
474.859	4.99
475.213	4.95
475.567	5.03
475.921	5.11
476.275	5.02
476.63	5.1
476.984	5.05
477.338	5.15
477.692	5.15
478.045	5.05
478.399	5.18
478.753	5.13
479.107	5.09
479.461	4.83
479.814	5.13
480.168	5.19
480.521	5.14
480.875	5.21
481.228	5.18
481.582	4.96
481.935	5.11
482.289	5.04
482.642	4.97
482.995	5.08
483.348	5.27
483.701	5.11
484.055	5.1
484.408	4.98
484.761	5.02
485.114	4.92
485.466	4.97
485.819	4.78
486.172	4.81
486.525	4.78
486.878	4.82
487.23	4.87
487.583	4.9
487.936	5.05
488.288	5.08
488.641	5.05
488.993	5.01
489.345	4.95
489.698	4.9
490.05	4.91
490.402	4.95
490.754	4.91
491.107	4.94
491.459	5.05
491.811	5.11
492.163	5.16
492.515	5.18
492.866	5.12
493.218	5.13
493.57	5.12
493.922	4.94
494.274	5.02
494.625	5.13
494.977	5.18
495.328	5.23
495.68	5.22
496.031	5.18
496.383	5.27
496.734	5.44
497.086	5.33
497.437	5.18
497.788	5.39
498.139	5.36
498.49	5.44
498.842	5.3
499.193	5.17
499.544	5.38
499.894	5.32
500.245	5.41
500.596	5.41
500.947	5.44
501.298	5.42
501.648	5.38
501.999	5.52
502.35	5.41
502.7	5.44
503.051	5.37
503.401	5.6
503.752	5.56
504.102	5.47
504.452	5.36
504.803	5.59
505.153	5.56
505.503	5.47
505.853	5.56
506.203	5.38
506.553	5.59
506.903	5.69
507.253	5.59
507.603	5.57
507.953	5.69
508.303	5.51
508.652	5.5
509.002	5.71
509.352	5.49
509.701	5.78
510.051	5.68
510.4	5.65
510.75	5.59
511.099	5.47
511.449	5.62
511.798	5.68
512.147	5.63
512.496	5.49
512.846	5.54
513.195	5.59
513.544	5.61
513.893	5.72
514.242	5.66
514.591	5.72
514.939	5.73
515.288	5.61
515.637	5.66
515.986	5.68
516.334	5.81
516.683	5.81
517.032	5.88
517.38	5.9
517.729	5.78
518.077	5.77
518.426	5.93
518.774	5.8
519.122	5.73
519.47	5.77
519.819	5.71
520.167	5.78
520.515	5.69
520.863	5.71
521.211	5.71
521.559	5.76
521.907	5.78
522.255	5.75
522.602	5.8
522.95	5.72
523.298	5.9
523.645	5.98
523.993	5.88
524.341	5.85
524.688	6.03
525.036	5.78
525.383	5.98
525.73	6.01
526.078	5.93
526.425	5.91
526.772	6
527.119	6.01
527.466	5.8
527.814	5.79
528.161	5.76
528.508	5.85
528.854	5.88
529.201	5.94
529.548	5.95
529.895	5.79
530.242	5.83
530.588	5.69
530.935	5.63
531.282	5.66
531.628	5.75
531.975	5.77
532.321	5.8
532.667	5.86
533.014	5.91
533.36	6
533.706	6.04
534.052	6.17
534.399	6.02
534.745	6.1
535.091	5.96
535.437	5.95
535.783	5.83
536.129	5.95
536.474	6.05
536.82	5.98
537.166	6.17
537.512	6.23
537.857	6.19
538.203	6.31
538.549	6.12
538.894	6.03
539.239	6.12
539.585	6.16
539.93	6.27
540.276	6.23
540.621	6.33
540.966	6.36
541.311	6.31
541.656	6.3
542.001	6.35
542.346	6.34
542.691	6.39
543.036	6.22
543.381	6.21
543.726	6.13
544.071	6.14
544.415	6.21
544.76	6.19
545.105	6.18
545.449	6.22
545.794	6.28
546.138	6.45
546.483	6.45
546.827	6.36
547.171	6.41
547.516	6.58
547.86	6.55
548.204	6.46
548.548	6.69
548.892	6.58
549.236	6.53
549.58	6.59
549.924	6.56
550.268	6.81
550.612	6.67
550.956	6.84
551.3	6.61
551.643	6.91
551.987	6.9
552.33	7.08
552.674	6.91
553.017	6.8
553.361	7.03
553.704	6.97
554.048	6.75
554.391	6.92
554.734	6.95
555.077	6.95
555.42	6.88
555.764	6.85
556.107	6.96
556.45	6.99
556.793	6.95
557.135	7.11
557.478	6.93
557.821	7.14
558.164	7.22
558.507	7.26
558.849	7.13
559.192	7.26
559.534	7.15
559.877	7.22
560.219	7.09
560.562	7.34
560.904	7.35
561.246	7.42
561.589	7.27
561.931	7.23
562.273	7.2
562.615	7.35
562.957	7.18
563.299	7.35
563.641	7.4
563.983	7.36
564.325	7.34
564.667	7.56
565.008	7.2
565.35	7.45
565.692	7.33
566.033	7.52
566.375	7.38
566.716	7.4
567.058	7.58
567.399	7.53
567.741	7.69
568.082	7.35
568.423	7.51
568.764	7.78
569.105	7.31
569.447	7.56
569.788	7.47
570.129	7.5
570.47	7.85
570.811	7.74
571.151	7.75
571.492	7.53
571.833	7.45
572.174	7.63
572.514	7.69
572.855	7.75
573.195	7.56
573.536	7.71
573.876	7.76
574.217	7.66
574.557	7.73
574.898	7.77
575.238	7.86
575.578	7.93
575.918	7.97
576.258	7.88
576.598	7.88
576.938	8.02
577.278	8.02
577.618	7.8
577.958	8
578.298	8.11
578.638	7.78
578.977	7.95
579.317	8.14
579.657	8.17
579.996	8.31
580.336	8.18
580.675	8.42
581.014	8.13
581.354	8.2
581.693	8.36
582.032	8.19
582.372	8.61
582.711	8.17
583.05	8.14
583.389	8.41
583.728	8.45
584.067	8.35
584.406	8.36
584.745	8.17
585.083	8.45
585.422	8.85
585.761	8.45
586.1	8.74
586.438	8.46
586.777	8.57
587.115	8.79
587.454	8.5
587.792	8.86
588.13	8.64
588.469	8.36
588.807	8.88
589.145	8.78
589.483	8.88
589.821	8.75
590.159	8.63
590.497	8.77
590.835	8.87
591.173	8.66
591.511	8.61
591.849	8.85
592.187	9.02
592.524	9.06
592.862	8.85
593.2	9.03
593.537	8.96
593.875	8.83
594.212	8.98
594.55	9.15
594.887	8.97
595.224	9.04
595.561	9.13
595.899	9.37
596.236	9.24
596.573	9.3
596.91	9.16
597.247	9.33
597.584	9.36
597.921	9.2
598.258	9.27
598.594	9.21
598.931	9.06
599.268	9.08
599.604	9.26
599.941	9.28
600.277	9.27
600.614	9.35
600.95	9.21
601.287	9.28
601.623	9.41
601.959	9.47
602.296	9.43
602.632	9.21
602.968	9.48
603.304	9.49
603.64	9.55
603.976	9.36
604.312	9.64
604.648	9.64
604.984	9.58
605.319	9.5
605.655	9.52
605.991	9.65
606.326	9.79
606.662	9.66
606.998	9.67
607.333	9.81
607.668	9.57
608.004	9.72
608.339	9.63
608.674	9.92
609.01	10.02
609.345	9.93
609.68	9.92
610.015	9.92
610.35	9.94
610.685	10.43
611.02	9.89
611.355	9.86
611.689	9.85
612.024	9.94
612.359	10.08
612.694	10.03
613.028	10.13
613.363	10.11
613.697	10.25
614.032	10.15
614.366	10.28
614.7	10.36
615.035	10.53
615.369	10.2
615.703	9.93
616.037	10.79
616.371	10.53
616.705	10.76
617.039	10.81
617.373	10.5
617.707	10.13
618.041	10.55
618.375	10.51
618.709	10.62
619.042	10.86
619.376	10.96
619.71	10.67
620.043	10.36
620.377	10.63
620.71	10.72
621.043	11.24
621.377	10.77
621.71	10.62
622.043	10.75
622.376	10.99
622.709	10.85
623.043	10.95
623.376	10.75
623.709	11.04
624.041	10.75
624.374	11.26
624.707	11.26
625.04	11.43
625.373	10.65
625.705	11.21
626.038	10.86
626.37	11.1
626.703	11.14
627.035	11.14
627.368	11.2
627.7	11.77
628.032	11.58
628.365	11.31
628.697	11.11
629.029	11.35
629.361	11.26
629.693	11.37
630.025	11.01
630.357	10.87
630.689	11.38
631.021	11.16
631.353	11.42
631.684	11.48
632.016	11.99
632.348	11.41
632.679	11.44
633.011	11.5
633.342	11.79
633.674	11.7
634.005	11.31
634.336	11.72
634.668	12.08
634.999	11.83
635.33	12.04
635.661	12.15
635.992	11.5
636.323	11.61
636.654	11.45
636.985	11.56
637.316	12.01
637.647	11.56
637.977	11.43
638.308	12.14
638.639	11.78
638.969	12.07
639.3	12.25
639.63	12.3
639.961	11.83
640.291	11.89
640.622	12.11
640.952	12.25
641.282	12.01
641.612	12.28
641.943	12.39
642.273	12.13
642.603	12.16
642.933	12.26
643.263	12.02
643.592	12.11
643.922	12.75
644.252	12.78
644.582	12.8
644.911	12.59
645.241	12.66
645.571	12.19
645.9	12.58
646.23	12.83
646.559	12.76
646.888	12.48
647.218	12.8
647.547	12.33
647.876	12.87
648.205	12.81
648.534	12.84
648.863	12.66
649.192	12.57
649.521	12.62
649.85	12.82
650.179	12.73
650.508	12.82
650.837	12.77
651.165	12.77
651.494	13.28
651.822	13.05
652.151	13.26
652.479	12.87
652.808	12.92
653.136	13.53
653.465	12.9
653.793	12.81
654.121	13.19
654.449	13.46
654.777	13.35
655.105	13.22
655.433	13.31
655.761	13.3
656.089	13.12
656.417	13.31
656.745	13.13
657.073	13.65
657.4	14.18
657.728	14.05
658.056	13.58
658.383	13.74
658.711	13.61
659.038	13.43
659.365	13.39
659.693	13.04
660.02	13.79
660.347	13.92
660.674	13.2
661.001	13.2
661.329	13.28
661.656	13.53
661.982	13.08
662.309	13.84
662.636	13.94
662.963	14.15
663.29	13.5
663.616	13.48
663.943	14.52
664.27	13.79
664.596	13.57
664.923	14.23
665.249	13.97
665.576	13.48
665.902	13.52
666.228	13.89
666.554	13.57
666.881	14.05
667.207	13.99
667.533	13.16
667.859	13.69
668.185	14.06
668.511	14.46
668.837	14.01
669.162	14.51
669.488	14.29
669.814	14.06
670.139	14.49
670.465	14.58
670.791	14.72
671.116	13.95
671.442	14.82
671.767	13.6
672.092	14.94
672.418	14.98
672.743	14.59
673.068	14.79
673.393	14.56
673.718	15.38
674.043	14.78
674.368	14.88
674.693	14.63
675.018	14.78
675.343	14.55
675.667	14.64
675.992	14.24
676.317	14.78
676.641	15.1
676.966	14.82
677.29	14.65
677.615	15.3
677.939	15.38
678.264	14.89
678.588	15.37
678.912	15.01
679.236	15.25
679.56	14.93
679.885	14.17
680.209	15.6
680.532	14.76
680.856	14.3
681.18	15.09
681.504	15.06
681.828	15.64
682.152	15.09
682.475	15.83
682.799	15.36
683.122	14.81
683.446	15.06
683.769	15.43
684.093	15.44
684.416	15.14
684.739	15.64
685.062	16.36
685.386	15.19
685.709	14.85
686.032	15.51
686.355	14.95
686.678	16.05
687.001	15.7
687.324	15.92
