Data from 0235_forehead_Reflection__1__294.txt Node

Date: Fri Sep 22 23:02:52 CDT 2023
User: ToomeyLab
Spectrometer: FLMS14357
Trigger mode: 0
Integration Time (sec): 1.000000E-2
Scans to average: 100
Electric dark correction enabled: true
Nonlinearity correction enabled: false
Boxcar width: 0
XAxis mode: Wavelengths
Number of Pixels in Spectrum: 2048
>>>>>Begin Spectral Data<<<<<
189.047	298.63
189.435	298.63
189.823	298.63
190.211	77.07
190.599	56.77
190.987	-156.66
191.375	36707.14
191.763	-26.46
192.151	188.46
192.538	37.15
192.926	66.18
193.314	29.66
193.702	1110.54
194.089	149.57
194.477	58.09
194.864	59.36
195.252	42.73
195.639	168.68
196.027	47.49
196.414	157.27
196.801	-999.56
197.189	156.49
197.576	48.52
197.963	-34.6
198.351	9.8
198.738	31.72
199.125	63.61
199.512	-2.58
199.899	45.45
200.286	56.18
200.673	-15.83
201.06	21
201.447	34.99
201.833	-31.61
202.22	15.58
202.607	38.97
202.994	65.17
203.38	40.03
203.767	5.46
204.154	41.18
204.54	28.03
204.927	29.92
205.313	14.09
205.699	56.51
206.086	54.16
206.472	63.82
206.858	14.39
207.245	-14.52
207.631	55.08
208.017	52.92
208.403	51.83
208.789	19.35
209.175	27.59
209.561	29.01
209.947	33.68
210.333	30.75
210.719	27.76
211.105	36.19
211.491	29.23
211.876	26.08
212.262	25.41
212.648	35.98
213.034	36.11
213.419	13.98
213.805	-12.63
214.19	14.13
214.576	24.01
214.961	7.39
215.346	21.22
215.732	36.2
216.117	6.63
216.502	37.22
216.888	29.38
217.273	2.61
217.658	25.05
218.043	8.53
218.428	21.13
218.813	-25.01
219.198	11.87
219.583	22.53
219.968	6.42
220.353	35.43
220.738	-1.25
221.122	15.7
221.507	12.68
221.892	16.75
222.276	19.92
222.661	-2.31
223.046	20.57
223.43	10.15
223.815	5.61
224.199	0.4
224.583	8.4
224.968	7.34
225.352	10.52
225.736	7.26
226.121	4.8
226.505	2.67
226.889	7.56
227.273	-2.11
227.657	7.61
228.041	6.13
228.425	10.62
228.809	4.94
229.193	4.82
229.577	7.4
229.961	6.77
230.344	5.6
230.728	3.18
231.112	4.23
231.495	3.18
231.879	3.87
232.263	2.72
232.646	2.04
233.03	3.01
233.413	2.78
233.797	4
234.18	3.53
234.563	8.3
234.946	4.82
235.33	2.08
235.713	1.47
236.096	5.34
236.479	3.39
236.862	4.48
237.245	3.39
237.628	3.81
238.011	5.71
238.394	1.12
238.777	4.65
239.16	3.96
239.543	6.41
239.925	3.33
240.308	3.03
240.691	3.49
241.073	6.67
241.456	2.63
241.838	2.52
242.221	4.77
242.603	5.09
242.986	3.08
243.368	3.23
243.75	3.73
244.133	4.93
244.515	3.02
244.897	3.05
245.279	3.36
245.661	3.45
246.043	3.85
246.425	3.14
246.807	3.68
247.189	2.18
247.571	3.61
247.953	3.58
248.335	3.8
248.717	3.63
249.098	3.42
249.48	3.5
249.862	3.42
250.243	3.5
250.625	3.75
251.006	3.32
251.388	4.06
251.769	3.84
252.151	3.88
252.532	3.93
252.913	3.6
253.295	4.73
253.676	3.62
254.057	3.69
254.438	4.13
254.819	3.24
255.2	3.99
255.581	3.73
255.962	4.06
256.343	4.24
256.724	3.3
257.105	4.64
257.486	5.17
257.867	3.71
258.247	4.47
258.628	5.41
259.009	2.75
259.389	3.57
259.77	3.92
260.15	4.18
260.531	3.37
260.911	3.68
261.292	3.57
261.672	3.29
262.052	3.46
262.432	3.45
262.813	3.65
263.193	3.55
263.573	4
263.953	3.88
264.333	4.06
264.713	4.04
265.093	3.35
265.473	3.19
265.853	2.9
266.233	3.81
266.612	3.89
266.992	4.5
267.372	3.65
267.752	4.72
268.131	3.34
268.511	3.56
268.89	3.55
269.27	3.21
269.649	3.45
270.029	3.48
270.408	3.81
270.787	2.77
271.167	3.31
271.546	3.01
271.925	2.8
272.304	2.56
272.683	4.06
273.062	3.87
273.441	3.73
273.82	3.72
274.199	3.7
274.578	3.6
274.957	3.36
275.336	3.73
275.715	3.5
276.093	3.21
276.472	3.6
276.851	3.49
277.229	3.1
277.608	3.64
277.986	3.11
278.365	4.14
278.743	3.33
279.122	3.54
279.5	3.27
279.878	2.7
280.257	4.37
280.635	3.36
281.013	3.57
281.391	3.18
281.769	3.71
282.147	3.32
282.525	3.73
282.903	3.38
283.281	3.52
283.659	3.59
284.037	3.47
284.415	3.7
284.792	3.54
285.17	3.72
285.548	4.34
285.925	4.19
286.303	4.03
286.68	3.45
287.058	3.52
287.435	3.27
287.813	3.39
288.19	2.8
288.567	3.69
288.945	2.87
289.322	3.58
289.699	3.65
290.076	3.74
290.453	3.21
290.83	3.41
291.207	3.39
291.584	3.42
291.961	3.74
292.338	3.49
292.715	4.01
293.092	3.51
293.469	3.95
293.845	3.35
294.222	4.27
294.599	3.94
294.975	4.42
295.352	3.04
295.728	3.84
296.105	3.68
296.481	4.06
296.858	3.66
297.234	3.62
297.61	3.94
297.986	3.8
298.363	3.75
298.739	3.6
299.115	3.84
299.491	4.14
299.867	3.84
300.243	3.58
300.619	4.25
300.995	3.91
301.371	4.15
301.746	4.64
302.122	3.59
302.498	3.79
302.874	3.62
303.249	4.33
303.625	3.77
304	4.22
304.376	4.42
304.751	4.23
305.127	4.5
305.502	4.61
305.878	3.98
306.253	4.56
306.628	4.04
307.003	3.95
307.378	4.62
307.754	4.58
308.129	4.63
308.504	4.6
308.879	4.91
309.254	4.81
309.629	4.37
310.003	5.22
310.378	5.12
310.753	4.77
311.128	4.71
311.502	4.63
311.877	4.27
312.252	4.53
312.626	4.75
313.001	5.18
313.375	5.22
313.75	5.13
314.124	5.4
314.498	4.67
314.873	4.59
315.247	5.56
315.621	5.29
315.995	5.2
316.369	5.23
316.743	5.09
317.117	5.23
317.491	4.93
317.865	4.68
318.239	5.35
318.613	5.18
318.987	5.37
319.361	5.13
319.734	5.14
320.108	5.83
320.482	5.19
320.855	5.43
321.229	5.83
321.602	5.61
321.976	5.28
322.349	5.68
322.723	5.57
323.096	5.62
323.469	5.59
323.843	5.27
324.216	6.06
324.589	5.84
324.962	5.52
325.335	5.31
325.708	6.15
326.081	6.25
326.454	5.48
326.827	5.69
327.2	6.09
327.573	5.96
327.945	6.2
328.318	6.05
328.691	6.26
329.063	5.36
329.436	6.14
329.809	6.3
330.181	5.87
330.553	6.17
330.926	6.19
331.298	6.3
331.671	5.9
332.043	5.24
332.415	5.71
332.787	6.42
333.159	5.87
333.532	6.13
333.904	5.94
334.276	5.9
334.648	5.95
335.02	5.79
335.391	6.62
335.763	5.85
336.135	6.49
336.507	6.12
336.879	6.26
337.25	6.6
337.622	6.57
337.993	6.57
338.365	6.37
338.736	6.5
339.108	6.4
339.479	5.66
339.851	5.95
340.222	6.3
340.593	6.11
340.964	6.01
341.336	6.05
341.707	6.59
342.078	6.5
342.449	6.62
342.82	6.44
343.191	5.71
343.562	6.22
343.933	6.51
344.303	6.69
344.674	6.55
345.045	6.58
345.416	6.86
345.786	6.45
346.157	6.43
346.527	6.68
346.898	6.89
347.268	6.53
347.639	6.1
348.009	6.39
348.38	6.91
348.75	7.01
349.12	6.14
349.49	6.66
349.861	6.88
350.231	6.64
350.601	6.79
350.971	7.16
351.341	6.24
351.711	6.73
352.081	6.41
352.45	6.74
352.82	7.23
353.19	7.12
353.56	6.72
353.929	6.85
354.299	7.07
354.669	7.06
355.038	7.2
355.408	7.22
355.777	7.31
356.147	7.02
356.516	7.12
356.885	6.97
357.254	7.62
357.624	7.13
357.993	7.17
358.362	7.37
358.731	7.15
359.1	7.15
359.469	7.14
359.838	7.4
360.207	7.18
360.576	7.47
360.945	7.09
361.314	7.23
361.682	7.74
362.051	7.71
362.42	7.41
362.788	7.37
363.157	7.58
363.525	7.3
363.894	7.37
364.262	7.31
364.631	7.16
364.999	7.25
365.367	7.55
365.735	7.47
366.104	7.42
366.472	7.76
366.84	7.12
367.208	7.54
367.576	7.56
367.944	7.69
368.312	7.87
368.68	7.85
369.048	7.74
369.416	7.63
369.783	7.49
370.151	7.52
370.519	7.87
370.886	7.7
371.254	7.81
371.621	7.73
371.989	7.68
372.356	7.71
372.724	8.1
373.091	8.29
373.458	7.91
373.826	8.05
374.193	8.01
374.56	8.04
374.927	7.9
375.294	8.27
375.661	7.95
376.028	8.08
376.395	8.21
376.762	8.21
377.129	8.14
377.496	8.39
377.863	8.26
378.229	8.03
378.596	8.15
378.963	8.4
379.329	8.22
379.696	8.14
380.062	8.12
380.429	8.24
380.795	7.97
381.161	8.47
381.528	8.39
381.894	7.75
382.26	8.46
382.626	8.12
382.993	8.63
383.359	8.25
383.725	8.39
384.091	8.35
384.457	8.1
384.823	8.18
385.188	8.47
385.554	8.61
385.92	8.74
386.286	8.31
386.651	8.63
387.017	8.69
387.383	8.6
387.748	8.13
388.114	8.55
388.479	8.68
388.845	8.37
389.21	8.52
389.575	8.72
389.94	8.38
390.306	8.75
390.671	9.16
391.036	8.3
391.401	8.66
391.766	8.51
392.131	8.64
392.496	8.72
392.861	8.4
393.226	8.67
393.591	8.73
393.956	8.57
394.32	8.8
394.685	8.7
395.05	8.96
395.414	8.68
395.779	9.02
396.143	8.77
396.508	8.66
396.872	8.69
397.236	8.94
397.601	8.65
397.965	9.07
398.329	8.97
398.694	9.07
399.058	8.92
399.422	8.96
399.786	8.93
400.15	9.16
400.514	9.04
400.878	8.85
401.242	9.11
401.605	9.23
401.969	8.82
402.333	9.01
402.697	8.71
403.06	8.88
403.424	8.98
403.787	9.09
404.151	9.04
404.514	9.11
404.878	9.2
405.241	9.34
405.604	8.89
405.968	9.27
406.331	9.12
406.694	8.95
407.057	8.68
407.42	9.15
407.783	9.16
408.146	9.11
408.509	8.98
408.872	8.97
409.235	9
409.598	9.08
409.961	9.27
410.323	9.01
410.686	9.07
411.049	9.21
411.411	9.35
411.774	9.15
412.136	8.96
412.499	8.89
412.861	9.17
413.223	9.23
413.586	9
413.948	9.23
414.31	9.28
414.672	9.2
415.035	9.29
415.397	9.58
415.759	9.79
416.121	9.54
416.483	9.08
416.845	8.91
417.206	9.09
417.568	9.16
417.93	9.29
418.292	9.36
418.653	9.19
419.015	9.39
419.377	9.04
419.738	9.32
420.1	9.27
420.461	9.21
420.822	9.21
421.184	9.27
421.545	9.23
421.906	9.28
422.267	9.32
422.629	9.29
422.99	9.31
423.351	9.26
423.712	9.26
424.073	9.4
424.434	9.4
424.795	9.46
425.155	9.56
425.516	9.49
425.877	9.48
426.238	9.45
426.598	9.58
426.959	9.6
427.32	9.68
427.68	9.61
428.041	9.75
428.401	9.91
428.761	9.98
429.122	9.97
429.482	10.08
429.842	9.95
430.202	9.93
430.563	10.27
430.923	10.24
431.283	10.5
431.643	10.35
432.003	10.37
432.363	10.39
432.722	10.42
433.082	10.72
433.442	10.46
433.802	10.64
434.161	10.54
434.521	10.36
434.881	10.67
435.24	10.72
435.6	10.57
435.959	10.42
436.319	10.42
436.678	10.9
437.037	10.86
437.396	10.78
437.756	10.72
438.115	10.81
438.474	10.88
438.833	10.94
439.192	10.94
439.551	10.96
439.91	11.09
440.269	11.16
440.628	11.11
440.987	11.22
441.345	11.22
441.704	11.17
442.063	11.1
442.421	11.23
442.78	11.09
443.138	11.28
443.497	11.16
443.855	11.17
444.214	11.24
444.572	11.28
444.93	11.3
445.288	11.5
445.647	11.59
446.005	11.45
446.363	11.43
446.721	11.56
447.079	11.5
447.437	11.52
447.795	11.61
448.153	11.4
448.51	11.53
448.868	11.57
449.226	11.62
449.584	11.71
449.941	11.64
450.299	11.74
450.656	11.86
451.014	11.86
451.371	11.78
451.729	11.92
452.086	12.02
452.443	12.14
452.801	12.21
453.158	12.17
453.515	12.18
453.872	12.17
454.229	12.13
454.586	12.3
454.943	12.2
455.3	12.2
455.657	12.29
456.014	12.41
456.371	12.51
456.727	12.71
457.084	12.48
457.441	12.51
457.797	12.62
458.154	12.54
458.51	12.69
458.867	12.64
459.223	12.6
459.58	12.59
459.936	12.89
460.292	12.79
460.648	12.62
461.005	12.72
461.361	12.74
461.717	12.42
462.073	12.54
462.429	12.56
462.785	12.62
463.141	12.8
463.496	12.93
463.852	12.98
464.208	13.18
464.564	13.18
464.919	13.11
465.275	13.39
465.631	13.28
465.986	13.31
466.342	13.4
466.697	13.46
467.052	13.33
467.408	13.46
467.763	13.47
468.118	13.57
468.473	13.42
468.829	13.36
469.184	13.49
469.539	13.62
469.894	13.63
470.249	13.75
470.603	13.55
470.958	13.67
471.313	13.9
471.668	13.91
472.023	13.79
472.377	13.8
472.732	13.69
473.086	14.05
473.441	13.75
473.795	14.25
474.15	13.87
474.504	13.85
474.859	14.03
475.213	13.82
475.567	14.07
475.921	14.12
476.275	14.08
476.63	14.02
476.984	14.06
477.338	14.51
477.692	14.23
478.045	14.17
478.399	14.32
478.753	14.13
479.107	14.23
479.461	14.1
479.814	14.43
480.168	14.21
480.521	14.33
480.875	14.35
481.228	14.4
481.582	14.34
481.935	14.41
482.289	14.5
482.642	14.43
482.995	14.49
483.348	14.61
483.701	14.53
484.055	14.43
484.408	14.39
484.761	14.36
485.114	14.19
485.466	14.07
485.819	13.84
486.172	13.74
486.525	13.86
486.878	13.95
487.23	14.15
487.583	14.2
487.936	14.43
488.288	14.47
488.641	14.54
488.993	14.35
489.345	14.3
489.698	14.26
490.05	14.33
490.402	14.35
490.754	14.38
491.107	14.44
491.459	14.7
491.811	14.8
492.163	14.99
492.515	14.93
492.866	14.91
493.218	14.87
493.57	14.75
493.922	14.55
494.274	14.63
494.625	14.85
494.977	15.04
495.328	15.26
495.68	15.29
496.031	15.38
496.383	15.59
496.734	15.63
497.086	15.52
497.437	15.79
497.788	15.72
498.139	15.7
498.49	15.77
498.842	15.69
499.193	15.58
499.544	15.71
499.894	15.83
500.245	15.75
500.596	15.81
500.947	16.06
501.298	15.86
501.648	15.86
501.999	16.12
502.35	16.07
502.7	16.04
503.051	15.99
503.401	16.2
503.752	16.09
504.102	16.28
504.452	16.25
504.803	16.16
505.153	16.23
505.503	16.08
505.853	16.39
506.203	16.37
506.553	16.24
506.903	16.23
507.253	16.32
507.603	16.38
507.953	16.61
508.303	16.58
508.652	16.57
509.002	16.64
509.352	16.64
509.701	16.65
510.051	16.59
510.4	16.61
510.75	16.53
511.099	16.51
511.449	16.61
511.798	16.51
512.147	16.67
512.496	16.69
512.846	16.63
513.195	16.64
513.544	16.7
513.893	16.87
514.242	16.71
514.591	16.84
514.939	16.9
515.288	16.82
515.637	16.91
515.986	16.97
516.334	16.93
516.683	16.98
517.032	17.11
517.38	17.02
517.729	17.05
518.077	17.16
518.426	17.26
518.774	17.09
519.122	17.22
519.47	17.12
519.819	17.13
520.167	17.07
520.515	16.94
520.863	16.83
521.211	16.87
521.559	16.99
521.907	17.03
522.255	17.26
522.602	17.23
522.95	17.37
523.298	17.45
523.645	17.39
523.993	17.45
524.341	17.37
524.688	17.5
525.036	17.65
525.383	17.64
525.73	17.67
526.078	17.65
526.425	17.71
526.772	17.7
527.119	17.52
527.466	17.33
527.814	17.35
528.161	17.18
528.508	17.34
528.854	17.27
529.201	17.44
529.548	17.35
529.895	17.31
530.242	17.24
530.588	16.93
530.935	16.74
531.282	16.89
531.628	17.11
531.975	17.23
532.321	17.23
532.667	17.45
533.014	17.59
533.36	17.71
533.706	17.76
534.052	17.97
534.399	17.78
534.745	17.67
535.091	17.63
535.437	17.44
535.783	17.37
536.129	17.56
536.474	17.77
536.82	17.79
537.166	17.98
537.512	18.05
537.857	18.14
538.203	18.19
538.549	17.98
538.894	17.94
539.239	17.95
539.585	18.04
539.93	18.24
540.276	18.27
540.621	18.36
540.966	18.5
541.311	18.59
541.656	18.5
542.001	18.57
542.346	18.46
542.691	18.55
543.036	18.21
543.381	18.13
543.726	17.94
544.071	18
544.415	18.09
544.76	18.26
545.105	18.18
545.449	18.37
545.794	18.34
546.138	18.56
546.483	18.56
546.827	18.78
547.171	18.82
547.516	18.95
547.86	18.87
548.204	19
548.548	18.91
548.892	18.89
549.236	18.88
549.58	18.93
549.924	19.12
550.268	19.25
550.612	19.27
550.956	19.4
551.3	19.48
551.643	19.48
551.987	19.52
552.33	19.72
552.674	19.53
553.017	19.65
553.361	19.54
553.704	19.66
554.048	19.79
554.391	19.73
554.734	19.76
555.077	19.64
555.42	19.6
555.764	19.48
556.107	19.71
556.45	19.86
556.793	19.9
557.135	20
557.478	19.87
557.821	20.02
558.164	20.31
558.507	20.15
558.849	20.07
559.192	20.2
559.534	20.05
559.877	20.17
560.219	20.25
560.562	20.22
560.904	20.54
561.246	20.51
561.589	20.48
561.931	20.28
562.273	20.28
562.615	20.39
562.957	20.37
563.299	20.33
563.641	20.56
563.983	20.52
564.325	20.51
564.667	20.6
565.008	20.54
565.35	20.56
565.692	20.71
566.033	20.65
566.375	20.58
566.716	20.63
567.058	20.72
567.399	20.68
567.741	20.69
568.082	20.72
568.423	20.76
568.764	20.73
569.105	20.5
569.447	20.82
569.788	20.69
570.129	20.75
570.47	20.94
570.811	21.11
571.151	20.89
571.492	20.99
571.833	20.91
572.174	21.02
572.514	21.06
572.855	20.97
573.195	21.2
573.536	21.08
573.876	21.1
574.217	21.05
574.557	21.15
574.898	21.26
575.238	21.12
575.578	21.35
575.918	21.21
576.258	21.26
576.598	21.22
576.938	21.22
577.278	21.4
577.618	21.31
577.958	21.55
578.298	21.39
578.638	21.4
578.977	21.69
579.317	21.7
579.657	21.82
579.996	21.58
580.336	21.77
580.675	21.84
581.014	21.74
581.354	21.67
581.693	21.93
582.032	22.12
582.372	21.92
582.711	22.13
583.05	21.93
583.389	22.32
583.728	21.95
584.067	22.08
584.406	22.01
584.745	21.9
585.083	22.31
585.422	22.36
585.761	22.08
586.1	22.44
586.438	22.37
586.777	22.31
587.115	22.7
587.454	22.29
587.792	22.51
588.13	22.42
588.469	22.7
588.807	22.79
589.145	22.62
589.483	22.43
589.821	22.7
590.159	22.38
590.497	22.96
590.835	22.55
591.173	22.62
591.511	22.85
591.849	22.85
592.187	22.68
592.524	22.7
592.862	22.79
593.2	22.72
593.537	22.87
593.875	22.68
594.212	23.05
594.55	23.15
594.887	22.77
595.224	23.09
595.561	22.97
595.899	23.46
596.236	23.22
596.573	23.27
596.91	22.89
597.247	23.09
597.584	23.34
597.921	23.16
598.258	23.38
598.594	23.48
598.931	23.04
599.268	23.13
599.604	23.29
599.941	23.14
600.277	23.38
600.614	23.39
600.95	23.4
601.287	23.38
601.623	23.6
601.959	23.54
602.296	23.48
602.632	23.69
602.968	23.68
603.304	23.6
603.64	23.6
603.976	23.8
604.312	23.82
604.648	23.73
604.984	23.75
605.319	23.58
605.655	23.54
605.991	23.76
606.326	23.67
606.662	23.7
606.998	23.63
607.333	23.82
607.668	23.68
608.004	23.93
608.339	23.81
608.674	24.02
609.01	24.15
609.345	24.22
609.68	24.4
610.015	24.22
610.35	24.26
610.685	24.31
611.02	24.35
611.355	24.27
611.689	24.31
612.024	24.08
612.359	24.25
612.694	24.41
613.028	24.37
613.363	24.45
613.697	24.06
614.032	24.54
614.366	24.2
614.7	24.73
615.035	24.48
615.369	24.52
615.703	24.62
616.037	24.82
616.371	24.98
616.705	25.24
617.039	24.82
617.373	24.78
617.707	24.63
618.041	25.01
618.375	25.01
618.709	25.34
619.042	25.23
619.376	25.05
619.71	25.01
620.043	24.97
620.377	24.9
620.71	25.15
621.043	25.42
621.377	25.14
621.71	25.27
622.043	25.3
622.376	25.54
622.709	25.43
623.043	25.31
623.376	25.3
623.709	25.38
624.041	25.27
624.374	25.55
624.707	25.63
625.04	25.8
625.373	25.27
625.705	25.02
626.038	25.7
626.37	25.45
626.703	25.53
627.035	25.57
627.368	26
627.7	26.05
628.032	25.85
628.365	25.8
628.697	25.73
629.029	25.54
629.361	25.68
629.693	25.76
630.025	25.66
630.357	25.75
630.689	26.11
631.021	25.79
631.353	25.95
631.684	26.21
632.016	26.15
632.348	26.21
632.679	26.03
633.011	26.28
633.342	26.48
633.674	26.24
634.005	26.24
634.336	26.06
634.668	26.3
634.999	26.3
635.33	26.57
635.661	26.47
635.992	26.17
636.323	26.18
636.654	26.59
636.985	26.35
637.316	25.99
637.647	26.32
637.977	26.42
638.308	26.73
638.639	26.78
638.969	26.43
639.3	26.84
639.63	27.15
639.961	26.95
640.291	26.82
640.622	26.71
640.952	26.78
641.282	26.81
641.612	26.51
641.943	27.2
642.273	27.29
642.603	26.97
642.933	27.06
643.263	26.71
643.592	27.07
643.922	27.22
644.252	26.58
644.582	27.53
644.911	27.21
645.241	27.15
645.571	26.81
645.9	27.18
646.23	27.81
646.559	27.21
646.888	27.33
647.218	27.13
647.547	27.44
647.876	27.52
648.205	26.65
648.534	27.71
648.863	27.34
649.192	27.19
649.521	27.08
649.85	27.61
650.179	27.38
650.508	27.58
650.837	27.77
651.165	28.22
651.494	27.49
651.822	27.62
652.151	27.17
652.479	27.77
652.808	27.66
653.136	27.98
653.465	28.22
653.793	27.33
654.121	27.96
654.449	27.88
654.777	28.08
655.105	28.11
655.433	28.16
655.761	28.31
656.089	27.61
656.417	28.58
656.745	28.43
657.073	27.85
657.4	28.85
657.728	28.14
658.056	28.8
658.383	28.61
658.711	28.08
659.038	28.01
659.365	28.01
659.693	27.45
660.02	28.98
660.347	28.23
660.674	28.37
661.001	28.37
661.329	28.1
661.656	27.92
661.982	28.04
662.309	28.75
662.636	28.26
662.963	28.6
663.29	28.38
663.616	28.14
663.943	28.78
664.27	28.75
664.596	28.62
664.923	28.35
665.249	28.74
665.576	28.56
665.902	28.37
666.228	29.26
666.554	28.37
666.881	29.15
667.207	29.06
667.533	28.77
667.859	29.14
668.185	29.41
668.511	29.44
668.837	28.79
669.162	29.25
669.488	29.54
669.814	28.57
670.139	28.51
670.465	29.61
670.791	29.21
671.116	29.14
671.442	29.47
671.767	28.46
672.092	29.18
672.418	30.21
672.743	29.31
673.068	29.64
673.393	28.89
673.718	29.69
674.043	29.87
674.368	29.29
674.693	29.52
675.018	29.4
675.343	29.33
675.667	29.94
675.992	29.09
