Data from 0235_crown_Reflection__4__292.txt Node

Date: Fri Sep 22 23:02:07 CDT 2023
User: ToomeyLab
Spectrometer: FLMS14357
Trigger mode: 0
Integration Time (sec): 1.000000E-2
Scans to average: 100
Electric dark correction enabled: true
Nonlinearity correction enabled: false
Boxcar width: 0
XAxis mode: Wavelengths
Number of Pixels in Spectrum: 2048
>>>>>Begin Spectral Data<<<<<
189.047	-101.76
189.435	-101.76
189.823	-101.76
190.211	-58.44
190.599	-79.87
190.987	-51.67
191.375	30921.43
191.763	0.47
192.151	151.59
192.538	-122.15
192.926	42.08
193.314	-23.5
193.702	944.59
194.089	118.1
194.477	-122.3
194.864	117.16
195.252	45.95
195.639	99.03
196.027	29.84
196.414	-128.89
196.801	66.81
197.189	35.51
197.576	160.09
197.963	-88.13
198.351	-1.15
198.738	-14.03
199.125	11.82
199.512	15.16
199.899	32.57
200.286	44.51
200.673	-19.18
201.06	-0.5
201.447	31.07
201.833	-4.89
202.22	20.97
202.607	31.28
202.994	23.41
203.38	20.78
203.767	9.24
204.154	45.42
204.54	7.46
204.927	-5.92
205.313	3.67
205.699	51.4
206.086	16.94
206.472	25.3
206.858	22.25
207.245	-18.17
207.631	18.21
208.017	28.24
208.403	-0.19
208.789	21.79
209.175	43.36
209.561	41.16
209.947	20.88
210.333	12.37
210.719	-8
211.105	23.81
211.491	15.56
211.876	24.96
212.262	20.24
212.648	26.43
213.034	23.48
213.419	8.68
213.805	4.72
214.19	12.14
214.576	22.14
214.961	8.43
215.346	-15.95
215.732	24.3
216.117	32.37
216.502	25.28
216.888	-3.27
217.273	34.14
217.658	-6.67
218.043	13.23
218.428	23.19
218.813	-9.64
219.198	-4.9
219.583	1.73
219.968	-9.83
220.353	16.37
220.738	-14.57
221.122	4.61
221.507	-17.51
221.892	6.11
222.276	-12.54
222.661	-51.12
223.046	12.34
223.43	12.55
223.815	-9.22
224.199	0.51
224.583	3.79
224.968	17.11
225.352	-3.4
225.736	4.61
226.121	1.86
226.505	7.8
226.889	13.94
227.273	2.53
227.657	1.21
228.041	3.16
228.425	12.7
228.809	-1.04
229.193	0.05
229.577	2.89
229.961	4.24
230.344	7.18
230.728	4.11
231.112	4.9
231.495	4.65
231.879	3.89
232.263	2.65
232.646	3.88
233.03	3.34
233.413	5.34
233.797	4.36
234.18	1.91
234.563	5.88
234.946	4.82
235.33	2.63
235.713	2.6
236.096	3.79
236.479	5.48
236.862	6.69
237.245	4.74
237.628	5.31
238.011	4.75
238.394	3.69
238.777	7.15
239.16	3.45
239.543	4.56
239.925	5.67
240.308	6.63
240.691	4.57
241.073	7.41
241.456	3.67
241.838	2.93
242.221	3.79
242.603	5.47
242.986	5
243.368	3.33
243.75	4.27
244.133	5.06
244.515	4.36
244.897	4.54
245.279	4.24
245.661	4.21
246.043	5.06
246.425	3.81
246.807	5.82
247.189	3.38
247.571	4.42
247.953	5.13
248.335	4.5
248.717	4.84
249.098	4.29
249.48	4.32
249.862	4.3
250.243	4.18
250.625	4.6
251.006	3.75
251.388	4.47
251.769	4.4
252.151	4
252.532	4.78
252.913	4.26
253.295	5.79
253.676	5.3
254.057	4.48
254.438	5.04
254.819	4.1
255.2	4.14
255.581	4.32
255.962	5.18
256.343	4.5
256.724	3.02
257.105	5.03
257.486	3.57
257.867	3.62
258.247	5.15
258.628	4.13
259.009	3.3
259.389	4.01
259.77	4.53
260.15	4.85
260.531	3.87
260.911	3.87
261.292	4.14
261.672	3.91
262.052	4.06
262.432	4.34
262.813	4.28
263.193	3.66
263.573	3.99
263.953	4.58
264.333	3.95
264.713	4.16
265.093	4.19
265.473	3.8
265.853	3.32
266.233	3.79
266.612	3.93
266.992	5.25
267.372	4.29
267.752	4.4
268.131	4.21
268.511	3.68
268.89	4.33
269.27	4.32
269.649	3.89
270.029	3.76
270.408	3.94
270.787	4.3
271.167	3.88
271.546	3.96
271.925	4.59
272.304	3.26
272.683	3.71
273.062	4.81
273.441	4.03
273.82	4.34
274.199	4.09
274.578	4.4
274.957	4
275.336	3.79
275.715	4.24
276.093	3.62
276.472	4.19
276.851	3.87
277.229	3.29
277.608	4.22
277.986	4
278.365	3.91
278.743	4.07
279.122	4.47
279.5	4.19
279.878	3.81
280.257	4.62
280.635	3.54
281.013	4.18
281.391	3.6
281.769	3.63
282.147	4.35
282.525	3.83
282.903	4.27
283.281	3.88
283.659	3.99
284.037	3.92
284.415	4.21
284.792	3.57
285.17	4.04
285.548	4.59
285.925	3.63
286.303	3.7
286.68	4.07
287.058	3.62
287.435	3.77
287.813	3.63
288.19	3.71
288.567	4.42
288.945	3.81
289.322	4.1
289.699	4.02
290.076	4.06
290.453	3.42
290.83	3.28
291.207	3.98
291.584	3.86
291.961	3.63
292.338	3.73
292.715	4.37
293.092	3.72
293.469	3.92
293.845	3.51
294.222	3.75
294.599	3.91
294.975	4.57
295.352	4.07
295.728	3.87
296.105	4.28
296.481	3.98
296.858	3.72
297.234	3.78
297.61	3.72
297.986	4.07
298.363	4.16
298.739	3.71
299.115	4.03
299.491	4.12
299.867	3.98
300.243	3.75
300.619	3.95
300.995	3.45
301.371	4.09
301.746	4.24
302.122	3.83
302.498	4
302.874	4.1
303.249	4.17
303.625	3.93
304	3.87
304.376	4.46
304.751	4.52
305.127	4.11
305.502	4.08
305.878	4.07
306.253	4.11
306.628	4.13
307.003	3.74
307.378	4.21
307.754	3.29
308.129	3.9
308.504	4.03
308.879	4
309.254	4.07
309.629	4.21
310.003	4.75
310.378	4.1
310.753	4.05
311.128	4.37
311.502	4.09
311.877	3.85
312.252	4.28
312.626	4.2
313.001	4.48
313.375	4.38
313.75	4.39
314.124	4.43
314.498	3.96
314.873	4.7
315.247	4.52
315.621	4.26
315.995	3.92
316.369	4.46
316.743	3.94
317.117	4.43
317.491	4.16
317.865	3.83
318.239	4.32
318.613	4.95
318.987	4.33
319.361	4.2
319.734	3.84
320.108	3.89
320.482	3.64
320.855	4.41
321.229	4.59
321.602	4.7
321.976	3.69
322.349	4.34
322.723	3.79
323.096	4.06
323.469	4.19
323.843	4.11
324.216	4.29
324.589	3.94
324.962	3.29
325.335	4.37
325.708	3.85
326.081	4.31
326.454	3.72
326.827	4.29
327.2	3.91
327.573	4.27
327.945	4.09
328.318	4.38
328.691	4.04
329.063	4.36
329.436	4.22
329.809	4.22
330.181	3.52
330.553	4.16
330.926	4.05
331.298	4.03
331.671	4.28
332.043	3.36
332.415	4.03
332.787	4.51
333.159	4.35
333.532	3.21
333.904	4.07
334.276	4.36
334.648	3.58
335.02	4.31
335.391	3.92
335.763	4.14
336.135	4.27
336.507	4.04
336.879	3.73
337.25	4.52
337.622	4.71
337.993	4.43
338.365	4.6
338.736	4.29
339.108	4.89
339.479	4.31
339.851	3.57
340.222	3.96
340.593	3.94
340.964	3.87
341.336	4.14
341.707	3.38
342.078	4.04
342.449	4.19
342.82	4.23
343.191	3.75
343.562	3.91
343.933	3.88
344.303	3.98
344.674	4.22
345.045	3.89
345.416	4.29
345.786	3.77
346.157	4.02
346.527	4.29
346.898	3.87
347.268	3.87
347.639	3.72
348.009	4.26
348.38	4.11
348.75	4.52
349.12	3.99
349.49	4.18
349.861	4.39
350.231	4.08
350.601	4.04
350.971	4.31
351.341	4.08
351.711	3.87
352.081	4.07
352.45	4.04
352.82	4.48
353.19	4.06
353.56	4.05
353.929	4.3
354.299	4.01
354.669	3.86
355.038	4.21
355.408	4.24
355.777	4.31
356.147	4.26
356.516	4.53
356.885	4
357.254	4.24
357.624	3.6
357.993	4.15
358.362	4.1
358.731	4.27
359.1	3.96
359.469	4.1
359.838	4.07
360.207	3.93
360.576	4.23
360.945	3.97
361.314	4.36
361.682	4.26
362.051	4.25
362.42	3.98
362.788	3.88
363.157	4.24
363.525	3.93
363.894	4.04
364.262	4.07
364.631	3.99
364.999	3.79
365.367	4.09
365.735	3.88
366.104	3.64
366.472	4.26
366.84	3.93
367.208	4.24
367.576	4.23
367.944	3.93
368.312	4.47
368.68	4.56
369.048	4.1
369.416	3.98
369.783	4.1
370.151	4.24
370.519	4.13
370.886	3.85
371.254	4.3
371.621	3.78
371.989	4.07
372.356	4.18
372.724	4.18
373.091	4.44
373.458	4.11
373.826	4.17
374.193	4.54
374.56	4.45
374.927	4.52
375.294	4.19
375.661	3.88
376.028	4.47
376.395	4.22
376.762	4.04
377.129	4.68
377.496	4.38
377.863	4.47
378.229	4.49
378.596	4.23
378.963	4.72
379.329	4.32
379.696	4.44
380.062	3.92
380.429	4.29
380.795	4.44
381.161	3.97
381.528	4.11
381.894	3.9
382.26	4.47
382.626	4.15
382.993	4.33
383.359	3.75
383.725	4.34
384.091	4.09
384.457	4.22
384.823	4.09
385.188	4.45
385.554	4.15
385.92	4.36
386.286	4.28
386.651	4.32
387.017	4.13
387.383	4.29
387.748	4.35
388.114	4.31
388.479	4.52
388.845	3.81
389.21	3.83
389.575	4.3
389.94	4.04
390.306	4.13
390.671	4.44
391.036	4
391.401	3.93
391.766	4.04
392.131	4.3
392.496	4.38
392.861	4.2
393.226	4.18
393.591	4.21
393.956	4.29
394.32	4.24
394.685	4.2
395.05	4.57
395.414	4.28
395.779	4.39
396.143	4.18
396.508	4.15
396.872	4.16
397.236	4.02
397.601	3.99
397.965	4.42
398.329	4.19
398.694	4.38
399.058	4.3
399.422	4.15
399.786	4.25
400.15	4.56
400.514	4.31
400.878	4.09
401.242	4.35
401.605	4.1
401.969	3.87
402.333	4.35
402.697	3.98
403.06	4.36
403.424	4.19
403.787	4.08
404.151	4.33
404.514	4.37
404.878	4.32
405.241	4.5
405.604	4.22
405.968	4.29
406.331	4.33
406.694	4.17
407.057	4.2
407.42	4.35
407.783	4.19
408.146	4.34
408.509	4.11
408.872	4.34
409.235	4.3
409.598	4.22
409.961	4.47
410.323	4.48
410.686	4.39
411.049	4.3
411.411	4.55
411.774	4.13
412.136	4.12
412.499	4.17
412.861	4.4
413.223	4.33
413.586	4.49
413.948	4.45
414.31	4.35
414.672	4.02
415.035	4.23
415.397	4.41
415.759	4.65
416.121	4.45
416.483	4.22
416.845	4.16
417.206	4.31
417.568	4.35
417.93	4.31
418.292	4.28
418.653	3.91
419.015	4.32
419.377	4.04
419.738	4.3
420.1	4.11
420.461	4.17
420.822	4.16
421.184	4.22
421.545	4.24
421.906	4.1
422.267	4.17
422.629	4.24
422.99	4.13
423.351	4.11
423.712	4.11
424.073	4.17
424.434	4.31
424.795	4.23
425.155	4.33
425.516	4.26
425.877	4.08
426.238	4.06
426.598	4.09
426.959	4.18
427.32	4.32
427.68	4.2
428.041	4.19
428.401	4.36
428.761	4.35
429.122	4.28
429.482	4.38
429.842	4.12
430.202	4.35
430.563	4.48
430.923	4.4
431.283	4.46
431.643	4.39
432.003	4.29
432.363	4.55
432.722	4.57
433.082	4.28
433.442	4.23
433.802	4.44
434.161	4.15
434.521	4.16
434.881	4.29
435.24	4.18
435.6	4.27
435.959	4.32
436.319	4.29
436.678	4.51
437.037	4.3
437.396	4.32
437.756	4.35
438.115	4.4
438.474	4.3
438.833	4.42
439.192	4.21
439.551	4.26
439.91	4.43
440.269	4.29
440.628	4.22
440.987	4.34
441.345	4.33
441.704	4.43
442.063	4.14
442.421	4.28
442.78	4.33
443.138	4.23
443.497	4.33
443.855	4.37
444.214	4.25
444.572	4.33
444.93	4.4
445.288	4.27
445.647	4.48
446.005	4.26
446.363	4.13
446.721	4.33
447.079	4.17
447.437	4.26
447.795	4.31
448.153	4.21
448.51	4.26
448.868	4.2
449.226	4.32
449.584	4.25
449.941	4.24
450.299	4.32
450.656	4.48
451.014	4.27
451.371	4.26
451.729	4.34
452.086	4.27
452.443	4.43
452.801	4.32
453.158	4.34
453.515	4.42
453.872	4.32
454.229	4.49
454.586	4.42
454.943	4.25
455.3	4.3
455.657	4.4
456.014	4.34
456.371	4.45
456.727	4.52
457.084	4.48
457.441	4.28
457.797	4.34
458.154	4.31
458.51	4.35
458.867	4.46
459.223	4.44
459.58	4.52
459.936	4.5
460.292	4.47
460.648	4.45
461.005	4.36
461.361	4.46
461.717	4.12
462.073	4.31
462.429	4.13
462.785	4.27
463.141	4.27
463.496	4.38
463.852	4.41
464.208	4.26
464.564	4.51
464.919	4.2
465.275	4.63
465.631	4.62
465.986	4.46
466.342	4.56
466.697	4.73
467.052	4.34
467.408	4.62
467.763	4.41
468.118	4.65
468.473	4.37
468.829	4.36
469.184	4.47
469.539	4.43
469.894	4.44
470.249	4.53
470.603	4.3
470.958	4.48
471.313	4.45
471.668	4.41
472.023	4.48
472.377	4.52
472.732	4.33
473.086	4.61
473.441	4.17
473.795	4.67
474.15	4.41
474.504	4.37
474.859	4.6
475.213	4.29
475.567	4.28
475.921	4.47
476.275	4.56
476.63	4.54
476.984	4.28
477.338	4.61
477.692	4.53
478.045	4.55
478.399	4.55
478.753	4.28
479.107	4.38
479.461	4.35
479.814	4.58
480.168	4.5
480.521	4.48
480.875	4.56
481.228	4.51
481.582	4.51
481.935	4.42
482.289	4.42
482.642	4.42
482.995	4.41
483.348	4.4
483.701	4.52
484.055	4.3
484.408	4.3
484.761	4.43
485.114	4.24
485.466	4.23
485.819	4.16
486.172	4.12
486.525	4.1
486.878	4.16
487.23	4.24
487.583	4.27
487.936	4.25
488.288	4.29
488.641	4.28
488.993	4.25
489.345	4.27
489.698	4.21
490.05	4.23
490.402	4.25
490.754	4.2
491.107	4.23
491.459	4.35
491.811	4.34
492.163	4.37
492.515	4.44
492.866	4.36
493.218	4.35
493.57	4.31
493.922	4.19
494.274	4.27
494.625	4.31
494.977	4.46
495.328	4.48
495.68	4.49
496.031	4.45
496.383	4.54
496.734	4.43
497.086	4.42
497.437	4.57
497.788	4.55
498.139	4.49
498.49	4.57
498.842	4.36
499.193	4.37
499.544	4.5
499.894	4.41
500.245	4.47
500.596	4.47
500.947	4.55
501.298	4.52
501.648	4.62
501.999	4.5
502.35	4.68
502.7	4.6
503.051	4.52
503.401	4.65
503.752	4.65
504.102	4.66
504.452	4.45
504.803	4.54
505.153	4.6
505.503	4.48
505.853	4.58
506.203	4.51
506.553	4.61
506.903	4.65
507.253	4.47
507.603	4.63
507.953	4.69
508.303	4.52
508.652	4.46
509.002	4.58
509.352	4.62
509.701	4.67
510.051	4.64
510.4	4.48
510.75	4.51
511.099	4.52
511.449	4.53
511.798	4.61
512.147	4.6
512.496	4.57
512.846	4.57
513.195	4.45
513.544	4.58
513.893	4.67
514.242	4.51
514.591	4.58
514.939	4.71
515.288	4.55
515.637	4.49
515.986	4.54
516.334	4.58
516.683	4.57
517.032	4.77
517.38	4.76
517.729	4.49
518.077	4.7
518.426	4.57
518.774	4.7
519.122	4.63
519.47	4.47
519.819	4.59
520.167	4.59
520.515	4.54
520.863	4.49
521.211	4.5
521.559	4.55
521.907	4.61
522.255	4.55
522.602	4.62
522.95	4.55
523.298	4.71
523.645	4.66
523.993	4.59
524.341	4.58
524.688	4.64
525.036	4.7
525.383	4.68
525.73	4.74
526.078	4.65
526.425	4.55
526.772	4.75
527.119	4.51
527.466	4.53
527.814	4.5
528.161	4.48
528.508	4.57
528.854	4.56
529.201	4.59
529.548	4.51
529.895	4.5
530.242	4.48
530.588	4.38
530.935	4.28
531.282	4.32
531.628	4.37
531.975	4.35
532.321	4.41
532.667	4.46
533.014	4.51
533.36	4.6
533.706	4.5
534.052	4.67
534.399	4.54
534.745	4.6
535.091	4.5
535.437	4.47
535.783	4.41
536.129	4.46
536.474	4.55
536.82	4.49
537.166	4.67
537.512	4.62
537.857	4.54
538.203	4.69
538.549	4.62
538.894	4.5
539.239	4.51
539.585	4.5
539.93	4.6
540.276	4.61
540.621	4.62
540.966	4.63
541.311	4.68
541.656	4.59
542.001	4.64
542.346	4.73
542.691	4.7
543.036	4.65
543.381	4.54
543.726	4.44
544.071	4.43
544.415	4.48
544.76	4.53
545.105	4.46
545.449	4.57
545.794	4.54
546.138	4.64
546.483	4.62
546.827	4.65
547.171	4.61
547.516	4.81
547.86	4.76
548.204	4.54
548.548	4.72
548.892	4.75
549.236	4.65
549.58	4.65
549.924	4.74
550.268	4.83
550.612	4.61
550.956	4.71
551.3	4.8
551.643	4.78
551.987	4.91
552.33	4.96
552.674	4.82
553.017	4.67
553.361	4.69
553.704	5.04
554.048	4.94
554.391	4.7
554.734	4.72
555.077	4.7
555.42	4.67
555.764	4.82
556.107	4.79
556.45	4.78
556.793	4.74
557.135	4.9
557.478	4.67
557.821	4.83
558.164	4.77
558.507	5.03
558.849	4.66
559.192	4.94
559.534	4.97
559.877	4.93
560.219	4.8
560.562	4.84
560.904	4.91
561.246	5.09
561.589	4.83
561.931	4.76
562.273	4.75
562.615	4.95
562.957	4.88
563.299	4.92
563.641	4.76
563.983	4.85
564.325	4.95
564.667	4.77
565.008	4.93
565.35	4.95
565.692	4.9
566.033	4.84
566.375	4.89
566.716	4.94
567.058	4.87
567.399	4.9
567.741	4.99
568.082	4.84
568.423	4.98
568.764	5.02
569.105	4.74
569.447	4.78
569.788	4.77
570.129	5
570.47	5.01
570.811	4.99
571.151	4.88
571.492	4.69
571.833	4.85
572.174	4.77
572.514	4.95
572.855	4.77
573.195	4.75
573.536	5.05
573.876	4.83
574.217	4.82
574.557	4.77
574.898	4.93
575.238	4.81
575.578	4.99
575.918	5.08
576.258	4.68
576.598	4.96
576.938	4.86
577.278	4.91
577.618	4.71
577.958	4.98
578.298	5.01
578.638	4.82
578.977	5.03
579.317	4.98
579.657	5.13
579.996	5.01
580.336	4.95
580.675	5.11
581.014	4.72
581.354	4.76
581.693	5
582.032	5.16
582.372	5.01
582.711	5.14
583.05	5.28
583.389	4.98
583.728	5.12
584.067	5.05
584.406	4.88
584.745	4.69
585.083	5.11
585.422	5.19
585.761	4.96
586.1	4.77
586.438	5.21
586.777	4.91
587.115	5.1
587.454	4.85
587.792	5.08
588.13	4.96
588.469	4.87
588.807	5.13
589.145	5.09
589.483	5.14
589.821	5.04
590.159	5.1
590.497	5.13
590.835	5.18
591.173	4.98
591.511	5.04
591.849	5
592.187	4.97
592.524	5.14
592.862	5.13
593.2	5.08
593.537	4.88
593.875	4.93
594.212	5.05
594.55	5.33
594.887	4.88
595.224	5.19
595.561	5.08
595.899	5.19
596.236	5.15
596.573	5.05
596.91	5.1
597.247	5.17
597.584	5.32
597.921	5.22
598.258	5.04
598.594	5.13
598.931	5.01
599.268	5
599.604	5.03
599.941	5.11
600.277	4.93
600.614	5.06
600.95	5.14
601.287	5.23
601.623	5.1
601.959	5.05
602.296	5.29
602.632	4.77
602.968	5.1
603.304	5.06
603.64	5.02
603.976	5.19
604.312	5.26
604.648	5.08
604.984	5.21
605.319	4.97
605.655	5.12
605.991	4.99
606.326	5.25
606.662	5.22
606.998	5.1
607.333	5.04
607.668	5.07
608.004	5.12
608.339	5.04
608.674	5.34
609.01	5.07
609.345	5.18
609.68	5.42
610.015	5.29
610.35	5.45
610.685	5.3
611.02	5.32
611.355	5.34
611.689	4.98
612.024	5.25
612.359	5.2
612.694	5.17
613.028	5.2
613.363	4.89
613.697	5.18
614.032	5.15
614.366	5.08
614.7	5.33
615.035	5.15
615.369	5.3
615.703	5.07
616.037	5.16
616.371	5.44
616.705	5.56
617.039	5.05
617.373	5.1
617.707	5.24
618.041	5.38
618.375	5.24
618.709	5.29
619.042	5.32
619.376	5.47
619.71	5.12
620.043	5.2
620.377	5.16
620.71	5.28
621.043	5.21
621.377	5.32
621.71	4.92
622.043	5.6
622.376	5.69
622.709	5.42
623.043	5.39
623.376	5.2
623.709	5.36
624.041	5.24
624.374	5.4
624.707	5.77
625.04	5.46
625.373	4.8
625.705	5.29
626.038	5.1
626.37	5.63
626.703	5.31
627.035	5.42
627.368	5.15
627.7	5.31
628.032	5.54
628.365	5.49
628.697	5.37
629.029	5.47
629.361	5.19
629.693	5.51
630.025	5.33
630.357	5.22
630.689	5.31
631.021	5.38
631.353	5.37
631.684	5.21
632.016	5.48
632.348	5.23
632.679	5.1
633.011	5.41
633.342	5.47
633.674	5.7
634.005	5.44
634.336	5.57
634.668	5.66
634.999	5.52
635.33	5.84
635.661	5.45
635.992	5.56
636.323	5.25
636.654	5.12
636.985	5.33
637.316	5.49
637.647	5.41
637.977	5.1
638.308	5.78
638.639	5.14
638.969	5.7
639.3	5.35
639.63	5.27
639.961	5.05
640.291	5.55
640.622	5.86
640.952	5.28
641.282	5.73
641.612	5.57
641.943	5.6
642.273	5.29
642.603	5.37
642.933	5.47
643.263	4.98
643.592	5.61
643.922	5.55
644.252	5.29
644.582	5.75
644.911	5.33
645.241	5.47
645.571	5.36
645.9	5.71
646.23	5.71
646.559	5.95
646.888	5.5
647.218	5.88
647.547	5.67
647.876	5.7
648.205	5.48
648.534	5.65
648.863	5.54
649.192	5.07
649.521	5.8
649.85	5.59
650.179	5.44
650.508	5.14
650.837	6.13
651.165	5.38
651.494	5.64
651.822	5.47
652.151	5.75
652.479	5.5
652.808	5.02
653.136	5.94
653.465	5.5
653.793	5.15
654.121	5.75
654.449	5.34
654.777	5.77
655.105	5.81
655.433	6.02
655.761	6.09
656.089	5.67
656.417	5.62
656.745	5.68
657.073	6.09
657.4	6.07
657.728	5.74
658.056	5.36
658.383	6.01
658.711	5.46
659.038	5.27
659.365	5.97
659.693	4.72
660.02	5.99
660.347	5.67
660.674	5.74
661.001	5.38
661.329	5.22
661.656	5.66
661.982	5.48
662.309	5.92
662.636	5.67
662.963	5.67
663.29	5.9
663.616	5.66
663.943	6.18
664.27	5.39
664.596	5.41
664.923	5.7
665.249	5.66
665.576	5.26
665.902	6.26
666.228	5.46
666.554	5.44
666.881	5.97
667.207	5.77
667.533	5.47
667.859	5.94
668.185	5.39
668.511	5.63
668.837	5.22
669.162	6.12
669.488	5.84
669.814	5.53
670.139	5.44
670.465	6.16
670.791	6.24
671.116	5.65
671.442	5.92
671.767	4.84
672.092	6
672.418	6.41
672.743	6.35
673.068	6.3
673.393	5.91
673.718	6.07
674.043	6.12
674.368	6.32
674.693	6.2
675.018	5.79
675.343	5.99
675.667	5.97
675.992	5.45
676.317	6.65
676.641	6.36
676.966	5.85
677.29	6.34
677.615	6.06
677.939	6.41
678.264	6.34
678.588	6.52
678.912	5.89
679.236	6.3
679.56	6.13
679.885	5.42
680.209	6.62
680.532	6.19
680.856	5.2
681.18	6.57
681.504	5.82
681.828	5.93
682.152	5.98
682.475	6.62
682.799	6.01
683.122	5.75
683.446	5.88
683.769	5.96
684.093	5.93
684.416	5.84
684.739	6.26
685.062	6.37
685.386	6.68
685.709	5.91
686.032	5.47
686.355	5.37
686.678	6.6
687.001	6.35
687.324	6.25
687.646	6.27
687.969	6.87
688.292	6.23
688.614	5.91
688.937	5.14
689.26	5.73
689.582	5.73
689.904	6.01
690.227	6.05
690.549	6.64
690.871	6.01
691.194	6.16
691.516	5.79
691.838	6.53
692.16	5.63
692.482	5.77
692.804	6.22
693.126	5.08
