Data from 0235_chest_Reflection__1__284.txt Node

Date: Fri Sep 22 22:59:36 CDT 2023
User: ToomeyLab
Spectrometer: FLMS14357
Trigger mode: 0
Integration Time (sec): 1.000000E-2
Scans to average: 100
Electric dark correction enabled: true
Nonlinearity correction enabled: false
Boxcar width: 0
XAxis mode: Wavelengths
Number of Pixels in Spectrum: 2048
>>>>>Begin Spectral Data<<<<<
189.047	-296.86
189.435	-296.86
189.823	-296.86
190.211	5.1
190.599	124.74
190.987	-214.07
191.375	-2585.71
191.763	45.31
192.151	-81.43
192.538	141.04
192.926	-26.87
193.314	-29.02
193.702	2.7
194.089	162.86
194.477	73.99
194.864	34.31
195.252	24.96
195.639	157.77
196.027	8.79
196.414	256.4
196.801	-1383.19
197.189	-66.63
197.576	137.93
197.963	-223.74
198.351	-6.99
198.738	-10.82
199.125	-0.61
199.512	26.44
199.899	24.99
200.286	75.17
200.673	-1.43
201.06	31.34
201.447	49.91
201.833	-15.03
202.22	29.29
202.607	39.2
202.994	36.26
203.38	48.81
203.767	5.48
204.154	40.37
204.54	10.45
204.927	-22.65
205.313	41.68
205.699	62.7
206.086	23.87
206.472	66.45
206.858	32.92
207.245	-1.18
207.631	22.71
208.017	20.6
208.403	41.2
208.789	37.63
209.175	22.63
209.561	42.58
209.947	39.84
210.333	52.4
210.719	9.03
211.105	14.98
211.491	9.41
211.876	46.95
212.262	38.42
212.648	4.4
213.034	29.03
213.419	19.03
213.805	16.16
214.19	4.92
214.576	28.05
214.961	19.82
215.346	15.15
215.732	30.9
216.117	26.16
216.502	35.16
216.888	24.05
217.273	24.52
217.658	8.64
218.043	0.86
218.428	47.22
218.813	4.94
219.198	-9.31
219.583	11.89
219.968	3.23
220.353	61.98
220.738	-10.27
221.122	20.36
221.507	5.03
221.892	-15.43
222.276	0.51
222.661	-12.59
223.046	29.11
223.43	14.67
223.815	6.42
224.199	5.36
224.583	15.8
224.968	16.22
225.352	-0.44
225.736	19.95
226.121	7.78
226.505	13.49
226.889	10.18
227.273	0.67
227.657	7.56
228.041	9.17
228.425	16.21
228.809	10.5
229.193	11.08
229.577	10.09
229.961	8.49
230.344	9.29
230.728	5.16
231.112	7.46
231.495	6.38
231.879	6.21
232.263	6.71
232.646	6.51
233.03	5.8
233.413	5.52
233.797	6.42
234.18	7.37
234.563	8.38
234.946	8.01
235.33	2.7
235.713	5.95
236.096	4.63
236.479	5.17
236.862	9.99
237.245	6.29
237.628	5.56
238.011	7.28
238.394	6.3
238.777	8.64
239.16	6.11
239.543	8.12
239.925	7.14
240.308	6.34
240.691	5.83
241.073	6.88
241.456	5.91
241.838	4.27
242.221	7.01
242.603	7.09
242.986	5.43
243.368	5.57
243.75	6.27
244.133	6.57
244.515	5.55
244.897	6.1
245.279	6.67
245.661	5.98
246.043	6.32
246.425	6.35
246.807	5.81
247.189	6.1
247.571	7.38
247.953	6.84
248.335	6.3
248.717	6.42
249.098	6.22
249.48	5.91
249.862	5.93
250.243	6.14
250.625	6.38
251.006	5.67
251.388	6.35
251.769	6.62
252.151	5.21
252.532	6.95
252.913	6.3
253.295	7.15
253.676	6.48
254.057	6.55
254.438	6.35
254.819	6.18
255.2	6.18
255.581	5.93
255.962	7.81
256.343	6.18
256.724	5.87
257.105	6.22
257.486	6.02
257.867	6.36
258.247	6.55
258.628	6.41
259.009	5.66
259.389	5.61
259.77	6.89
260.15	6.72
260.531	5.99
260.911	5.55
261.292	5.8
261.672	5.38
262.052	6.01
262.432	5.74
262.813	5.67
263.193	5.33
263.573	6.53
263.953	5.63
264.333	5.73
264.713	5.77
265.093	5.9
265.473	5.91
265.853	5.22
266.233	5.8
266.612	6.02
266.992	6.15
267.372	5.61
267.752	6.59
268.131	5.47
268.511	5.92
268.89	5.61
269.27	5.29
269.649	5.81
270.029	5.43
270.408	6.25
270.787	5.28
271.167	5.48
271.546	4.75
271.925	5.69
272.304	5.91
272.683	5.92
273.062	6.29
273.441	5.33
273.82	5.9
274.199	5.45
274.578	5.38
274.957	5.11
275.336	5.23
275.715	5.55
276.093	5.19
276.472	5.05
276.851	5.5
277.229	4.73
277.608	5.61
277.986	5.34
278.365	4.95
278.743	5.5
279.122	5.9
279.5	6.26
279.878	5.03
280.257	6.17
280.635	5.44
281.013	5.63
281.391	5.32
281.769	5.81
282.147	5.47
282.525	5.65
282.903	5.75
283.281	5.14
283.659	5.92
284.037	5.59
284.415	5.45
284.792	5.12
285.17	5.48
285.548	6.08
285.925	5.45
286.303	5.47
286.68	5.22
287.058	4.91
287.435	5.37
287.813	5.21
288.19	5.23
288.567	5.64
288.945	5.43
289.322	5.29
289.699	5.42
290.076	5.67
290.453	5.03
290.83	5.09
291.207	4.57
291.584	5.31
291.961	5.29
292.338	5.33
292.715	5.87
293.092	5.29
293.469	5.51
293.845	5.15
294.222	5.68
294.599	5.36
294.975	6.24
295.352	6.06
295.728	5.25
296.105	5.44
296.481	5.47
296.858	5.65
297.234	5.59
297.61	5.81
297.986	5.39
298.363	5.48
298.739	5.72
299.115	5.86
299.491	5.82
299.867	5.72
300.243	6.03
300.619	5.41
300.995	5.99
301.371	5.61
301.746	5.98
302.122	6.02
302.498	5.77
302.874	5.57
303.249	5.55
303.625	5.61
304	5.94
304.376	5.91
304.751	5.64
305.127	6.02
305.502	6.49
305.878	5.95
306.253	6.07
306.628	6.02
307.003	5.81
307.378	5.91
307.754	6.47
308.129	5.77
308.504	5.99
308.879	6.21
309.254	6.22
309.629	5.93
310.003	6.37
310.378	6.79
310.753	5.93
311.128	5.78
311.502	6.06
311.877	5.43
312.252	5.87
312.626	5.86
313.001	5.78
313.375	6.14
313.75	6.77
314.124	6.38
314.498	5.69
314.873	6.07
315.247	6.58
315.621	6.46
315.995	5.75
316.369	5.73
316.743	5.94
317.117	6.64
317.491	6.64
317.865	5.64
318.239	6.04
318.613	6.35
318.987	6
319.361	6.04
319.734	6.21
320.108	6.19
320.482	6.2
320.855	5.5
321.229	6.26
321.602	5.9
321.976	6.34
322.349	5.95
322.723	5.99
323.096	5.67
323.469	6.28
323.843	6.13
324.216	6.39
324.589	6.67
324.962	5.58
325.335	5.61
325.708	6.39
326.081	6.33
326.454	6.08
326.827	6.09
327.2	6.02
327.573	6.46
327.945	5.91
328.318	6.15
328.691	5.9
329.063	5.78
329.436	6.04
329.809	6.28
330.181	5.64
330.553	5.97
330.926	6.06
331.298	6.33
331.671	6.22
332.043	5.65
332.415	5.91
332.787	6.61
333.159	5.67
333.532	5.23
333.904	5.71
334.276	5.86
334.648	5.3
335.02	5.68
335.391	5.82
335.763	6.27
336.135	6.29
336.507	6.12
336.879	5.96
337.25	6
337.622	6.52
337.993	6.05
338.365	6.17
338.736	5.7
339.108	5.9
339.479	5.81
339.851	5.74
340.222	5.78
340.593	5.75
340.964	5.64
341.336	5.68
341.707	5.75
342.078	5.64
342.449	6.54
342.82	5.78
343.191	5.46
343.562	6.06
343.933	5.6
344.303	5.97
344.674	5.83
345.045	6.07
345.416	5.92
345.786	5.74
346.157	6.05
346.527	6.02
346.898	5.93
347.268	5.63
347.639	6.07
348.009	5.86
348.38	6.16
348.75	5.55
349.12	5.65
349.49	6.03
349.861	5.52
350.231	5.96
350.601	5.56
350.971	6.26
351.341	5.74
351.711	5.84
352.081	5.22
352.45	5.64
352.82	5.76
353.19	5.79
353.56	5.58
353.929	5.79
354.299	5.61
354.669	5.91
355.038	5.92
355.408	5.88
355.777	6.11
356.147	5.83
356.516	5.99
356.885	5.69
357.254	6.47
357.624	5.67
357.993	5.81
358.362	5.62
358.731	5.75
359.1	5.76
359.469	5.71
359.838	5.61
360.207	5.37
360.576	5.84
360.945	5.77
361.314	5.76
361.682	6
362.051	5.75
362.42	5.89
362.788	5.47
363.157	5.78
363.525	5.89
363.894	5.78
364.262	5.64
364.631	5.86
364.999	5.2
365.367	5.88
365.735	5.82
366.104	5.89
366.472	5.94
366.84	5.89
367.208	6.02
367.576	6.04
367.944	5.86
368.312	6.15
368.68	5.73
369.048	6.08
369.416	5.74
369.783	5.5
370.151	5.45
370.519	5.85
370.886	5.58
371.254	6.15
371.621	5.74
371.989	6.13
372.356	5.82
372.724	6.09
373.091	6.24
373.458	5.95
373.826	5.9
374.193	6.18
374.56	6.38
374.927	5.89
375.294	5.81
375.661	5.8
376.028	6.18
376.395	5.78
376.762	5.68
377.129	6.13
377.496	6.11
377.863	6.1
378.229	5.89
378.596	6.13
378.963	6.2
379.329	5.74
379.696	6.33
380.062	5.62
380.429	5.98
380.795	5.96
381.161	6.04
381.528	5.96
381.894	5.56
382.26	5.98
382.626	6.01
382.993	5.8
383.359	5.42
383.725	5.8
384.091	5.97
384.457	6.02
384.823	5.69
385.188	5.99
385.554	5.79
385.92	6.32
386.286	5.85
386.651	5.99
387.017	6.12
387.383	5.77
387.748	5.65
388.114	6.03
388.479	5.96
388.845	5.68
389.21	5.65
389.575	6.19
389.94	5.81
390.306	5.84
390.671	6.02
391.036	5.44
391.401	6.13
391.766	6.17
392.131	5.8
392.496	5.97
392.861	5.82
393.226	6.4
393.591	5.94
393.956	5.82
394.32	5.95
394.685	5.91
395.05	6.01
395.414	6.28
395.779	5.83
396.143	5.89
396.508	6.02
396.872	5.91
397.236	5.93
397.601	5.83
397.965	6.14
398.329	6.01
398.694	5.91
399.058	6.08
399.422	5.74
399.786	5.99
400.15	5.87
400.514	5.95
400.878	5.79
401.242	6.04
401.605	5.96
401.969	5.81
402.333	6.1
402.697	5.82
403.06	6.16
403.424	5.8
403.787	6.2
404.151	6.13
404.514	6.22
404.878	6.04
405.241	6.26
405.604	6
405.968	6.1
406.331	5.98
406.694	5.96
407.057	5.86
407.42	6.05
407.783	6.12
408.146	6.04
408.509	5.95
408.872	5.98
409.235	6.08
409.598	6
409.961	6.07
410.323	6.21
410.686	5.99
411.049	6.36
411.411	6.18
411.774	6.02
412.136	5.99
412.499	5.97
412.861	6.04
413.223	6.21
413.586	5.83
413.948	6.13
414.31	6.06
414.672	6.23
415.035	6.08
415.397	6.29
415.759	6.47
416.121	5.98
416.483	6.13
416.845	6.11
417.206	6.2
417.568	6.35
417.93	6.09
418.292	6.17
418.653	5.88
419.015	6.09
419.377	5.87
419.738	5.94
420.1	5.89
420.461	5.99
420.822	6.04
421.184	6
421.545	5.95
421.906	5.98
422.267	5.94
422.629	6.04
422.99	6.02
423.351	5.98
423.712	5.96
424.073	5.86
424.434	5.97
424.795	6
425.155	6.09
425.516	6.07
425.877	6.01
426.238	5.85
426.598	5.87
426.959	5.89
427.32	6.06
427.68	5.97
428.041	5.92
428.401	6.29
428.761	6.31
429.122	6.18
429.482	5.98
429.842	5.91
430.202	6.04
430.563	6.25
430.923	6.3
431.283	6.29
431.643	6.35
432.003	6.31
432.363	6.26
432.722	6.13
433.082	6.43
433.442	6.19
433.802	6.45
434.161	6.22
434.521	6.09
434.881	6.18
435.24	6.17
435.6	6.15
435.959	6.05
436.319	6.14
436.678	6.12
437.037	6.27
437.396	6.21
437.756	6.2
438.115	6.35
438.474	6.29
438.833	6.38
439.192	6.07
439.551	6.22
439.91	6.31
440.269	6.32
440.628	6.15
440.987	6.18
441.345	6.29
441.704	6.33
442.063	6.23
442.421	6.3
442.78	6.24
443.138	6.16
443.497	6.3
443.855	6.21
444.214	6.15
444.572	6.31
444.93	6.29
445.288	6.23
445.647	6.32
446.005	6.31
446.363	6.25
446.721	6.31
447.079	6.21
447.437	6.27
447.795	6.3
448.153	6.14
448.51	6.28
448.868	6.17
449.226	6.19
449.584	6.13
449.941	6.19
450.299	6.29
450.656	6.38
451.014	6.43
451.371	6.32
451.729	6.38
452.086	6.31
452.443	6.4
452.801	6.48
453.158	6.37
453.515	6.5
453.872	6.32
454.229	6.47
454.586	6.52
454.943	6.31
455.3	6.45
455.657	6.32
456.014	6.42
456.371	6.53
456.727	6.62
457.084	6.43
457.441	6.38
457.797	6.52
458.154	6.3
458.51	6.36
458.867	6.55
459.223	6.37
459.58	6.64
459.936	6.58
460.292	6.53
460.648	6.46
461.005	6.6
461.361	6.69
461.717	6.22
462.073	6.31
462.429	6.23
462.785	6.41
463.141	6.44
463.496	6.47
463.852	6.52
464.208	6.45
464.564	6.63
464.919	6.46
465.275	6.62
465.631	6.75
465.986	6.64
466.342	6.64
466.697	6.66
467.052	6.44
467.408	6.59
467.763	6.66
468.118	6.69
468.473	6.5
468.829	6.59
469.184	6.52
469.539	6.7
469.894	6.83
470.249	6.76
470.603	6.59
470.958	6.65
471.313	6.87
471.668	6.73
472.023	6.5
472.377	6.84
472.732	6.64
473.086	6.82
473.441	6.66
473.795	6.82
474.15	6.78
474.504	6.76
474.859	6.88
475.213	6.49
475.567	6.66
475.921	6.79
476.275	6.79
476.63	6.74
476.984	6.7
477.338	6.98
477.692	6.78
478.045	6.9
478.399	6.83
478.753	6.7
479.107	6.74
479.461	6.72
479.814	6.81
480.168	6.79
480.521	6.85
480.875	6.96
481.228	6.76
481.582	6.71
481.935	6.81
482.289	6.76
482.642	6.76
482.995	6.79
483.348	6.8
483.701	6.89
484.055	6.73
484.408	6.64
484.761	6.85
485.114	6.57
485.466	6.59
485.819	6.47
486.172	6.42
486.525	6.39
486.878	6.4
487.23	6.52
487.583	6.49
487.936	6.65
488.288	6.75
488.641	6.65
488.993	6.67
489.345	6.65
489.698	6.61
490.05	6.6
490.402	6.61
490.754	6.58
491.107	6.62
491.459	6.7
491.811	6.75
492.163	6.8
492.515	6.84
492.866	6.9
493.218	6.82
493.57	6.79
493.922	6.72
494.274	6.72
494.625	6.77
494.977	6.83
495.328	6.96
495.68	7
496.031	6.94
496.383	7.09
496.734	7.01
497.086	7.05
497.437	7.13
497.788	7.12
498.139	7.06
498.49	7.26
498.842	7.01
499.193	6.95
499.544	7.15
499.894	7.09
500.245	7.16
500.596	7.09
500.947	7.21
501.298	7.21
501.648	7.06
501.999	7.25
502.35	7.26
502.7	7.48
503.051	7.29
503.401	7.2
503.752	7.33
504.102	7.37
504.452	7.16
504.803	7.3
505.153	7.41
505.503	7.31
505.853	7.33
506.203	7.17
506.553	7.32
506.903	7.29
507.253	7.24
507.603	7.41
507.953	7.52
508.303	7.45
508.652	7.33
509.002	7.56
509.352	7.34
509.701	7.48
510.051	7.54
510.4	7.41
510.75	7.37
511.099	7.32
511.449	7.4
511.798	7.29
512.147	7.46
512.496	7.36
512.846	7.31
513.195	7.52
513.544	7.54
513.893	7.61
514.242	7.41
514.591	7.55
514.939	7.68
515.288	7.37
515.637	7.52
515.986	7.5
516.334	7.65
516.683	7.5
517.032	7.71
517.38	7.72
517.729	7.66
518.077	7.78
518.426	7.63
518.774	7.78
519.122	7.59
519.47	7.66
519.819	7.67
520.167	7.71
520.515	7.64
520.863	7.55
521.211	7.56
521.559	7.62
521.907	7.7
522.255	7.71
522.602	7.75
522.95	7.86
523.298	7.91
523.645	7.87
523.993	7.77
524.341	7.9
524.688	7.86
525.036	7.83
525.383	7.94
525.73	7.91
526.078	7.97
526.425	7.81
526.772	7.95
527.119	7.87
527.466	7.91
527.814	7.76
528.161	7.82
528.508	7.91
528.854	7.8
529.201	7.96
529.548	7.89
529.895	7.82
530.242	7.8
530.588	7.7
530.935	7.65
531.282	7.67
531.628	7.74
531.975	7.7
532.321	7.69
532.667	7.86
533.014	7.95
533.36	8.09
533.706	8.13
534.052	8.08
534.399	8.17
534.745	8.12
535.091	8.04
535.437	8.01
535.783	7.92
536.129	8.01
536.474	8.13
536.82	8.03
537.166	8.23
537.512	8.27
537.857	8.16
538.203	8.39
538.549	8.32
538.894	8.2
539.239	8.26
539.585	8.26
539.93	8.39
540.276	8.38
540.621	8.3
540.966	8.52
541.311	8.5
541.656	8.52
542.001	8.49
542.346	8.56
542.691	8.71
543.036	8.5
543.381	8.42
543.726	8.43
544.071	8.33
544.415	8.38
544.76	8.35
545.105	8.36
545.449	8.42
545.794	8.58
546.138	8.63
546.483	8.6
546.827	8.68
547.171	8.69
547.516	8.74
547.86	8.8
548.204	8.98
548.548	8.8
548.892	8.81
549.236	8.81
549.58	8.88
549.924	8.9
550.268	9.09
550.612	8.89
550.956	9.15
551.3	9.07
551.643	9.21
551.987	9.1
552.33	9.23
552.674	9.03
553.017	9.27
553.361	9.17
553.704	9.43
554.048	9.39
554.391	9.39
554.734	9.35
555.077	9.31
555.42	9.2
555.764	9.3
556.107	9.29
556.45	9.36
556.793	9.44
557.135	9.47
557.478	9.45
557.821	9.7
558.164	9.74
558.507	9.95
558.849	9.66
559.192	9.75
559.534	9.86
559.877	9.63
560.219	9.79
560.562	9.89
560.904	9.95
561.246	9.95
561.589	10.11
561.931	9.96
562.273	9.75
562.615	9.96
562.957	9.95
563.299	9.93
563.641	10.05
563.983	9.89
564.325	10.05
564.667	9.85
565.008	9.95
565.35	10.05
565.692	10.24
566.033	10.21
566.375	10.1
566.716	10.18
567.058	10.24
567.399	10.3
567.741	10.52
568.082	10.13
568.423	10.42
568.764	10.55
569.105	10.06
569.447	10.37
569.788	10.16
570.129	10.39
570.47	10.47
570.811	10.31
571.151	10.59
571.492	10.57
571.833	10.34
572.174	10.5
572.514	10.82
572.855	10.65
573.195	10.48
573.536	10.85
573.876	10.74
574.217	10.57
574.557	10.78
574.898	10.86
575.238	10.78
575.578	10.64
575.918	10.94
576.258	10.74
576.598	10.77
576.938	10.97
577.278	11.06
577.618	10.91
577.958	11.21
578.298	11.27
578.638	10.97
578.977	11.32
579.317	11.11
579.657	11.48
579.996	11.29
580.336	11.25
580.675	11.4
581.014	11.32
581.354	11.28
581.693	11.51
582.032	11.68
582.372	11.76
582.711	11.45
583.05	11.56
583.389	11.57
583.728	11.68
584.067	11.83
584.406	11.6
584.745	11.62
585.083	11.94
585.422	11.95
585.761	11.74
586.1	11.87
586.438	11.96
586.777	12.02
587.115	12.06
587.454	11.97
587.792	12.28
588.13	11.98
588.469	12.02
588.807	12.09
589.145	12.06
589.483	12.35
589.821	12.35
590.159	12.21
590.497	12.59
590.835	12.34
591.173	12.2
591.511	12.47
591.849	12.6
592.187	12.53
592.524	12.65
592.862	12.33
593.2	12.37
593.537	12.36
593.875	12.61
594.212	12.59
594.55	12.73
594.887	12.54
595.224	12.64
595.561	13.16
595.899	12.92
596.236	13.16
596.573	12.94
596.91	13.18
597.247	12.95
597.584	12.95
597.921	13.36
598.258	13.14
598.594	13.14
598.931	13.16
599.268	12.95
599.604	13.17
599.941	13.24
600.277	13.25
600.614	13.14
600.95	13.33
601.287	13.23
601.623	13.28
601.959	13.79
602.296	13.42
602.632	13.29
602.968	13.74
603.304	13.65
603.64	13.43
603.976	13.72
604.312	13.77
604.648	13.45
604.984	13.63
605.319	13.66
605.655	13.72
605.991	13.82
606.326	13.65
606.662	13.59
606.998	13.77
607.333	14.01
607.668	13.77
608.004	13.99
608.339	13.93
608.674	13.82
609.01	13.98
609.345	13.98
609.68	14.35
610.015	14.03
610.35	14.06
610.685	14.43
611.02	14.38
611.355	14.46
611.689	14.47
612.024	14.44
612.359	14.24
612.694	14.37
613.028	14.51
613.363	14.12
613.697	14.38
614.032	14.51
614.366	14.61
614.7	14.56
615.035	14.51
615.369	14.62
615.703	14.67
616.037	14.8
616.371	15.35
616.705	15.07
617.039	14.73
617.373	15.03
617.707	14.98
618.041	15
618.375	15.04
618.709	15.11
619.042	15.12
619.376	15.28
619.71	15.39
620.043	14.73
620.377	15.12
620.71	15.57
621.043	15.65
621.377	15.41
621.71	15.36
622.043	15.29
622.376	15.91
622.709	15.44
623.043	15.82
623.376	15.81
623.709	15.7
624.041	15.87
624.374	15.71
624.707	15.99
625.04	15.99
625.373	15.74
625.705	15.99
626.038	15.68
626.37	16.13
626.703	16.33
627.035	16.08
627.368	16.11
627.7	16.56
628.032	16.35
628.365	16.37
628.697	16.24
629.029	16.42
629.361	16.35
629.693	16.45
630.025	16.24
630.357	16.18
630.689	16.63
631.021	16.24
631.353	16.52
631.684	16.75
632.016	17.03
632.348	16.48
632.679	16.34
633.011	16.41
633.342	16.98
633.674	16.97
634.005	16.26
634.336	16.85
634.668	17.04
634.999	17.14
635.33	17.1
635.661	17.01
635.992	17.11
636.323	16.89
636.654	16.74
636.985	17.1
637.316	17.2
637.647	17.19
637.977	16.97
638.308	17.42
638.639	17.53
638.969	17.57
639.3	17.16
639.63	17.63
639.961	17.68
640.291	16.99
640.622	17.58
640.952	17.42
641.282	17.57
641.612	17.59
641.943	18
642.273	17.94
642.603	17.2
642.933	17.96
643.263	17.39
643.592	18.1
643.922	18.46
644.252	17.91
644.582	18.06
644.911	17.98
645.241	18.36
645.571	17.57
645.9	18.37
646.23	18.72
646.559	18.39
646.888	18.31
647.218	18.52
647.547	18.72
647.876	18.41
648.205	17.76
648.534	18.47
648.863	18
649.192	18
649.521	18.44
649.85	19.09
650.179	18.76
650.508	18.77
650.837	18.37
651.165	18.64
651.494	18.55
651.822	18.68
652.151	18.35
652.479	18.62
652.808	18.56
653.136	19.25
653.465	18.95
653.793	18.84
654.121	19.64
654.449	18.6
654.777	19.03
655.105	19.02
655.433	19.31
655.761	18.85
656.089	19.59
656.417	19.72
656.745	19.36
657.073	19.74
657.4	20.32
657.728	19.5
658.056	19.67
658.383	19.84
658.711	19
659.038	18.97
659.365	19.5
659.693	19.6
660.02	19.45
660.347	19.92
660.674	19.6
661.001	19.37
661.329	19.33
661.656	20.22
661.982	19.58
662.309	20.2
662.636	19.64
662.963	19.85
663.29	19.97
663.616	19.5
663.943	20.01
664.27	20.87
664.596	20.19
664.923	19.57
665.249	20.13
665.576	20.09
665.902	19.98
666.228	20.74
666.554	20.27
666.881	20.78
667.207	20.67
667.533	20.03
667.859	20.43
668.185	20.83
668.511	20.92
668.837	20.38
669.162	21.13
669.488	21.01
669.814	20.28
670.139	20.64
670.465	21.27
670.791	21.45
671.116	21.02
671.442	21.32
671.767	20.62
672.092	21.32
672.418	21.44
672.743	21.47
673.068	21.22
673.393	20.62
673.718	21.69
674.043	21.32
674.368	21.14
674.693	21.36
675.018	21.15
675.343	21.06
675.667	21.56
675.992	21.07
676.317	21.46
676.641	20.96
676.966	21.59
677.29	21.47
677.615	21.91
677.939	21.53
678.264	21.93
678.588	22.29
678.912	21.74
679.236	21.81
679.56	21.82
679.885	21.95
680.209	22.61
680.532	22.76
680.856	21.76
681.18	22.73
681.504	22.61
681.828	22.65
682.152	22.02
682.475	23.09
682.799	22.63
683.122	22.54
683.446	22.53
683.769	22.86
684.093	22.95
