Data from 0235_crown_Reflection__1__289.txt Node

Date: Fri Sep 22 23:01:38 CDT 2023
User: ToomeyLab
Spectrometer: FLMS14357
Trigger mode: 0
Integration Time (sec): 1.000000E-2
Scans to average: 100
Electric dark correction enabled: true
Nonlinearity correction enabled: false
Boxcar width: 0
XAxis mode: Wavelengths
Number of Pixels in Spectrum: 2048
>>>>>Begin Spectral Data<<<<<
189.047	-19.61
189.435	-19.61
189.823	-19.61
190.211	183.13
190.599	-97.78
190.987	58.78
191.375	51742.86
191.763	-14.84
192.151	654.11
192.538	137.77
192.926	72.61
193.314	95.99
193.702	217.3
194.089	40.43
194.477	-52.74
194.864	65.27
195.252	67.65
195.639	-59.06
196.027	7.01
196.414	385.47
196.801	2132.74
197.189	-228.37
197.576	152.12
197.963	-186.04
198.351	-4.2
198.738	36.84
199.125	-7.3
199.512	10.84
199.899	17.73
200.286	14.09
200.673	1.3
201.06	-11.71
201.447	17.39
201.833	-28.37
202.22	30.25
202.607	45.16
202.994	32.65
203.38	47.47
203.767	3.94
204.154	26.26
204.54	19.4
204.927	-26.42
205.313	-1.66
205.699	60.27
206.086	32.18
206.472	60.9
206.858	20.2
207.245	8.88
207.631	24.84
208.017	23.92
208.403	-17.35
208.789	37.74
209.175	38.26
209.561	40.05
209.947	25.82
210.333	49.98
210.719	-1.33
211.105	10.98
211.491	-48.86
211.876	24.98
212.262	12.89
212.648	20.95
213.034	38.4
213.419	-2.9
213.805	-40.73
214.19	20.09
214.576	15.62
214.961	-6.69
215.346	-14.87
215.732	-2.43
216.117	13.3
216.502	22.78
216.888	-0.17
217.273	29.48
217.658	8.88
218.043	13.02
218.428	33.89
218.813	-35.8
219.198	-0.41
219.583	6.31
219.968	-16.77
220.353	32.4
220.738	2.34
221.122	5.45
221.507	9.96
221.892	-3.26
222.276	16.46
222.661	-20.22
223.046	32.21
223.43	28.69
223.815	-3.06
224.199	3.87
224.583	6.67
224.968	26.59
225.352	0.82
225.736	6.22
226.121	2.22
226.505	6.06
226.889	4.06
227.273	7.02
227.657	10.51
228.041	6.15
228.425	14.82
228.809	6.58
229.193	2.4
229.577	9.24
229.961	6.74
230.344	10.42
230.728	6.11
231.112	7.16
231.495	6.56
231.879	7.37
232.263	6.82
232.646	5.75
233.03	4.99
233.413	7.47
233.797	6.78
234.18	5.99
234.563	10.04
234.946	9.25
235.33	6.32
235.713	2.99
236.096	5.87
236.479	6.39
236.862	8.87
237.245	6.93
237.628	7.36
238.011	9.19
238.394	6.14
238.777	7.9
239.16	6.11
239.543	7.58
239.925	7.9
240.308	7.09
240.691	7.14
241.073	7.94
241.456	6.91
241.838	6.2
242.221	7.31
242.603	6.78
242.986	6.97
243.368	7.12
243.75	6.62
244.133	7.48
244.515	6.8
244.897	6.22
245.279	6.85
245.661	6.34
246.043	6.35
246.425	6.92
246.807	6.42
247.189	6.25
247.571	6.74
247.953	6.71
248.335	6.82
248.717	6.38
249.098	6.47
249.48	6.3
249.862	6.43
250.243	6.22
250.625	6.51
251.006	6.4
251.388	6.81
251.769	6.2
252.151	6.64
252.532	6.09
252.913	6.3
253.295	7.93
253.676	6.55
254.057	5.98
254.438	6.96
254.819	5.73
255.2	6.21
255.581	6.06
255.962	7.02
256.343	5.95
256.724	5.4
257.105	6.98
257.486	6.61
257.867	7.64
258.247	6.31
258.628	6.91
259.009	5.54
259.389	7.46
259.77	6.45
260.15	6.9
260.531	6.14
260.911	6.1
261.292	6.27
261.672	5.98
262.052	5.97
262.432	6.06
262.813	6.37
263.193	6.01
263.573	6.52
263.953	6
264.333	6.31
264.713	5.95
265.093	6.82
265.473	5.59
265.853	5.35
266.233	6.39
266.612	5.88
266.992	5.94
267.372	5.62
267.752	6.49
268.131	5.72
268.511	5.65
268.89	6.09
269.27	6.29
269.649	5.83
270.029	6.11
270.408	5.95
270.787	5.29
271.167	5.75
271.546	5.73
271.925	6.46
272.304	5.8
272.683	5.71
273.062	6.59
273.441	5.87
273.82	6.12
274.199	5.96
274.578	5.84
274.957	5.4
275.336	5.83
275.715	5.57
276.093	5.71
276.472	6.13
276.851	5.8
277.229	5.37
277.608	6.47
277.986	4.71
278.365	5.61
278.743	5.98
279.122	6
279.5	6.5
279.878	5.28
280.257	5.92
280.635	6.08
281.013	6.6
281.391	6.11
281.769	5.27
282.147	5.91
282.525	5.51
282.903	6.2
283.281	5.38
283.659	5.54
284.037	5.69
284.415	5.82
284.792	5.59
285.17	5.88
285.548	6.09
285.925	5.71
286.303	5.53
286.68	5.04
287.058	5.5
287.435	5.79
287.813	5.3
288.19	5.29
288.567	5.36
288.945	5.4
289.322	5.65
289.699	5.38
290.076	5.89
290.453	5.55
290.83	5.38
291.207	5.4
291.584	5.12
291.961	5.25
292.338	5.78
292.715	5.63
293.092	5.73
293.469	5.64
293.845	5.3
294.222	5.24
294.599	5.76
294.975	5.59
295.352	5.81
295.728	5.49
296.105	5.52
296.481	5.8
296.858	5.56
297.234	5.52
297.61	5.69
297.986	5.61
298.363	5.2
298.739	5.8
299.115	5.67
299.491	5.66
299.867	5.78
300.243	5.52
300.619	5.58
300.995	5.37
301.371	5.78
301.746	5.65
302.122	5.38
302.498	5.15
302.874	4.74
303.249	5.64
303.625	5.18
304	5.58
304.376	5.68
304.751	5.97
305.127	5.35
305.502	5.95
305.878	5.29
306.253	5.72
306.628	5.46
307.003	5.95
307.378	5.38
307.754	4.96
308.129	5.79
308.504	5.08
308.879	6.04
309.254	5.3
309.629	5.46
310.003	5.59
310.378	5.84
310.753	5.15
311.128	5.33
311.502	5.61
311.877	4.79
312.252	5.24
312.626	5.49
313.001	5.93
313.375	5.46
313.75	6.2
314.124	5.72
314.498	5.62
314.873	5.74
315.247	5.57
315.621	5.54
315.995	5.82
316.369	5.65
316.743	5.22
317.117	5.06
317.491	5.7
317.865	4.54
318.239	5.33
318.613	5.51
318.987	5.62
319.361	5.16
319.734	4.99
320.108	6.25
320.482	4.98
320.855	5.49
321.229	5.78
321.602	5.84
321.976	5.35
322.349	4.77
322.723	5.31
323.096	5.25
323.469	5.47
323.843	5.41
324.216	5.61
324.589	4.68
324.962	4.99
325.335	5.54
325.708	4.75
326.081	5.1
326.454	4.83
326.827	5.36
327.2	5.1
327.573	5.73
327.945	5.28
328.318	5.52
328.691	5.32
329.063	4.77
329.436	5.45
329.809	4.93
330.181	5.61
330.553	5.02
330.926	5
331.298	5.23
331.671	5.09
332.043	5.34
332.415	5.02
332.787	5.79
333.159	4.84
333.532	5.1
333.904	4.88
334.276	5.35
334.648	4.77
335.02	4.63
335.391	5.06
335.763	5.84
336.135	5.31
336.507	5.07
336.879	4.93
337.25	5.13
337.622	5.12
337.993	5.3
338.365	5.27
338.736	5.01
339.108	5.21
339.479	4.69
339.851	5.03
340.222	5.2
340.593	5.05
340.964	4.16
341.336	4.86
341.707	4.91
342.078	5.01
342.449	5.47
342.82	5.08
343.191	4.6
343.562	5.34
343.933	5.25
344.303	4.56
344.674	4.87
345.045	5.38
345.416	5.54
345.786	4.88
346.157	4.98
346.527	4.87
346.898	4.97
347.268	4.89
347.639	4.82
348.009	4.93
348.38	4.81
348.75	5.26
349.12	5.12
349.49	5.37
349.861	5.34
350.231	5.27
350.601	5.22
350.971	5.42
351.341	4.63
351.711	5.1
352.081	4.78
352.45	4.98
352.82	5.46
353.19	5.51
353.56	4.96
353.929	4.98
354.299	5
354.669	4.98
355.038	4.57
355.408	5.3
355.777	5.52
356.147	5.12
356.516	5.18
356.885	5.24
357.254	5.66
357.624	4.99
357.993	5.14
358.362	4.98
358.731	4.87
359.1	4.81
359.469	5.31
359.838	4.83
360.207	4.89
360.576	5.38
360.945	5.01
361.314	5.37
361.682	4.91
362.051	5.4
362.42	4.98
362.788	4.88
363.157	5.1
363.525	5.03
363.894	4.86
364.262	4.83
364.631	5.05
364.999	4.74
365.367	5.09
365.735	4.91
366.104	5.17
366.472	5.2
366.84	4.96
367.208	5.48
367.576	5.01
367.944	4.9
368.312	4.91
368.68	4.73
369.048	5.2
369.416	4.95
369.783	4.88
370.151	5.21
370.519	5
370.886	4.9
371.254	5.47
371.621	4.86
371.989	5.23
372.356	4.89
372.724	5.03
373.091	5.18
373.458	5.08
373.826	4.96
374.193	5.1
374.56	5.06
374.927	5.39
375.294	4.71
375.661	4.85
376.028	5.33
376.395	4.92
376.762	4.83
377.129	5.21
377.496	5.33
377.863	5.16
378.229	5.39
378.596	4.9
378.963	5.55
379.329	5.15
379.696	5.59
380.062	5.01
380.429	5.03
380.795	4.95
381.161	4.93
381.528	5.07
381.894	4.58
382.26	4.94
382.626	5.12
382.993	5.26
383.359	4.88
383.725	5.06
384.091	4.94
384.457	5.02
384.823	5.03
385.188	5.3
385.554	5.08
385.92	5.28
386.286	5.27
386.651	5.11
387.017	5.25
387.383	4.87
387.748	5.09
388.114	5.25
388.479	5.07
388.845	4.92
389.21	5.01
389.575	5.34
389.94	5.19
390.306	5.2
390.671	5.44
391.036	5.07
391.401	5.15
391.766	4.97
392.131	5.18
392.496	5.09
392.861	4.97
393.226	5.2
393.591	5.3
393.956	5.09
394.32	5.16
394.685	5.08
395.05	5.35
395.414	5.23
395.779	5.13
396.143	5.04
396.508	5.07
396.872	5.07
397.236	5.19
397.601	5.06
397.965	5.13
398.329	5.22
398.694	4.99
399.058	5.14
399.422	5.16
399.786	5.31
400.15	5.27
400.514	5.33
400.878	5.16
401.242	5.31
401.605	5.38
401.969	4.93
402.333	5.24
402.697	5.26
403.06	5.24
403.424	5.21
403.787	5.42
404.151	5.17
404.514	5.47
404.878	5.5
405.241	5.32
405.604	5.05
405.968	5.19
406.331	5.22
406.694	5.39
407.057	5
407.42	5.19
407.783	5.21
408.146	5.27
408.509	5.04
408.872	5.12
409.235	5.32
409.598	5.25
409.961	5.38
410.323	5.27
410.686	5.34
411.049	5.26
411.411	5.46
411.774	5.04
412.136	5.1
412.499	5.18
412.861	5.33
413.223	5.41
413.586	5.24
413.948	5.28
414.31	5.03
414.672	5.22
415.035	5.4
415.397	5.47
415.759	5.43
416.121	5.17
416.483	5.28
416.845	5.27
417.206	4.92
417.568	5.37
417.93	5.21
418.292	5.45
418.653	5.13
419.015	5.15
419.377	5.09
419.738	5.24
420.1	5.27
420.461	5.13
420.822	4.94
421.184	5.2
421.545	5.16
421.906	5.06
422.267	5.11
422.629	5.2
422.99	5.06
423.351	5.13
423.712	5.15
424.073	5.15
424.434	5.14
424.795	5.25
425.155	5.25
425.516	5.13
425.877	5.25
426.238	5.12
426.598	5.08
426.959	5.07
427.32	5.23
427.68	5.12
428.041	5.1
428.401	5.27
428.761	5.43
429.122	5.25
429.482	5.33
429.842	5.08
430.202	5.06
430.563	5.27
430.923	5.3
431.283	5.52
431.643	5.44
432.003	5.41
432.363	5.41
432.722	5.24
433.082	5.38
433.442	5.31
433.802	5.52
434.161	5.33
434.521	5.29
434.881	5.36
435.24	5.16
435.6	5.13
435.959	5.25
436.319	5.16
436.678	5.35
437.037	5.26
437.396	5.43
437.756	5.31
438.115	5.41
438.474	5.45
438.833	5.3
439.192	5.28
439.551	5.23
439.91	5.34
440.269	5.6
440.628	5.17
440.987	5.35
441.345	5.47
441.704	5.49
442.063	5.28
442.421	5.37
442.78	5.35
443.138	5.34
443.497	5.3
443.855	5.39
444.214	5.07
444.572	5.4
444.93	5.46
445.288	5.46
445.647	5.31
446.005	5.23
446.363	5.25
446.721	5.3
447.079	5.25
447.437	5.37
447.795	5.35
448.153	5.25
448.51	5.27
448.868	5.22
449.226	5.34
449.584	5.25
449.941	5.31
450.299	5.43
450.656	5.39
451.014	5.46
451.371	5.48
451.729	5.36
452.086	5.31
452.443	5.45
452.801	5.52
453.158	5.35
453.515	5.44
453.872	5.4
454.229	5.29
454.586	5.4
454.943	5.34
455.3	5.5
455.657	5.39
456.014	5.28
456.371	5.4
456.727	5.74
457.084	5.52
457.441	5.41
457.797	5.43
458.154	5.53
458.51	5.28
458.867	5.23
459.223	5.67
459.58	5.52
459.936	5.63
460.292	5.37
460.648	5.57
461.005	5.55
461.361	5.52
461.717	5.33
462.073	5.32
462.429	5.19
462.785	5.24
463.141	5.43
463.496	5.51
463.852	5.44
464.208	5.35
464.564	5.58
464.919	5.4
465.275	5.69
465.631	5.74
465.986	5.58
466.342	5.55
466.697	5.59
467.052	5.45
467.408	5.65
467.763	5.68
468.118	5.57
468.473	5.43
468.829	5.49
469.184	5.47
469.539	5.53
469.894	5.49
470.249	5.64
470.603	5.33
470.958	5.54
471.313	5.7
471.668	5.52
472.023	5.49
472.377	5.54
472.732	5.48
473.086	5.71
473.441	5.2
473.795	5.67
474.15	5.33
474.504	5.55
474.859	5.81
475.213	5.31
475.567	5.48
475.921	5.43
476.275	5.5
476.63	5.49
476.984	5.44
477.338	5.68
477.692	5.68
478.045	5.78
478.399	5.73
478.753	5.48
479.107	5.8
479.461	5.53
479.814	5.62
480.168	5.59
480.521	5.67
480.875	5.66
481.228	5.58
481.582	5.44
481.935	5.56
482.289	5.5
482.642	5.57
482.995	5.43
483.348	5.64
483.701	5.53
484.055	5.48
484.408	5.45
484.761	5.5
485.114	5.28
485.466	5.36
485.819	5.22
486.172	5.21
486.525	5.25
486.878	5.25
487.23	5.32
487.583	5.4
487.936	5.43
488.288	5.47
488.641	5.5
488.993	5.37
489.345	5.31
489.698	5.3
490.05	5.35
490.402	5.39
490.754	5.36
491.107	5.29
491.459	5.42
491.811	5.48
492.163	5.56
492.515	5.61
492.866	5.57
493.218	5.59
493.57	5.53
493.922	5.37
494.274	5.37
494.625	5.41
494.977	5.51
495.328	5.64
495.68	5.58
496.031	5.68
496.383	5.72
496.734	5.63
497.086	5.54
497.437	5.73
497.788	5.77
498.139	5.7
498.49	5.87
498.842	5.57
499.193	5.54
499.544	5.6
499.894	5.55
500.245	5.65
500.596	5.64
500.947	5.68
501.298	5.69
501.648	5.73
501.999	5.7
502.35	5.72
502.7	5.91
503.051	5.79
503.401	5.77
503.752	5.66
504.102	5.75
504.452	5.7
504.803	5.78
505.153	5.71
505.503	5.69
505.853	5.8
506.203	5.61
506.553	5.8
506.903	5.78
507.253	5.79
507.603	5.74
507.953	5.91
508.303	5.83
508.652	5.76
509.002	5.81
509.352	5.77
509.701	5.84
510.051	5.75
510.4	5.8
510.75	5.73
511.099	5.7
511.449	5.82
511.798	5.83
512.147	5.74
512.496	5.65
512.846	5.78
513.195	5.77
513.544	5.89
513.893	5.87
514.242	5.69
514.591	5.94
514.939	5.84
515.288	5.73
515.637	5.82
515.986	5.73
516.334	5.79
516.683	5.77
517.032	5.97
517.38	5.95
517.729	5.77
518.077	5.86
518.426	5.83
518.774	5.81
519.122	5.91
519.47	5.78
519.819	5.77
520.167	5.87
520.515	5.76
520.863	5.71
521.211	5.73
521.559	5.75
521.907	5.76
522.255	5.75
522.602	5.79
522.95	5.78
523.298	5.93
523.645	5.86
523.993	5.88
524.341	5.77
524.688	5.87
525.036	5.87
525.383	5.92
525.73	5.99
526.078	5.84
526.425	5.85
526.772	5.96
527.119	5.93
527.466	5.83
527.814	5.84
528.161	5.69
528.508	5.78
528.854	5.8
529.201	5.83
529.548	5.78
529.895	5.83
530.242	5.74
530.588	5.6
530.935	5.5
531.282	5.59
531.628	5.65
531.975	5.65
532.321	5.66
532.667	5.75
533.014	5.79
533.36	5.85
533.706	5.8
534.052	5.92
534.399	5.96
534.745	5.88
535.091	5.71
535.437	5.69
535.783	5.69
536.129	5.76
536.474	5.8
536.82	5.79
537.166	5.88
537.512	5.89
537.857	5.9
538.203	5.99
538.549	5.89
538.894	5.78
539.239	5.79
539.585	5.82
539.93	5.94
540.276	5.82
540.621	5.89
540.966	5.98
541.311	6.08
541.656	5.93
542.001	6.03
542.346	5.98
542.691	5.96
543.036	5.95
543.381	5.8
543.726	5.81
544.071	5.8
544.415	5.8
544.76	5.78
545.105	5.73
545.449	5.82
545.794	5.9
546.138	5.91
546.483	5.98
546.827	5.9
547.171	5.99
547.516	6.03
547.86	6.09
548.204	5.95
548.548	5.99
548.892	5.99
549.236	5.99
549.58	6
549.924	5.95
550.268	6.12
550.612	5.96
550.956	6.04
551.3	5.93
551.643	6.19
551.987	6.34
552.33	6.12
552.674	6.13
553.017	6.06
553.361	6.08
553.704	6.3
554.048	6.31
554.391	6.2
554.734	6.18
555.077	6.05
555.42	6.08
555.764	6.02
556.107	6
556.45	6.07
556.793	6.31
557.135	6.28
557.478	6.04
557.821	6.09
558.164	6.15
558.507	6.34
558.849	6.17
559.192	6.17
559.534	6.27
559.877	6.39
560.219	6.12
560.562	6.29
560.904	6.36
561.246	6.46
561.589	6.26
561.931	6.28
562.273	6.15
562.615	6.21
562.957	6.09
563.299	6.31
563.641	6.38
563.983	6.19
564.325	6.35
564.667	6.29
565.008	6.3
565.35	6.22
565.692	6.3
566.033	6.29
566.375	6.14
566.716	6.24
567.058	6.43
567.399	6.32
567.741	6.49
568.082	6.25
568.423	6.38
568.764	6.35
569.105	6.14
569.447	6.11
569.788	6.17
570.129	6.3
570.47	6.37
570.811	6.18
571.151	6.41
571.492	6.43
571.833	6.17
572.174	6.31
572.514	6.4
572.855	6.33
573.195	6.21
573.536	6.3
573.876	6.23
574.217	6.25
574.557	6.32
574.898	6.31
575.238	6.22
575.578	6.32
575.918	6.31
576.258	6.34
576.598	6.2
576.938	6.31
577.278	6.24
577.618	6.23
577.958	6.31
578.298	6.48
578.638	6.29
578.977	6.43
579.317	6.2
579.657	6.5
579.996	6.45
580.336	6.43
580.675	6.52
581.014	6.19
581.354	6.21
581.693	6.32
582.032	6.57
582.372	6.55
582.711	6.37
583.05	6.4
583.389	6.46
583.728	6.27
584.067	6.77
584.406	6.48
584.745	6.33
585.083	6.74
585.422	6.55
585.761	6.47
586.1	6.32
586.438	6.33
586.777	6.43
587.115	6.35
587.454	6.42
587.792	6.5
588.13	6.49
588.469	6.55
588.807	6.69
589.145	6.59
589.483	6.46
589.821	6.46
590.159	6.44
590.497	6.52
590.835	6.64
591.173	6.45
591.511	6.46
591.849	6.53
592.187	6.37
592.524	6.65
592.862	6.57
593.2	6.54
593.537	6.33
593.875	6.59
594.212	6.5
594.55	6.83
594.887	6.28
595.224	6.83
595.561	6.56
595.899	6.75
596.236	6.86
596.573	6.63
596.91	6.37
597.247	6.54
597.584	6.62
597.921	6.81
598.258	6.76
598.594	6.59
598.931	6.6
599.268	6.55
599.604	6.7
599.941	6.68
600.277	6.41
600.614	6.6
600.95	6.73
601.287	6.47
601.623	6.5
601.959	6.62
602.296	6.78
602.632	6.59
602.968	6.58
603.304	6.62
603.64	6.57
603.976	6.68
604.312	6.38
604.648	6.5
604.984	6.74
605.319	6.62
605.655	6.65
605.991	6.55
606.326	6.61
606.662	6.7
606.998	6.51
607.333	6.47
607.668	6.45
608.004	6.63
608.339	6.47
608.674	6.63
609.01	6.57
609.345	6.68
609.68	6.94
610.015	6.55
610.35	6.71
610.685	6.54
611.02	6.68
611.355	6.75
611.689	6.67
612.024	6.55
612.359	6.62
612.694	6.72
613.028	6.47
613.363	6.62
613.697	6.86
614.032	6.63
614.366	6.5
614.7	6.63
615.035	6.74
615.369	6.95
615.703	6.56
616.037	6.84
616.371	6.69
616.705	6.9
617.039	6.64
617.373	6.79
617.707	6.93
618.041	6.69
618.375	6.7
618.709	6.33
619.042	6.85
619.376	6.77
619.71	6.77
620.043	6.31
620.377	6.74
620.71	6.95
621.043	7.16
621.377	6.66
621.71	6.62
622.043	6.89
622.376	6.99
622.709	6.73
623.043	6.7
623.376	6.75
623.709	7
624.041	6.7
624.374	6.82
624.707	6.72
625.04	7.01
625.373	6.6
625.705	6.49
626.038	6.89
626.37	6.98
626.703	7.02
627.035	6.85
627.368	6.71
627.7	7.24
628.032	7.16
628.365	6.91
628.697	6.89
629.029	7.09
629.361	6.76
629.693	6.98
630.025	6.82
630.357	6.54
630.689	6.76
631.021	6.57
631.353	6.9
631.684	6.82
632.016	6.73
632.348	6.94
632.679	6.71
633.011	6.71
633.342	7.12
633.674	6.75
634.005	6.6
634.336	7.16
634.668	7.11
634.999	6.92
635.33	7.05
635.661	6.85
635.992	6.88
636.323	7.09
636.654	6.9
636.985	7.03
637.316	6.8
637.647	6.83
637.977	6.54
638.308	7.37
638.639	7.06
638.969	6.9
639.3	6.8
639.63	7.23
639.961	6.84
640.291	6.7
640.622	6.98
640.952	6.76
641.282	7.49
641.612	7.01
641.943	7.02
642.273	7.25
642.603	6.78
642.933	6.85
643.263	6.38
643.592	6.76
643.922	7.28
644.252	6.82
644.582	7.3
644.911	7.18
645.241	6.93
645.571	6.87
645.9	6.97
646.23	7.4
646.559	6.96
646.888	7.41
647.218	6.71
647.547	6.36
647.876	6.91
648.205	6.43
648.534	7.59
648.863	6.84
649.192	6.25
649.521	7.23
649.85	7.13
650.179	6.61
650.508	7
650.837	7.49
651.165	6.65
651.494	6.77
651.822	6.56
652.151	7.31
652.479	7.13
652.808	7.03
653.136	7.38
653.465	6.74
653.793	6.96
654.121	7.56
654.449	6.86
654.777	7.35
655.105	7.11
655.433	7.41
655.761	7.16
656.089	7.26
656.417	6.76
656.745	7.04
657.073	7.65
657.4	7.66
657.728	7.04
658.056	6.99
658.383	7.52
658.711	6.91
659.038	6.89
659.365	7.26
659.693	6.7
660.02	6.9
660.347	7.27
660.674	6.93
661.001	6.6
661.329	6.9
661.656	7.1
661.982	7.07
662.309	7.13
662.636	6.74
662.963	7.37
663.29	7.12
663.616	7.05
663.943	7.37
664.27	7.27
664.596	7.03
664.923	6.77
665.249	7.03
665.576	6.49
665.902	6.96
666.228	7.12
666.554	7.28
666.881	7.28
667.207	7.05
667.533	7.32
667.859	6.94
668.185	7.08
668.511	7.68
668.837	6.52
669.162	7.48
669.488	7.43
669.814	7.17
670.139	6.64
670.465	7.36
670.791	6.95
671.116	7.06
671.442	7.46
671.767	6.25
672.092	7.91
672.418	7.85
672.743	7.46
673.068	7.61
673.393	6.49
673.718	7.54
674.043	7.61
674.368	7.03
674.693	7.53
675.018	7.62
675.343	6.83
675.667	7.45
675.992	7.26
676.317	8.31
676.641	7.09
676.966	7.68
677.29	7.15
677.615	7.6
677.939	7.53
678.264	7.89
678.588	7.8
678.912	7.41
679.236	7.63
679.56	7.15
679.885	7.07
680.209	8.1
680.532	6.99
680.856	7.17
681.18	7.85
681.504	7.89
681.828	8.09
682.152	7.29
682.475	7.74
682.799	7.97
683.122	7.55
683.446	7.33
683.769	7.31
684.093	7.54
684.416	7.57
684.739	8.03
685.062	8.16
685.386	7.05
685.709	7.47
686.032	7.47
686.355	7.43
686.678	7.06
687.001	7.71
687.324	8.24
687.646	7.28
687.969	8.09
688.292	7.58
688.614	7.98
688.937	7.38
689.26	7.15
689.582	6.93
689.904	7.66
690.227	8.59
690.549	7.73
690.871	6.86
691.194	7.6
691.516	7.46
691.838	7.79
692.16	7.61
692.482	8.01
692.804	6.39
693.126	7.05
