Data from 0235_forehead_Reflection__3__296.txt Node

Date: Fri Sep 22 23:03:10 CDT 2023
User: ToomeyLab
Spectrometer: FLMS14357
Trigger mode: 0
Integration Time (sec): 1.000000E-2
Scans to average: 100
Electric dark correction enabled: true
Nonlinearity correction enabled: false
Boxcar width: 0
XAxis mode: Wavelengths
Number of Pixels in Spectrum: 2048
>>>>>Begin Spectral Data<<<<<
189.047	140.78
189.435	140.78
189.823	140.78
190.211	302.46
190.599	69.19
190.987	-280.35
191.375	3071.43
191.763	-47.04
192.151	643.24
192.538	-83.09
192.926	113.85
193.314	-20.44
193.702	-998.38
194.089	68.02
194.477	13.57
194.864	216.84
195.252	-23.13
195.639	147.84
196.027	211.04
196.414	484.78
196.801	1657.52
197.189	0.9
197.576	273.77
197.963	-62.04
198.351	1.31
198.738	40.87
199.125	17.97
199.512	16.07
199.899	54.3
200.286	18.2
200.673	50.95
201.06	10.53
201.447	47.3
201.833	-20.49
202.22	22.53
202.607	39.99
202.994	65.42
203.38	45.41
203.767	-0.13
204.154	38.18
204.54	37.65
204.927	-18.22
205.313	28.01
205.699	65.84
206.086	50.66
206.472	39.02
206.858	60.82
207.245	-34.73
207.631	20.58
208.017	15.72
208.403	41.53
208.789	46.22
209.175	24
209.561	5.49
209.947	43.84
210.333	32
210.719	4.41
211.105	30.53
211.491	-1.13
211.876	29.91
212.262	18.45
212.648	24.94
213.034	21.71
213.419	32.85
213.805	21.35
214.19	2.3
214.576	15.71
214.961	21.38
215.346	-0.68
215.732	28.59
216.117	-18.25
216.502	40.57
216.888	30.19
217.273	25.16
217.658	8.5
218.043	28.55
218.428	34.22
218.813	1.24
219.198	2.11
219.583	10.89
219.968	-3.68
220.353	35.79
220.738	10.97
221.122	12.84
221.507	9.6
221.892	24.62
222.276	-3.67
222.661	-0.55
223.046	37.61
223.43	30.21
223.815	-0.91
224.199	11.84
224.583	15.82
224.968	21.47
225.352	-0.31
225.736	14.35
226.121	16.9
226.505	9.82
226.889	11.07
227.273	5.94
227.657	3.86
228.041	5.33
228.425	15.42
228.809	8.12
229.193	10.5
229.577	7.65
229.961	8.22
230.344	7.03
230.728	5.29
231.112	6.39
231.495	4.63
231.879	4.64
232.263	5.62
232.646	3.65
233.03	3.46
233.413	6.24
233.797	6.25
234.18	5.58
234.563	8.01
234.946	8.26
235.33	4.64
235.713	3.72
236.096	5.56
236.479	7.35
236.862	8.37
237.245	6.89
237.628	6.78
238.011	6.64
238.394	7.02
238.777	7.64
239.16	5.26
239.543	7.6
239.925	5.19
240.308	7.75
240.691	5.31
241.073	5.79
241.456	5.49
241.838	5.28
242.221	4.57
242.603	5.28
242.986	5.53
243.368	5.28
243.75	5.38
244.133	5.6
244.515	4.88
244.897	4.98
245.279	5.45
245.661	5.1
246.043	5.76
246.425	4.74
246.807	6.62
247.189	4.07
247.571	6.5
247.953	5.95
248.335	5.6
248.717	5.49
249.098	5.5
249.48	5.41
249.862	5.23
250.243	5.29
250.625	5.74
251.006	4.89
251.388	5.46
251.769	6.01
252.151	5.92
252.532	5.1
252.913	4.85
253.295	6.1
253.676	6.02
254.057	5.98
254.438	5.64
254.819	4.52
255.2	5.25
255.581	5.06
255.962	6.06
256.343	5.97
256.724	5.08
257.105	6.52
257.486	6.76
257.867	5.42
258.247	5.83
258.628	6.29
259.009	6.09
259.389	5.98
259.77	5.93
260.15	5.84
260.531	6.04
260.911	4.95
261.292	5.56
261.672	5.21
262.052	5.41
262.432	5.2
262.813	5.34
263.193	5.21
263.573	5.63
263.953	5.3
264.333	5.16
264.713	4.89
265.093	5.45
265.473	4.92
265.853	5.02
266.233	5.73
266.612	5.55
266.992	5.94
267.372	5.17
267.752	6.06
268.131	5.32
268.511	5.04
268.89	5.9
269.27	5.08
269.649	5.22
270.029	5.06
270.408	5.06
270.787	5.24
271.167	5.62
271.546	4.51
271.925	4.94
272.304	4.99
272.683	4.59
273.062	5.91
273.441	5.06
273.82	5.39
274.199	5.25
274.578	5.37
274.957	4.87
275.336	5.34
275.715	5.42
276.093	4.83
276.472	4.8
276.851	5.38
277.229	4.45
277.608	5.63
277.986	4.77
278.365	5.04
278.743	4.96
279.122	5.16
279.5	5.34
279.878	5.1
280.257	6.79
280.635	5.47
281.013	5.49
281.391	5.01
281.769	5.17
282.147	5.32
282.525	5.33
282.903	5.49
283.281	5.39
283.659	5.58
284.037	5.06
284.415	5.84
284.792	5.08
285.17	5.2
285.548	5.76
285.925	5.17
286.303	5.26
286.68	4.79
287.058	4.95
287.435	5.06
287.813	4.86
288.19	4.4
288.567	5.11
288.945	4.89
289.322	5.37
289.699	5.51
290.076	5.39
290.453	4.99
290.83	4.9
291.207	5.48
291.584	4.97
291.961	4.73
292.338	5.13
292.715	5.75
293.092	5.25
293.469	5.35
293.845	4.98
294.222	5.71
294.599	5.68
294.975	6.15
295.352	5.5
295.728	5.37
296.105	6.22
296.481	6.05
296.858	6.03
297.234	5.95
297.61	5.91
297.986	5.98
298.363	6.02
298.739	5.92
299.115	6.02
299.491	6.26
299.867	6.15
300.243	5.75
300.619	6.06
300.995	6.09
301.371	6.4
301.746	6.77
302.122	5.82
302.498	6.42
302.874	6.26
303.249	6.55
303.625	6.39
304	6.4
304.376	6.97
304.751	7.51
305.127	6.4
305.502	7.25
305.878	6.71
306.253	7.07
306.628	6.78
307.003	6.48
307.378	6.78
307.754	7.07
308.129	6.95
308.504	6.83
308.879	7.49
309.254	7.15
309.629	7.61
310.003	7.5
310.378	7.92
310.753	7.91
311.128	7.68
311.502	7.68
311.877	7.26
312.252	7.68
312.626	7.61
313.001	7.76
313.375	7.42
313.75	8.16
314.124	8.38
314.498	7.29
314.873	8.12
315.247	8.62
315.621	8.18
315.995	8.36
316.369	8.3
316.743	8.27
317.117	8.08
317.491	8.77
317.865	8.23
318.239	8.65
318.613	8.57
318.987	8.51
319.361	8.64
319.734	7.85
320.108	8.56
320.482	8.49
320.855	8.92
321.229	9.56
321.602	8.39
321.976	8.76
322.349	9.57
322.723	9.41
323.096	9.2
323.469	9.33
323.843	9.33
324.216	9.2
324.589	8.98
324.962	8.92
325.335	8.98
325.708	9.31
326.081	10.17
326.454	9.08
326.827	9.34
327.2	9.24
327.573	9.8
327.945	9.34
328.318	9.75
328.691	9.87
329.063	9.75
329.436	9.99
329.809	9.94
330.181	10.04
330.553	9.34
330.926	9.52
331.298	10.17
331.671	10.13
332.043	9.48
332.415	10.35
332.787	9.99
333.159	10.02
333.532	9.6
333.904	9.87
334.276	9.79
334.648	9.73
335.02	10.26
335.391	10.13
335.763	10.25
336.135	10.56
336.507	10.72
336.879	10.02
337.25	10.88
337.622	11.12
337.993	10.08
338.365	10.46
338.736	10.98
339.108	10.87
339.479	10.14
339.851	10.3
340.222	10.42
340.593	10.93
340.964	10.4
341.336	10.3
341.707	10.88
342.078	10.76
342.449	11.16
342.82	10.86
343.191	10.86
343.562	10.93
343.933	10.87
344.303	10.83
344.674	11.24
345.045	11.36
345.416	11.4
345.786	10.87
346.157	11.06
346.527	11.03
346.898	10.8
347.268	10.87
347.639	11.33
348.009	10.87
348.38	11.51
348.75	11.68
349.12	11.21
349.49	11.91
349.861	11.91
350.231	11.55
350.601	11.41
350.971	11.85
351.341	11.06
351.711	11.57
352.081	11.76
352.45	11.66
352.82	11.84
353.19	12.23
353.56	11.96
353.929	11.73
354.299	11.77
354.669	11.58
355.038	11.58
355.408	11.93
355.777	12.23
356.147	11.72
356.516	11.77
356.885	12.02
357.254	12.35
357.624	12.01
357.993	12.26
358.362	12.19
358.731	12.17
359.1	12.06
359.469	12.44
359.838	12.28
360.207	12.32
360.576	12.54
360.945	12.08
361.314	12.65
361.682	12.5
362.051	13.04
362.42	12.64
362.788	12.13
363.157	12.76
363.525	11.99
363.894	12.37
364.262	12.32
364.631	12.52
364.999	12.54
365.367	12.65
365.735	12.57
366.104	12.76
366.472	12.91
366.84	12.96
367.208	13.13
367.576	13.1
367.944	12.95
368.312	13.12
368.68	13.18
369.048	13.22
369.416	12.68
369.783	12.82
370.151	13.06
370.519	13.07
370.886	13.38
371.254	13.27
371.621	13.34
371.989	12.97
372.356	13.07
372.724	13.4
373.091	13.71
373.458	13.3
373.826	13.41
374.193	13.56
374.56	13.77
374.927	13.65
375.294	13.62
375.661	13.57
376.028	13.55
376.395	13.87
376.762	13.91
377.129	13.73
377.496	14.16
377.863	14.06
378.229	13.93
378.596	13.87
378.963	14.11
379.329	13.96
379.696	13.92
380.062	13.67
380.429	13.86
380.795	14.05
381.161	13.93
381.528	13.93
381.894	13.71
382.26	14.07
382.626	14.24
382.993	14.21
383.359	13.75
383.725	13.85
384.091	14.18
384.457	14.4
384.823	14.77
385.188	14.49
385.554	14.38
385.92	14.64
386.286	14.42
386.651	14.26
387.017	14.39
387.383	14.67
387.748	14.46
388.114	14.8
388.479	14.51
388.845	14.53
389.21	14.37
389.575	14.97
389.94	14.6
390.306	14.72
390.671	15.09
391.036	14.83
391.401	14.82
391.766	14.87
392.131	14.92
392.496	14.83
392.861	14.8
393.226	15.25
393.591	15.27
393.956	14.81
394.32	15.1
394.685	15.19
395.05	15.48
395.414	15.35
395.779	15.24
396.143	15.14
396.508	15.23
396.872	14.92
397.236	15.14
397.601	14.87
397.965	15.21
398.329	15.45
398.694	15.55
399.058	15.55
399.422	15.43
399.786	15.35
400.15	15.71
400.514	15.61
400.878	15.61
401.242	15.44
401.605	15.63
401.969	15.44
402.333	15.6
402.697	15.59
403.06	15.75
403.424	15.52
403.787	15.91
404.151	16.06
404.514	16.07
404.878	16.07
405.241	16
405.604	15.8
405.968	16.03
406.331	16.14
406.694	16.05
407.057	15.86
407.42	16.26
407.783	15.93
408.146	16.03
408.509	15.97
408.872	16.08
409.235	16.11
409.598	16.06
409.961	16.32
410.323	16.43
410.686	16.38
411.049	16.26
411.411	16.69
411.774	16.25
412.136	16.11
412.499	16.24
412.861	16.49
413.223	16.38
413.586	16.55
413.948	16.43
414.31	16.44
414.672	16.56
415.035	16.64
415.397	16.94
415.759	16.92
416.121	16.71
416.483	16.68
416.845	16.77
417.206	16.66
417.568	16.9
417.93	16.86
418.292	16.81
418.653	16.64
419.015	16.93
419.377	16.67
419.738	16.92
420.1	16.69
420.461	16.77
420.822	16.59
421.184	16.8
421.545	16.72
421.906	16.76
422.267	16.72
422.629	16.8
422.99	16.88
423.351	16.73
423.712	16.77
424.073	16.76
424.434	16.83
424.795	16.91
425.155	16.99
425.516	16.95
425.877	16.95
426.238	16.93
426.598	17.06
426.959	17.07
427.32	17.04
427.68	17.05
428.041	17.06
428.401	17.28
428.761	17.37
429.122	17.33
429.482	17.4
429.842	17.45
430.202	17.45
430.563	17.71
430.923	17.56
431.283	17.43
431.643	17.8
432.003	17.56
432.363	17.88
432.722	17.84
433.082	17.69
433.442	17.79
433.802	17.95
434.161	17.87
434.521	18.02
434.881	17.83
435.24	17.97
435.6	17.78
435.959	17.71
436.319	17.93
436.678	17.91
437.037	18.12
437.396	17.87
437.756	18.09
438.115	18.18
438.474	18.35
438.833	18.44
439.192	18.25
439.551	18.15
439.91	18.19
440.269	18.26
440.628	18.31
440.987	18.45
441.345	18.24
441.704	18.47
442.063	18.37
442.421	18.3
442.78	18.3
443.138	18.3
443.497	18.26
443.855	18.43
444.214	18.32
444.572	18.53
444.93	18.58
445.288	18.45
445.647	18.89
446.005	18.68
446.363	18.94
446.721	18.79
447.079	18.63
447.437	18.78
447.795	18.74
448.153	18.71
448.51	18.56
448.868	18.58
449.226	18.67
449.584	18.64
449.941	18.75
450.299	18.78
450.656	18.91
451.014	18.95
451.371	19.09
451.729	19.22
452.086	18.95
452.443	19.01
452.801	19.16
453.158	19.12
453.515	19.32
453.872	19.18
454.229	19.38
454.586	19.54
454.943	19.25
455.3	19.34
455.657	19.43
456.014	19.45
456.371	19.56
456.727	19.7
457.084	19.59
457.441	19.45
457.797	19.8
458.154	19.55
458.51	19.71
458.867	19.58
459.223	19.79
459.58	19.85
459.936	19.94
460.292	19.78
460.648	19.83
461.005	19.84
461.361	19.74
461.717	19.6
462.073	19.46
462.429	19.58
462.785	19.67
463.141	19.67
463.496	19.83
463.852	19.97
464.208	20.08
464.564	20.05
464.919	20.21
465.275	20.32
465.631	20.38
465.986	20.17
466.342	20.25
466.697	20.64
467.052	20.29
467.408	20.46
467.763	20.11
468.118	20.61
468.473	20.42
468.829	20.31
469.184	20.25
469.539	20.48
469.894	20.52
470.249	20.68
470.603	20.44
470.958	20.5
471.313	20.74
471.668	20.66
472.023	20.69
472.377	21
472.732	20.65
473.086	21.02
473.441	20.67
473.795	21.18
474.15	20.89
474.504	20.97
474.859	21.2
475.213	20.7
475.567	20.86
475.921	21.04
476.275	20.96
476.63	20.86
476.984	21
477.338	21.03
477.692	21.31
478.045	21.33
478.399	21.19
478.753	21.07
479.107	21.21
479.461	21.01
479.814	21.38
480.168	21.21
480.521	21.38
480.875	21.49
481.228	21.34
481.582	21.27
481.935	21.34
482.289	21.42
482.642	21.28
482.995	21.54
483.348	21.33
483.701	21.39
484.055	21.27
484.408	21.19
484.761	21.17
485.114	21.01
485.466	20.8
485.819	20.58
486.172	20.57
486.525	20.54
486.878	20.65
487.23	20.78
487.583	20.9
487.936	21.1
488.288	21.25
488.641	21.26
488.993	21.15
489.345	21.05
489.698	21.04
490.05	20.95
490.402	20.98
490.754	21.09
491.107	21.19
491.459	21.42
491.811	21.43
492.163	21.69
492.515	21.73
492.866	21.79
493.218	21.63
493.57	21.63
493.922	21.25
494.274	21.41
494.625	21.51
494.977	21.68
495.328	21.87
495.68	22.1
496.031	22.2
496.383	22.35
496.734	22.38
497.086	22.42
497.437	22.54
497.788	22.53
498.139	22.48
498.49	22.62
498.842	22.38
499.193	22.51
499.544	22.53
499.894	22.41
500.245	22.5
500.596	22.59
500.947	22.51
501.298	22.68
501.648	22.62
501.999	22.84
502.35	22.67
502.7	22.83
503.051	22.88
503.401	22.99
503.752	22.86
504.102	23.21
504.452	23.07
504.803	23.13
505.153	23.18
505.503	23.1
505.853	23.19
506.203	23.08
506.553	23.14
506.903	23.16
507.253	23.35
507.603	23.22
507.953	23.47
508.303	23.29
508.652	23.4
509.002	23.58
509.352	23.56
509.701	23.25
510.051	23.55
510.4	23.23
510.75	23.38
511.099	23.36
511.449	23.49
511.798	23.54
512.147	23.54
512.496	23.4
512.846	23.4
513.195	23.59
513.544	23.58
513.893	23.82
514.242	23.65
514.591	23.76
514.939	23.77
515.288	23.65
515.637	23.9
515.986	23.79
516.334	24.1
516.683	24.03
517.032	24.11
517.38	24.19
517.729	24.12
518.077	24.09
518.426	24.2
518.774	24.07
519.122	24.29
519.47	23.85
519.819	24
520.167	24.08
520.515	23.91
520.863	23.91
521.211	23.89
521.559	24.01
521.907	24.07
522.255	24.16
522.602	24.4
522.95	24.34
523.298	24.4
523.645	24.55
523.993	24.42
524.341	24.54
524.688	24.53
525.036	24.69
525.383	24.68
525.73	24.61
526.078	24.66
526.425	24.52
526.772	24.67
527.119	24.63
527.466	24.57
527.814	24.4
528.161	24.23
528.508	24.33
528.854	24.36
529.201	24.54
529.548	24.36
529.895	24.46
530.242	24.33
530.588	24.03
530.935	23.94
531.282	24.03
531.628	24.18
531.975	24.29
532.321	24.31
532.667	24.41
533.014	24.67
533.36	24.73
533.706	24.85
534.052	24.92
534.399	25.03
534.745	24.94
535.091	24.82
535.437	24.6
535.783	24.58
536.129	24.72
536.474	24.79
536.82	24.94
537.166	25.05
537.512	25.24
537.857	25.3
538.203	25.35
538.549	25.28
538.894	25.18
539.239	25.29
539.585	25.15
539.93	25.34
540.276	25.41
540.621	25.67
540.966	25.68
541.311	25.69
541.656	25.72
542.001	25.87
542.346	25.67
542.691	25.86
543.036	25.31
543.381	25.36
543.726	25.22
544.071	25.23
544.415	25.35
544.76	25.28
545.105	25.41
545.449	25.59
545.794	25.63
546.138	25.83
546.483	26.02
546.827	25.97
547.171	26.08
547.516	26.28
547.86	26.11
548.204	26
548.548	26.12
548.892	26.19
549.236	26.28
549.58	26.32
549.924	26.3
550.268	26.52
550.612	26.47
550.956	26.54
551.3	26.71
551.643	26.71
551.987	26.88
552.33	26.89
552.674	26.84
553.017	26.85
553.361	26.73
553.704	26.88
554.048	26.97
554.391	27.12
554.734	27.13
555.077	27.14
555.42	26.85
555.764	26.99
556.107	27.11
556.45	27.06
556.793	27.04
557.135	27.31
557.478	27.09
557.821	27.15
558.164	27.35
558.507	27.57
558.849	27.2
559.192	27.57
559.534	27.73
559.877	27.65
560.219	27.63
560.562	27.76
560.904	27.69
561.246	27.73
561.589	27.75
561.931	27.9
562.273	27.5
562.615	27.9
562.957	27.7
563.299	27.7
563.641	27.93
563.983	27.94
564.325	27.97
564.667	28.09
565.008	27.83
565.35	28.04
565.692	28.02
566.033	28.1
566.375	28.13
566.716	28.07
567.058	28.04
567.399	28.14
567.741	28.33
568.082	28.18
568.423	28.19
568.764	28.2
569.105	27.86
569.447	28.15
569.788	28.14
570.129	28.18
570.47	28.35
570.811	28.48
571.151	28.36
571.492	28.37
571.833	28.13
572.174	28.34
572.514	28.48
572.855	28.5
573.195	28.39
573.536	28.63
573.876	28.69
574.217	28.37
574.557	28.42
574.898	28.51
575.238	28.44
575.578	28.5
575.918	28.51
576.258	28.56
576.598	28.71
576.938	28.77
577.278	28.92
577.618	28.53
577.958	29.05
578.298	28.97
578.638	28.76
578.977	28.87
579.317	28.79
579.657	29.17
579.996	29.04
580.336	29.02
580.675	29.29
581.014	28.83
581.354	29.08
581.693	29.33
582.032	29.41
582.372	29.4
582.711	29.73
583.05	29.48
583.389	29.59
583.728	29.26
584.067	29.45
584.406	29.79
584.745	29.42
585.083	29.84
585.422	30.04
585.761	29.57
586.1	29.71
586.438	29.59
586.777	29.79
587.115	29.92
587.454	29.69
587.792	29.88
588.13	29.92
588.469	29.92
588.807	30.29
589.145	29.84
589.483	30.08
589.821	29.83
590.159	29.84
590.497	30.3
590.835	30.05
591.173	30.05
591.511	30.28
591.849	30.07
592.187	29.99
592.524	30.16
592.862	30.2
593.2	30.14
593.537	29.89
593.875	30.27
594.212	30.26
594.55	30.16
594.887	30.29
595.224	30.54
595.561	30.42
595.899	30.47
596.236	30.66
596.573	30.43
596.91	30.33
597.247	30.52
597.584	30.57
597.921	30.66
598.258	30.57
598.594	30.48
598.931	30.6
599.268	30.49
599.604	30.43
599.941	30.47
600.277	30.83
600.614	30.7
600.95	30.7
601.287	30.57
601.623	30.82
601.959	30.83
602.296	30.83
602.632	30.63
602.968	31.03
603.304	30.88
603.64	31.05
603.976	30.99
604.312	31.15
604.648	30.85
604.984	30.86
605.319	31
605.655	30.99
605.991	30.99
606.326	31.14
606.662	30.8
606.998	30.99
607.333	31.01
607.668	31.15
608.004	31.14
608.339	31.08
608.674	31.28
609.01	31.35
609.345	31.5
609.68	31.56
610.015	31.51
610.35	31.39
610.685	31.6
611.02	31.84
611.355	31.58
611.689	31.65
612.024	31.58
612.359	31.69
612.694	31.47
613.028	31.73
613.363	31.38
613.697	31.68
614.032	31.75
614.366	31.57
614.7	31.54
615.035	31.68
615.369	31.75
615.703	31.86
616.037	32.31
616.371	32.36
616.705	32.47
617.039	32.04
617.373	31.94
617.707	31.98
618.041	32.56
618.375	32.46
618.709	32.16
619.042	32.39
619.376	32.39
619.71	32.36
620.043	32.36
620.377	32.25
620.71	32.63
621.043	32.91
621.377	32.4
621.71	32.34
622.043	32.87
622.376	32.34
622.709	32.83
623.043	32.33
623.376	32.49
623.709	32.28
624.041	32.58
624.374	32.96
624.707	33.15
625.04	33.13
625.373	32.29
625.705	32.92
626.038	32.62
626.37	32.81
626.703	33.03
627.035	32.87
627.368	33.12
627.7	32.95
628.032	32.99
628.365	33.06
628.697	32.91
629.029	32.95
629.361	32.95
629.693	33.19
630.025	33.04
630.357	32.91
630.689	32.89
631.021	32.93
631.353	32.97
631.684	33.17
632.016	33.65
632.348	33.25
632.679	33.16
633.011	33.46
633.342	33.69
633.674	33.27
634.005	33.44
634.336	33.25
634.668	33.63
634.999	33.24
635.33	33.76
635.661	33.34
635.992	33.28
636.323	33.84
636.654	33.76
636.985	33.52
637.316	33.53
637.647	33.62
637.977	33.46
638.308	33.74
638.639	33.98
638.969	33.55
639.3	33.75
639.63	33.79
639.961	33.81
640.291	33.77
640.622	34.27
640.952	34.01
641.282	34.04
641.612	34.1
641.943	34.4
642.273	33.54
642.603	33.89
642.933	34.05
643.263	33.99
643.592	34.27
643.922	34.58
644.252	34.22
644.582	34.92
644.911	34.34
645.241	34.83
645.571	34.33
645.9	34.39
646.23	34.95
646.559	34.41
646.888	34.47
647.218	34.26
647.547	34.98
647.876	34.28
648.205	33.73
648.534	34.75
648.863	34.48
649.192	34.1
649.521	34.55
649.85	35.28
650.179	34.82
650.508	35.11
650.837	34.9
651.165	34.38
651.494	35.07
651.822	34.86
652.151	34.77
652.479	34.61
652.808	34.57
653.136	35.36
653.465	34.99
653.793	34.66
654.121	35.21
654.449	34.37
654.777	34.9
655.105	34.93
655.433	34.82
655.761	35.44
656.089	35.18
656.417	35.54
656.745	35.69
657.073	35.61
657.4	34.87
657.728	35.5
658.056	35.58
658.383	35.41
658.711	35.23
659.038	35.16
659.365	34.77
659.693	35.39
660.02	35.31
660.347	35.43
660.674	34.88
661.001	35.63
661.329	35.49
661.656	35.85
661.982	35.38
662.309	35.82
662.636	35.27
662.963	35.39
663.29	35.48
663.616	35.11
663.943	35.58
664.27	35.43
664.596	35.87
664.923	35.4
665.249	35.57
665.576	35.61
665.902	35.85
666.228	35.82
666.554	35.21
666.881	36.25
667.207	35.9
667.533	35.63
667.859	35.74
668.185	35.87
668.511	36.09
668.837	35.74
669.162	36.38
669.488	36.13
