Data from 0410_chest_Reflection__2__184.txt Node

Date: Tue Dec 12 19:53:40 CST 2023
User: ToomeyLab
Spectrometer: FLMS14357
Trigger mode: 0
Integration Time (sec): 1.000000E-2
Scans to average: 100
Electric dark correction enabled: true
Nonlinearity correction enabled: false
Boxcar width: 0
XAxis mode: Wavelengths
Number of Pixels in Spectrum: 2048
>>>>>Begin Spectral Data<<<<<
189.047	94.16
189.435	94.16
189.823	94.16
190.211	991.58
190.599	143.35
190.987	25.83
191.375	68.34
191.763	300.93
192.151	166.42
192.538	-523.86
192.926	15.47
193.314	-13.76
193.702	296.82
194.089	11.56
194.477	451.36
194.864	-14.23
195.252	116.55
195.639	67.67
196.027	106.37
196.414	-745.66
196.801	128.68
197.189	7.63
197.576	110.54
197.963	50.38
198.351	24.87
198.738	44.16
199.125	80.93
199.512	2.05
199.899	58.64
200.286	28.76
200.673	67.93
201.06	36.46
201.447	-83.36
201.833	-41.31
202.22	9.01
202.607	-169.51
202.994	-15.58
203.38	31.84
203.767	-36.94
204.154	0.31
204.54	30.2
204.927	-4.66
205.313	-3.73
205.699	-19.84
206.086	-65.88
206.472	4.69
206.858	-4.88
207.245	-11.14
207.631	54.5
208.017	-4.58
208.403	1.1
208.789	-0.87
209.175	-29.25
209.561	3.97
209.947	-31.55
210.333	28.5
210.719	26.61
211.105	11.81
211.491	49.66
211.876	15.94
212.262	12.49
212.648	-124.07
213.034	-105.56
213.419	1.03
213.805	46.34
214.19	35.24
214.576	39.56
214.961	29.83
215.346	-11.07
215.732	4.42
216.117	-13.91
216.502	-6.21
216.888	-27.65
217.273	-11.77
217.658	-100.76
218.043	25.6
218.428	13.6
218.813	-13.5
219.198	-54.61
219.583	19.28
219.968	-1.93
220.353	9.57
220.738	5.65
221.122	-9.47
221.507	-30.67
221.892	-11.24
222.276	-10.38
222.661	-5.29
223.046	-15.98
223.43	-0.18
223.815	-5.87
224.199	3.81
224.583	-2.35
224.968	7.66
225.352	5.63
225.736	2.38
226.121	3.15
226.505	4.56
226.889	-0.41
227.273	-4.01
227.657	6.14
228.041	6.47
228.425	-2.32
228.809	1.84
229.193	1.68
229.577	3.59
229.961	3.5
230.344	3.96
230.728	3.87
231.112	4.45
231.495	3.28
231.879	3.98
232.263	4.33
232.646	4.63
233.03	4.29
233.413	1.83
233.797	1.68
234.18	-0.36
234.563	2.04
234.946	4.69
235.33	6.15
235.713	4.32
236.096	2.23
236.479	2.8
236.862	3.77
237.245	3.16
237.628	3.42
238.011	2.39
238.394	2.75
238.777	4.29
239.16	2.47
239.543	1.84
239.925	3.66
240.308	1.24
240.691	2.2
241.073	5.67
241.456	4.49
241.838	4.54
242.221	4.06
242.603	3.69
242.986	2.65
243.368	3.59
243.75	2.66
244.133	3.21
244.515	3.29
244.897	3.24
245.279	3.79
245.661	2.82
246.043	2.67
246.425	3.87
246.807	2.74
247.189	4.02
247.571	3.92
247.953	3.16
248.335	3.53
248.717	3.28
249.098	3.58
249.48	3.29
249.862	3.32
250.243	3.5
250.625	3.7
251.006	4.38
251.388	3.12
251.769	3.75
252.151	2.75
252.532	4.72
252.913	3.22
253.295	4.13
253.676	3.22
254.057	3.38
254.438	3.56
254.819	3.23
255.2	3.04
255.581	2.66
255.962	3.1
256.343	3.01
256.724	3.84
257.105	4.04
257.486	3.07
257.867	2.5
258.247	2.14
258.628	3.66
259.009	2.76
259.389	3.86
259.77	3.14
260.15	3.03
260.531	3.83
260.911	3.79
261.292	3.04
261.672	2.89
262.052	3.21
262.432	3.65
262.813	3.57
263.193	3.21
263.573	3.77
263.953	4.2
264.333	4.95
264.713	3.68
265.093	2.78
265.473	3.95
265.853	2.35
266.233	2.21
266.612	3.01
266.992	3.77
267.372	3.53
267.752	4.09
268.131	2.09
268.511	2.73
268.89	2.96
269.27	2.24
269.649	3.28
270.029	3.11
270.408	4.13
270.787	3.03
271.167	3.71
271.546	3.33
271.925	4.05
272.304	3.17
272.683	2.95
273.062	2.74
273.441	3.44
273.82	2.77
274.199	3.07
274.578	2.76
274.957	2.75
275.336	2.99
275.715	3.79
276.093	2.26
276.472	3.38
276.851	3.05
277.229	2.78
277.608	2.87
277.986	2.8
278.365	3.16
278.743	3.89
279.122	3.11
279.5	2.5
279.878	1.83
280.257	2.68
280.635	3.09
281.013	2.97
281.391	3.37
281.769	2.99
282.147	2.4
282.525	2.47
282.903	2.52
283.281	2.15
283.659	3.01
284.037	3.6
284.415	2.93
284.792	2.97
285.17	2.43
285.548	3.39
285.925	2.47
286.303	2.39
286.68	3.18
287.058	3.28
287.435	2.84
287.813	2.8
288.19	3.28
288.567	2.9
288.945	2.52
289.322	2.96
289.699	2.72
290.076	2.69
290.453	3.85
290.83	3.04
291.207	4.04
291.584	3.81
291.961	3.16
292.338	3.05
292.715	3.13
293.092	3.11
293.469	3.02
293.845	3.65
294.222	3.31
294.599	3.82
294.975	3.52
295.352	3.22
295.728	3.88
296.105	3.23
296.481	3.99
296.858	3.77
297.234	4.02
297.61	3.9
297.986	3.94
298.363	4.07
298.739	3.75
299.115	3.4
299.491	3.8
299.867	3.79
300.243	3.66
300.619	3.55
300.995	3.76
301.371	4.33
301.746	3.54
302.122	4.29
302.498	3.95
302.874	3.73
303.249	4.49
303.625	3.5
304	3.7
304.376	3.87
304.751	3.92
305.127	4.15
305.502	4.26
305.878	3.96
306.253	3.87
306.628	3.77
307.003	3.68
307.378	4.73
307.754	4.48
308.129	4.23
308.504	4.72
308.879	4.58
309.254	4.47
309.629	3.99
310.003	4.6
310.378	4.58
310.753	4.14
311.128	4.43
311.502	3.96
311.877	4.01
312.252	3.85
312.626	4.12
313.001	3.93
313.375	4.04
313.75	4.26
314.124	4.11
314.498	3.88
314.873	4.02
315.247	4.09
315.621	4.07
315.995	4.79
316.369	4.75
316.743	3.98
317.117	4.39
317.491	4.29
317.865	4.45
318.239	4.34
318.613	4.34
318.987	4.44
319.361	3.82
319.734	4.06
320.108	4.95
320.482	4.56
320.855	4.23
321.229	4.97
321.602	4.16
321.976	5.05
322.349	4.95
322.723	4.64
323.096	4.75
323.469	4.85
323.843	4.98
324.216	4.91
324.589	4.63
324.962	4.5
325.335	4.47
325.708	4.42
326.081	4.31
326.454	4.52
326.827	5.28
327.2	4.84
327.573	4.95
327.945	5.19
328.318	4.49
328.691	4.25
329.063	4.93
329.436	4.54
329.809	4.9
330.181	4.06
330.553	4.37
330.926	4.72
331.298	4.23
331.671	4.61
332.043	4.83
332.415	5.34
332.787	4.71
333.159	4.92
333.532	4.35
333.904	4.7
334.276	5.45
334.648	4.53
335.02	4.05
335.391	4.36
335.763	5.01
336.135	5.12
336.507	5.29
336.879	4.22
337.25	4.29
337.622	4.63
337.993	4.46
338.365	4.48
338.736	4.59
339.108	4.53
339.479	4.7
339.851	4.34
340.222	3.86
340.593	5.25
340.964	4.48
341.336	4.95
341.707	4.37
342.078	4.44
342.449	4.49
342.82	4.84
343.191	4.83
343.562	4.71
343.933	4.97
344.303	4.45
344.674	4.39
345.045	4.54
345.416	4.89
345.786	4.47
346.157	4.43
346.527	4.92
346.898	4.72
347.268	5.02
347.639	4.92
348.009	4.75
348.38	4.43
348.75	4.53
349.12	4.65
349.49	4.88
349.861	4.82
350.231	4.45
350.601	4.96
350.971	4.89
351.341	4.56
351.711	4.97
352.081	4.7
352.45	4.16
352.82	4.88
353.19	4.87
353.56	4.85
353.929	4.74
354.299	4.57
354.669	4.55
355.038	4.17
355.408	4.95
355.777	4.91
356.147	4.77
356.516	4.84
356.885	4.77
357.254	4.5
357.624	4.36
357.993	4.85
358.362	4.93
358.731	5
359.1	4.44
359.469	4.64
359.838	4.83
360.207	4.58
360.576	4.74
360.945	4.35
361.314	5.01
361.682	4.66
362.051	4.75
362.42	4.68
362.788	4.77
363.157	5.33
363.525	5.01
363.894	4.77
364.262	4.55
364.631	4.54
364.999	4.68
365.367	5.08
365.735	4.88
366.104	4.64
366.472	4.65
366.84	4.82
367.208	4.84
367.576	4.36
367.944	4.89
368.312	4.68
368.68	4.61
369.048	4.76
369.416	4.8
369.783	4.97
370.151	4.91
370.519	4.44
370.886	4.85
371.254	5
371.621	5.03
371.989	4.73
372.356	4.62
372.724	4.58
373.091	5.01
373.458	5.09
373.826	5.07
374.193	5.04
374.56	5.05
374.927	4.87
375.294	4.96
375.661	5.28
376.028	5.01
376.395	5.12
376.762	5.55
377.129	4.97
377.496	4.76
377.863	4.66
378.229	4.84
378.596	4.93
378.963	5.18
379.329	4.66
379.696	4.89
380.062	5.14
380.429	5.01
380.795	5.13
381.161	5.08
381.528	5.24
381.894	5.23
382.26	5.03
382.626	4.75
382.993	4.96
383.359	5.01
383.725	4.89
384.091	4.73
384.457	5.25
384.823	5.15
385.188	4.88
385.554	5.1
385.92	4.68
386.286	5.25
386.651	5.03
387.017	5.41
387.383	4.62
387.748	4.97
388.114	5.04
388.479	5.21
388.845	4.77
389.21	5.06
389.575	4.92
389.94	5.12
390.306	5.22
390.671	4.9
391.036	5.09
391.401	4.94
391.766	5.3
392.131	5.03
392.496	5.02
392.861	4.76
393.226	5.36
393.591	5.05
393.956	4.9
394.32	5.11
394.685	5.14
395.05	5.05
395.414	5.26
395.779	5.26
396.143	5.32
396.508	5.17
396.872	5.22
397.236	5.16
397.601	5.11
397.965	5.23
398.329	5.45
398.694	5.04
399.058	5.25
399.422	5.02
399.786	5.2
400.15	4.82
400.514	5.02
400.878	5.09
401.242	4.77
401.605	5.24
401.969	4.95
402.333	5.41
402.697	5.24
403.06	4.79
403.424	5.13
403.787	4.97
404.151	5.33
404.514	4.89
404.878	5.11
405.241	5.04
405.604	4.97
405.968	4.85
406.331	5.31
406.694	5.52
407.057	5.12
407.42	5.1
407.783	5.12
408.146	5.09
408.509	5.2
408.872	5.12
409.235	5
409.598	5.04
409.961	5.45
410.323	5.19
410.686	5.29
411.049	5.29
411.411	5.33
411.774	5.32
412.136	5.24
412.499	5.19
412.861	5.29
413.223	5.44
413.586	5.12
413.948	5.25
414.31	5.39
414.672	5.49
415.035	5.14
415.397	5.17
415.759	5.45
416.121	5.33
416.483	5.37
416.845	5.1
417.206	5.32
417.568	5.13
417.93	5.53
418.292	5.32
418.653	5.35
419.015	5.33
419.377	5.28
419.738	5.29
420.1	5
420.461	5.44
420.822	5.37
421.184	5.25
421.545	5.5
421.906	5.15
422.267	5.24
422.629	5.22
422.99	5.33
423.351	5.23
423.712	5.09
424.073	5.32
424.434	5.41
424.795	5.42
425.155	5.18
425.516	5.14
425.877	5.24
426.238	5.29
426.598	5.27
426.959	5.34
427.32	5.33
427.68	5.37
428.041	5.46
428.401	5.32
428.761	5.33
429.122	5.44
429.482	5.54
429.842	5.44
430.202	5.59
430.563	5.51
430.923	5.33
431.283	5.38
431.643	5.54
432.003	5.39
432.363	5.6
432.722	5.4
433.082	5.51
433.442	5.53
433.802	5.68
434.161	5.59
434.521	5.48
434.881	5.5
435.24	5.64
435.6	5.44
435.959	5.61
436.319	5.56
436.678	5.64
437.037	5.5
437.396	5.49
437.756	5.54
438.115	5.59
438.474	5.57
438.833	5.62
439.192	5.75
439.551	5.6
439.91	5.4
440.269	5.65
440.628	5.5
440.987	5.45
441.345	5.57
441.704	5.56
442.063	5.64
442.421	5.65
442.78	5.65
443.138	5.54
443.497	5.58
443.855	5.57
444.214	5.49
444.572	5.6
444.93	5.65
445.288	5.48
445.647	5.69
446.005	5.49
446.363	5.47
446.721	5.52
447.079	5.63
447.437	5.49
447.795	5.63
448.153	5.55
448.51	5.7
448.868	5.62
449.226	5.65
449.584	5.65
449.941	5.55
450.299	5.75
450.656	5.53
451.014	5.61
451.371	5.64
451.729	5.8
452.086	5.52
452.443	5.91
452.801	5.82
453.158	5.73
453.515	5.7
453.872	5.69
454.229	5.82
454.586	5.65
454.943	5.76
455.3	5.55
455.657	5.81
456.014	5.68
456.371	5.95
456.727	5.86
457.084	5.8
457.441	5.63
457.797	5.77
458.154	5.66
458.51	5.65
458.867	5.99
459.223	5.99
459.58	5.74
459.936	5.57
460.292	5.83
460.648	5.92
461.005	5.84
461.361	5.81
461.717	5.76
462.073	5.76
462.429	5.78
462.785	5.71
463.141	5.82
463.496	5.91
463.852	6.02
464.208	5.92
464.564	5.88
464.919	5.99
465.275	6.08
465.631	6.07
465.986	6.05
466.342	5.83
466.697	5.88
467.052	6.26
467.408	6.18
467.763	5.88
468.118	5.93
468.473	5.98
468.829	6.03
469.184	5.93
469.539	6.18
469.894	6.01
470.249	5.95
470.603	6.09
470.958	5.99
471.313	6.22
471.668	6.16
472.023	6.07
472.377	5.89
472.732	6.05
473.086	6.18
473.441	6.24
473.795	6.18
474.15	6.16
474.504	6
474.859	6.14
475.213	5.85
475.567	6
475.921	6.29
476.275	6.13
476.63	6.13
476.984	6.24
477.338	6.11
477.692	6.18
478.045	6.15
478.399	6.1
478.753	6.15
479.107	6.09
479.461	6.1
479.814	6.32
480.168	6.02
480.521	6.15
480.875	6.24
481.228	6.28
481.582	6.28
481.935	6.29
482.289	6.35
482.642	6.46
482.995	6.23
483.348	6.22
483.701	6.48
484.055	6.14
484.408	6.16
484.761	6.13
485.114	6
485.466	5.89
485.819	5.87
486.172	5.9
486.525	6
486.878	6.06
487.23	6.04
487.583	6.1
487.936	6.16
488.288	6.02
488.641	6.08
488.993	6.1
489.345	6.07
489.698	6.05
490.05	6.08
490.402	6.12
490.754	6.16
491.107	6.24
491.459	6.22
491.811	6.38
492.163	6.27
492.515	6.39
492.866	6.2
493.218	6.18
493.57	6.19
493.922	6.05
494.274	6.33
494.625	6.42
494.977	6.48
495.328	6.5
495.68	6.35
496.031	6.58
496.383	6.5
496.734	6.59
497.086	6.44
497.437	6.55
497.788	6.52
498.139	6.58
498.49	6.55
498.842	6.5
499.193	6.61
499.544	6.62
499.894	6.68
500.245	6.59
500.596	6.61
500.947	6.65
501.298	6.69
501.648	6.76
501.999	6.58
502.35	6.67
502.7	6.66
503.051	6.65
503.401	6.72
503.752	6.96
504.102	6.83
504.452	6.76
504.803	6.81
505.153	6.76
505.503	6.75
505.853	6.78
506.203	6.82
506.553	6.83
506.903	6.87
507.253	6.85
507.603	6.82
507.953	6.79
508.303	6.86
508.652	6.89
509.002	6.96
509.352	6.92
509.701	6.8
510.051	6.88
510.4	6.78
510.75	6.83
511.099	6.78
511.449	6.89
511.798	6.84
512.147	6.78
512.496	6.82
512.846	7.05
513.195	6.94
513.544	6.94
513.893	6.98
514.242	6.89
514.591	6.91
514.939	7.01
515.288	6.99
515.637	6.83
515.986	6.99
516.334	7.06
516.683	7.09
517.032	7.15
517.38	7.1
517.729	7.01
518.077	7.1
518.426	7.18
518.774	7.02
519.122	7.07
519.47	7.11
519.819	6.92
520.167	7.05
520.515	6.97
520.863	7.07
521.211	7.1
521.559	7.18
521.907	7.12
522.255	7.17
522.602	7.35
522.95	7.31
523.298	7.19
523.645	7.4
523.993	7.26
524.341	7.36
524.688	7.38
525.036	7.51
525.383	7.46
525.73	7.31
526.078	7.27
526.425	7.22
526.772	7.27
527.119	7.26
527.466	7.34
527.814	7.15
528.161	7.29
528.508	7.4
528.854	7.26
529.201	7.38
529.548	7.3
529.895	7.2
530.242	7.07
530.588	7.08
530.935	7.16
531.282	7.25
531.628	7.31
531.975	7.32
532.321	7.33
532.667	7.36
533.014	7.43
533.36	7.48
533.706	7.45
534.052	7.53
534.399	7.53
534.745	7.47
535.091	7.36
535.437	7.49
535.783	7.44
536.129	7.56
536.474	7.53
536.82	7.61
537.166	7.79
537.512	7.71
537.857	7.78
538.203	7.7
538.549	7.71
538.894	7.71
539.239	7.82
539.585	7.7
539.93	7.86
540.276	7.88
540.621	7.9
540.966	7.9
541.311	8
541.656	7.93
542.001	7.92
542.346	7.89
542.691	7.7
543.036	7.67
543.381	7.61
543.726	7.71
544.071	7.8
544.415	7.82
544.76	7.88
545.105	7.91
545.449	8.03
545.794	8.02
546.138	7.92
546.483	8.15
546.827	8.15
547.171	8.1
547.516	8.09
547.86	8.18
548.204	8.21
548.548	8.28
548.892	8.26
549.236	8.24
549.58	8.37
549.924	8.3
550.268	8.38
550.612	8.29
550.956	8.47
551.3	8.67
551.643	8.48
551.987	8.57
552.33	8.42
552.674	8.62
553.017	8.79
553.361	8.86
553.704	8.67
554.048	8.65
554.391	8.65
554.734	8.68
555.077	8.61
555.42	8.58
555.764	8.61
556.107	8.63
556.45	8.62
556.793	8.7
557.135	8.75
557.478	8.7
557.821	8.66
558.164	8.81
558.507	8.9
558.849	8.88
559.192	8.89
559.534	8.97
559.877	8.96
560.219	9.16
560.562	8.82
560.904	8.97
561.246	9.01
561.589	9.13
561.931	9.04
562.273	8.88
562.615	9.12
562.957	9.12
563.299	9.25
563.641	9.19
563.983	9.38
564.325	9.19
564.667	9.22
565.008	9.05
565.35	9.37
565.692	9.36
566.033	9.37
566.375	9.11
566.716	9.26
567.058	9.37
567.399	9.54
567.741	9.48
568.082	9.36
568.423	9.27
568.764	9.65
569.105	9.35
569.447	9.7
569.788	9.41
570.129	9.47
570.47	9.6
570.811	9.66
571.151	9.79
571.492	9.84
571.833	9.56
572.174	9.63
572.514	9.83
572.855	9.88
573.195	9.64
573.536	9.59
573.876	9.66
574.217	9.84
574.557	9.75
574.898	9.75
575.238	9.92
575.578	9.67
575.918	9.81
576.258	9.92
576.598	9.92
576.938	9.87
577.278	9.97
577.618	10.05
577.958	10.02
578.298	10.33
578.638	10.01
578.977	10.1
579.317	10.32
579.657	10.09
579.996	10.21
580.336	10.11
580.675	10.27
581.014	10.34
581.354	10.21
581.693	10.32
582.032	10.36
582.372	10.42
582.711	10.41
583.05	10.61
583.389	10.57
583.728	10.55
584.067	10.87
584.406	10.6
584.745	10.6
585.083	10.58
585.422	10.64
585.761	10.74
586.1	10.7
586.438	10.78
586.777	10.7
587.115	10.69
587.454	11.02
587.792	10.62
588.13	11.09
588.469	10.99
588.807	10.98
589.145	10.85
589.483	10.93
589.821	11.03
590.159	10.97
590.497	11.1
590.835	11.01
591.173	10.87
591.511	11.26
591.849	11.02
592.187	10.96
592.524	10.96
592.862	11.15
593.2	11.07
593.537	11.25
593.875	11.27
594.212	11.38
594.55	11.34
594.887	11.71
595.224	11.26
595.561	11.75
595.899	11.28
596.236	11.41
596.573	11.35
596.91	11.49
597.247	11.32
597.584	11.45
597.921	11.69
598.258	11.6
598.594	11.37
598.931	11.36
599.268	11.32
599.604	11.31
599.941	11.43
600.277	11.55
600.614	11.53
600.95	11.91
601.287	11.69
601.623	11.73
601.959	11.69
602.296	11.93
602.632	11.66
602.968	11.83
603.304	11.61
603.64	11.97
603.976	11.68
604.312	11.88
604.648	11.92
604.984	11.91
605.319	12.07
605.655	12.06
605.991	12.04
606.326	11.79
606.662	12.08
606.998	11.85
607.333	12.02
607.668	12.09
608.004	12.11
608.339	12.39
608.674	12.35
609.01	12.14
609.345	12.22
609.68	12.05
610.015	12.14
610.35	12.2
610.685	12.47
611.02	12.55
611.355	12.23
611.689	12.44
612.024	12.27
612.359	12.55
612.694	12.32
613.028	12.65
613.363	12.34
613.697	12.67
614.032	12.67
614.366	12.6
614.7	12.65
615.035	12.52
615.369	12.61
615.703	12.48
616.037	12.72
616.371	12.56
616.705	12.76
617.039	12.8
617.373	12.95
617.707	12.76
618.041	12.83
618.375	12.72
618.709	12.77
619.042	12.62
619.376	13.03
619.71	12.79
620.043	12.7
620.377	12.98
620.71	13.03
621.043	13.1
621.377	12.83
621.71	13.21
622.043	13.44
622.376	13.43
622.709	13.25
623.043	13.21
623.376	13.32
623.709	13.22
624.041	13.15
624.374	13.17
624.707	13.42
625.04	13.08
625.373	13.12
625.705	13.57
626.038	13.51
626.37	13.71
626.703	13.64
627.035	13.46
627.368	13.52
627.7	13.7
628.032	13.16
628.365	13.75
628.697	13.83
629.029	13.54
629.361	13.64
629.693	13.62
630.025	13.62
630.357	14.06
630.689	13.64
631.021	14.02
631.353	14.36
631.684	13.55
632.016	13.66
632.348	14.07
632.679	13.78
633.011	14.11
633.342	13.95
633.674	14.26
634.005	14.02
634.336	14.24
634.668	13.84
634.999	14.12
635.33	14.09
635.661	14.22
635.992	14.24
636.323	14.05
636.654	14.57
636.985	14.41
637.316	14
637.647	14.35
637.977	14.26
638.308	14.38
638.639	14.81
638.969	14.48
639.3	14.93
639.63	15.07
639.961	14.58
640.291	13.86
640.622	14.73
640.952	15.17
641.282	14.96
641.612	14.95
641.943	14.65
642.273	14.36
642.603	14.74
642.933	14.22
643.263	14.86
643.592	15.17
643.922	15.42
644.252	14.83
644.582	14.39
644.911	15.05
645.241	15.05
645.571	15.55
645.9	14.76
646.23	14.68
646.559	15.46
646.888	14.83
647.218	14.75
647.547	14.93
647.876	14.9
648.205	15.27
648.534	15.53
648.863	15.25
649.192	15.71
649.521	16.18
649.85	14.87
650.179	15.62
650.508	15.68
650.837	15.32
651.165	15.17
651.494	15.46
651.822	15.4
652.151	15.41
652.479	15.84
652.808	15.42
653.136	16.06
653.465	15.56
653.793	15.66
654.121	15.53
654.449	15.45
654.777	15.7
655.105	15.71
655.433	15.84
655.761	15.88
656.089	15.81
656.417	16.5
656.745	16.12
657.073	15.65
657.4	16.35
657.728	15.75
658.056	15.98
658.383	15.05
658.711	15.5
659.038	15.85
659.365	15.98
659.693	15.56
660.02	15.56
660.347	15.97
660.674	16.36
661.001	16.04
661.329	15.85
661.656	15.83
661.982	16.07
662.309	16.33
662.636	16.1
662.963	16.67
663.29	16.45
663.616	16.75
663.943	16.46
664.27	16.38
664.596	15.93
664.923	16.72
665.249	16.1
665.576	16.58
665.902	16.93
666.228	16.73
666.554	15.99
666.881	15.96
667.207	16.47
667.533	16.42
667.859	16.41
668.185	16.94
668.511	16.29
668.837	16.39
669.162	17.2
669.488	16.42
669.814	16.54
670.139	16.49
670.465	15.83
670.791	16.85
671.116	16.86
671.442	16.62
671.767	16.99
672.092	17.46
672.418	17.07
672.743	16.89
673.068	16.22
673.393	16.71
673.718	16.85
674.043	17.5
674.368	16.33
674.693	17.22
675.018	16.27
675.343	16.94
675.667	17.34
675.992	16.4
676.317	16.94
676.641	17.77
676.966	17.18
677.29	17.19
677.615	17.69
677.939	17.16
678.264	17.28
678.588	17.17
678.912	17.48
679.236	17.1
679.56	17.54
679.885	17.68
680.209	17.52
680.532	17.74
680.856	17.38
681.18	17.51
681.504	17.08
681.828	17.51
682.152	17.46
682.475	17.6
682.799	17.29
683.122	17.22
683.446	17.63
683.769	18.11
684.093	17.16
684.416	17.52
