Data from 0410_chest_Reflection__3__185.txt Node

Date: Tue Dec 12 19:53:49 CST 2023
User: ToomeyLab
Spectrometer: FLMS14357
Trigger mode: 0
Integration Time (sec): 1.000000E-2
Scans to average: 100
Electric dark correction enabled: true
Nonlinearity correction enabled: false
Boxcar width: 0
XAxis mode: Wavelengths
Number of Pixels in Spectrum: 2048
>>>>>Begin Spectral Data<<<<<
189.047	340.35
189.435	340.35
189.823	340.35
190.211	198.53
190.599	47.94
190.987	51.02
191.375	84
191.763	97.77
192.151	145.4
192.538	401.79
192.926	69.38
193.314	-2.6
193.702	223.43
194.089	422.36
194.477	347.73
194.864	-200.8
195.252	422
195.639	21.43
196.027	238.58
196.414	-1115.69
196.801	229.23
197.189	152.94
197.576	35.68
197.963	-4.46
198.351	-27.14
198.738	27.65
199.125	-78.22
199.512	-38.37
199.899	-52.35
200.286	31.44
200.673	-141.46
201.06	-42.78
201.447	-198.8
201.833	-32.4
202.22	-18.23
202.607	-150.21
202.994	-14.19
203.38	35.13
203.767	-73.66
204.154	9.13
204.54	26.91
204.927	-24.68
205.313	13.14
205.699	1.03
206.086	20.4
206.472	34.92
206.858	-40.92
207.245	-35.62
207.631	-3.44
208.017	-3.63
208.403	-17.29
208.789	27.45
209.175	-128.85
209.561	21.32
209.947	-34.16
210.333	-21.4
210.719	-68.95
211.105	-74.07
211.491	-3.18
211.876	-2.14
212.262	-55.93
212.648	-114.82
213.034	-90.42
213.419	-31.35
213.805	-10.01
214.19	2.22
214.576	23.52
214.961	5.07
215.346	-24.03
215.732	8.66
216.117	-38.03
216.502	-47.72
216.888	-8.02
217.273	-37.74
217.658	-129.68
218.043	-4.29
218.428	-1.91
218.813	-7.47
219.198	-72.37
219.583	6.29
219.968	4.72
220.353	-6.06
220.738	-23.21
221.122	-23.05
221.507	-1.32
221.892	-25.34
222.276	5.46
222.661	-3.88
223.046	-10.22
223.43	-6.47
223.815	-26.79
224.199	-4.92
224.583	-9.81
224.968	0.17
225.352	-7.01
225.736	-6.69
226.121	-15.12
226.505	-10.96
226.889	-14.04
227.273	-2.28
227.657	4.76
228.041	6.47
228.425	-3.16
228.809	1.25
229.193	2.66
229.577	3.7
229.961	1.09
230.344	1.96
230.728	3.41
231.112	1.95
231.495	1.63
231.879	2.78
232.263	0.26
232.646	0.54
233.03	0.94
233.413	-0.76
233.797	-0.11
234.18	-1.72
234.563	-2.21
234.946	-0.03
235.33	0.95
235.713	2.24
236.096	1.72
236.479	1.46
236.862	1.23
237.245	0.6
237.628	0.78
238.011	0.21
238.394	-0.74
238.777	1.52
239.16	0.18
239.543	-0.03
239.925	2.53
240.308	1.08
240.691	0.34
241.073	3.69
241.456	1.38
241.838	1.64
242.221	2.55
242.603	2.32
242.986	1.04
243.368	2.36
243.75	1.3
244.133	1.61
244.515	1.99
244.897	2.4
245.279	3.14
245.661	1.51
246.043	1.7
246.425	3.28
246.807	1.15
247.189	2.26
247.571	2.35
247.953	2.15
248.335	1.82
248.717	1.68
249.098	1.76
249.48	1.71
249.862	1.61
250.243	1.34
250.625	2.53
251.006	2.15
251.388	2.42
251.769	1.39
252.151	0.64
252.532	2.14
252.913	1.83
253.295	2.39
253.676	1.68
254.057	1.39
254.438	2.18
254.819	0.56
255.2	0.04
255.581	0.71
255.962	-0.45
256.343	1.34
256.724	0.22
257.105	1.65
257.486	0.51
257.867	2.28
258.247	0.89
258.628	2.09
259.009	0.65
259.389	1.93
259.77	2.15
260.15	1.5
260.531	2.02
260.911	2.37
261.292	1.36
261.672	1.12
262.052	1.69
262.432	1.8
262.813	1.82
263.193	1.92
263.573	1.93
263.953	3.08
264.333	2.5
264.713	1.88
265.093	1.31
265.473	1.89
265.853	0.4
266.233	0.62
266.612	1.12
266.992	0.45
267.372	2.02
267.752	2.75
268.131	0.63
268.511	0.87
268.89	0.64
269.27	0.65
269.649	1.77
270.029	0.99
270.408	2.12
270.787	1.54
271.167	1.8
271.546	0.98
271.925	1.66
272.304	2.18
272.683	0.89
273.062	1.67
273.441	1.89
273.82	1.29
274.199	1.57
274.578	1.69
274.957	1.39
275.336	2.05
275.715	1.58
276.093	0.83
276.472	1.08
276.851	2.03
277.229	1.29
277.608	0.98
277.986	0.84
278.365	1.51
278.743	1.65
279.122	1.52
279.5	0.73
279.878	0.67
280.257	1.61
280.635	1.38
281.013	1.62
281.391	1.63
281.769	1.22
282.147	1.09
282.525	0.54
282.903	1.58
283.281	1.33
283.659	1.81
284.037	1.41
284.415	1.45
284.792	1.65
285.17	1.05
285.548	1.4
285.925	1.44
286.303	1.5
286.68	1.75
287.058	1.59
287.435	1.77
287.813	1.17
288.19	1.2
288.567	1.49
288.945	1.23
289.322	0.96
289.699	1.1
290.076	1.55
290.453	1.74
290.83	0.99
291.207	2.04
291.584	1.14
291.961	1.36
292.338	1.62
292.715	1.46
293.092	1.27
293.469	1.63
293.845	1.48
294.222	1.77
294.599	1.53
294.975	1.05
295.352	1.98
295.728	1.84
296.105	1.72
296.481	2.08
296.858	1.69
297.234	1.45
297.61	1.38
297.986	1.96
298.363	1.94
298.739	1.76
299.115	1.48
299.491	1.25
299.867	1.59
300.243	1.37
300.619	1.77
300.995	1.58
301.371	1.62
301.746	1.87
302.122	2.53
302.498	1.47
302.874	1.11
303.249	1.97
303.625	1.64
304	1.62
304.376	1.76
304.751	1.77
305.127	1.44
305.502	1.76
305.878	1.34
306.253	1.44
306.628	1.22
307.003	0.77
307.378	1.37
307.754	1.77
308.129	1.73
308.504	2.34
308.879	1.48
309.254	2.11
309.629	0.93
310.003	1.7
310.378	1.64
310.753	1.89
311.128	1.41
311.502	1.58
311.877	0.85
312.252	1.18
312.626	1.25
313.001	1.56
313.375	0.92
313.75	1.9
314.124	1.95
314.498	1.45
314.873	1.68
315.247	1.84
315.621	0.79
315.995	1.85
316.369	1.57
316.743	1.14
317.117	1.17
317.491	1.69
317.865	1.71
318.239	1.96
318.613	1.55
318.987	1.72
319.361	0.99
319.734	1.37
320.108	1.55
320.482	1.3
320.855	1.44
321.229	1.65
321.602	2.15
321.976	2.27
322.349	2.58
322.723	1.53
323.096	1.91
323.469	1.84
323.843	2.05
324.216	1.66
324.589	1.29
324.962	1.72
325.335	1.78
325.708	1.78
326.081	2.13
326.454	1.14
326.827	2.35
327.2	2.24
327.573	1.08
327.945	1.94
328.318	2.16
328.691	0.98
329.063	2.36
329.436	1.49
329.809	1.66
330.181	0.97
330.553	1.39
330.926	2.2
331.298	1.6
331.671	2.39
332.043	1.79
332.415	2.27
332.787	1.79
333.159	1.02
333.532	1.71
333.904	1.76
334.276	2.1
334.648	1.48
335.02	1.05
335.391	1.82
335.763	1.57
336.135	1.96
336.507	2.02
336.879	1.52
337.25	1.45
337.622	1.87
337.993	1.43
338.365	1.12
338.736	1.79
339.108	1.29
339.479	1.47
339.851	0.9
340.222	1.58
340.593	1.76
340.964	1.8
341.336	1.68
341.707	1.58
342.078	1.38
342.449	1.83
342.82	1.58
343.191	1.62
343.562	1.61
343.933	2.37
344.303	2.25
344.674	1.83
345.045	1.61
345.416	2.04
345.786	1.62
346.157	2.01
346.527	1.99
346.898	1.33
347.268	1.87
347.639	1.54
348.009	1.54
348.38	1.36
348.75	2.08
349.12	1.58
349.49	1.72
349.861	2.19
350.231	1.55
350.601	1.52
350.971	1.85
351.341	1.91
351.711	2.27
352.081	1.66
352.45	1.6
352.82	1.81
353.19	1.98
353.56	1.29
353.929	1.22
354.299	1.43
354.669	1.65
355.038	1.27
355.408	1.8
355.777	1.94
356.147	1.3
356.516	1.86
356.885	1.53
357.254	2.14
357.624	1.12
357.993	1.79
358.362	1.85
358.731	1.86
359.1	1.49
359.469	1.47
359.838	1.37
360.207	1.82
360.576	1.65
360.945	1.48
361.314	1.91
361.682	1.97
362.051	2.05
362.42	1.78
362.788	1.78
363.157	2.19
363.525	2.02
363.894	1.71
364.262	2.08
364.631	1.31
364.999	1.99
365.367	1.82
365.735	1.75
366.104	1.94
366.472	1.43
366.84	1.56
367.208	1.9
367.576	1.73
367.944	2.02
368.312	1.66
368.68	1.81
369.048	2.01
369.416	2.04
369.783	2.01
370.151	1.77
370.519	1.54
370.886	1.98
371.254	1.72
371.621	1.94
371.989	1.43
372.356	1.73
372.724	1.55
373.091	1.96
373.458	1.75
373.826	1.79
374.193	1.72
374.56	1.81
374.927	1.92
375.294	1.77
375.661	2.14
376.028	1.89
376.395	1.79
376.762	2.18
377.129	1.52
377.496	2.14
377.863	2.01
378.229	1.95
378.596	1.65
378.963	2.07
379.329	1.97
379.696	1.82
380.062	2.07
380.429	1.9
380.795	2.07
381.161	1.98
381.528	2.09
381.894	2.21
382.26	1.55
382.626	1.99
382.993	2.13
383.359	1.84
383.725	1.67
384.091	2.05
384.457	1.8
384.823	2.1
385.188	1.76
385.554	2.1
385.92	1.8
386.286	2.07
386.651	2.04
387.017	2.17
387.383	2.15
387.748	1.92
388.114	1.96
388.479	2.04
388.845	1.88
389.21	2.01
389.575	1.8
389.94	2.23
390.306	2.02
390.671	1.85
391.036	2.36
391.401	1.82
391.766	2.01
392.131	2.45
392.496	1.93
392.861	1.73
393.226	2.13
393.591	2.12
393.956	1.93
394.32	2.14
394.685	1.92
395.05	1.77
395.414	2.23
395.779	1.94
396.143	2.03
396.508	1.9
396.872	1.91
397.236	2.21
397.601	1.87
397.965	2.08
398.329	2.23
398.694	1.96
399.058	2.09
399.422	2.01
399.786	1.9
400.15	2.1
400.514	2.18
400.878	2.11
401.242	2.16
401.605	2.1
401.969	2.05
402.333	2.06
402.697	1.82
403.06	1.95
403.424	2.22
403.787	1.88
404.151	2.1
404.514	1.71
404.878	2.22
405.241	2.24
405.604	1.89
405.968	1.92
406.331	1.98
406.694	2.31
407.057	2.08
407.42	2.16
407.783	1.91
408.146	2.13
408.509	2.07
408.872	2.18
409.235	1.94
409.598	2.06
409.961	2.06
410.323	2.16
410.686	2.16
411.049	2.25
411.411	2.06
411.774	2.05
412.136	2.26
412.499	2.19
412.861	2.14
413.223	2.5
413.586	2.08
413.948	2.23
414.31	2.22
414.672	2.05
415.035	2.05
415.397	2.13
415.759	2
416.121	2.27
416.483	2.27
416.845	2.14
417.206	2.25
417.568	2.17
417.93	2.15
418.292	1.85
418.653	2.15
419.015	2.15
419.377	2.1
419.738	2.22
420.1	2.11
420.461	2.23
420.822	2.22
421.184	2.06
421.545	2.38
421.906	2.19
422.267	2.14
422.629	2.12
422.99	2.16
423.351	2.24
423.712	2.23
424.073	2.12
424.434	2.11
424.795	2.23
425.155	1.98
425.516	2.02
425.877	2.19
426.238	2.15
426.598	2.08
426.959	2.15
427.32	2.14
427.68	2.09
428.041	2.31
428.401	2.2
428.761	2.25
429.122	2.21
429.482	2.48
429.842	2.33
430.202	2.29
430.563	2.2
430.923	2.19
431.283	2.13
431.643	2.42
432.003	2.12
432.363	2.28
432.722	2.28
433.082	2.28
433.442	2.24
433.802	2.45
434.161	2.24
434.521	2.21
434.881	2.32
435.24	2.32
435.6	2.18
435.959	2.27
436.319	2.2
436.678	2.31
437.037	2.2
437.396	2.08
437.756	2.13
438.115	2.26
438.474	2.06
438.833	2.29
439.192	2.29
439.551	2.2
439.91	2.07
440.269	2.22
440.628	2.18
440.987	2.2
441.345	2.4
441.704	2.21
442.063	2.22
442.421	2.32
442.78	2.22
443.138	2.23
443.497	2.34
443.855	2.23
444.214	2.41
444.572	2.3
444.93	2.3
445.288	2.14
445.647	2.48
446.005	2.24
446.363	2.15
446.721	2.26
447.079	2.3
447.437	2.19
447.795	2.3
448.153	2.31
448.51	2.4
448.868	2.27
449.226	2.4
449.584	2.32
449.941	2.23
450.299	2.37
450.656	2.37
451.014	2.39
451.371	2.55
451.729	2.37
452.086	2.29
452.443	2.5
452.801	2.47
453.158	2.28
453.515	2.29
453.872	2.26
454.229	2.38
454.586	2.21
454.943	2.26
455.3	2.29
455.657	2.36
456.014	2.48
456.371	2.45
456.727	2.45
457.084	2.36
457.441	2.25
457.797	2.48
458.154	2.48
458.51	2.23
458.867	2.62
459.223	2.38
459.58	2.46
459.936	2.36
460.292	2.26
460.648	2.46
461.005	2.25
461.361	2.43
461.717	2.44
462.073	2.31
462.429	2.35
462.785	2.4
463.141	2.38
463.496	2.36
463.852	2.76
464.208	2.44
464.564	2.54
464.919	2.6
465.275	2.59
465.631	2.58
465.986	2.5
466.342	2.56
466.697	2.37
467.052	2.66
467.408	2.44
467.763	2.56
468.118	2.46
468.473	2.55
468.829	2.59
469.184	2.32
469.539	2.69
469.894	2.51
470.249	2.5
470.603	2.5
470.958	2.45
471.313	2.54
471.668	2.63
472.023	2.61
472.377	2.51
472.732	2.5
473.086	2.73
473.441	2.6
473.795	2.56
474.15	2.49
474.504	2.44
474.859	2.49
475.213	2.44
475.567	2.63
475.921	2.51
476.275	2.4
476.63	2.47
476.984	2.57
477.338	2.55
477.692	2.54
478.045	2.61
478.399	2.45
478.753	2.57
479.107	2.63
479.461	2.51
479.814	2.45
480.168	2.32
480.521	2.38
480.875	2.53
481.228	2.61
481.582	2.57
481.935	2.65
482.289	2.61
482.642	2.69
482.995	2.54
483.348	2.4
483.701	2.69
484.055	2.49
484.408	2.58
484.761	2.57
485.114	2.49
485.466	2.44
485.819	2.43
486.172	2.42
486.525	2.45
486.878	2.51
487.23	2.48
487.583	2.51
487.936	2.57
488.288	2.44
488.641	2.51
488.993	2.48
489.345	2.53
489.698	2.5
490.05	2.53
490.402	2.55
490.754	2.54
491.107	2.55
491.459	2.62
491.811	2.64
492.163	2.51
492.515	2.62
492.866	2.55
493.218	2.53
493.57	2.53
493.922	2.53
494.274	2.6
494.625	2.64
494.977	2.67
495.328	2.75
495.68	2.61
496.031	2.76
496.383	2.77
496.734	2.74
497.086	2.68
497.437	2.7
497.788	2.63
498.139	2.58
498.49	2.83
498.842	2.67
499.193	2.73
499.544	2.76
499.894	2.73
500.245	2.83
500.596	2.75
500.947	2.7
501.298	2.77
501.648	2.81
501.999	2.73
502.35	2.7
502.7	2.88
503.051	2.64
503.401	2.87
503.752	2.99
504.102	2.58
504.452	2.74
504.803	2.88
505.153	2.9
505.503	2.89
505.853	3.02
506.203	2.79
506.553	2.73
506.903	2.87
507.253	2.83
507.603	2.86
507.953	2.72
508.303	2.81
508.652	2.73
509.002	2.97
509.352	2.85
509.701	3.05
510.051	2.93
510.4	2.86
510.75	2.87
511.099	2.85
511.449	2.96
511.798	2.86
512.147	2.79
512.496	2.92
512.846	2.9
513.195	2.88
513.544	3.03
513.893	2.99
514.242	2.82
514.591	2.97
514.939	2.98
515.288	2.87
515.637	2.9
515.986	2.97
516.334	3.04
516.683	2.93
517.032	2.97
517.38	2.89
517.729	2.94
518.077	2.92
518.426	3.09
518.774	2.94
519.122	3.04
519.47	2.95
519.819	2.92
520.167	2.92
520.515	2.89
520.863	3.04
521.211	2.96
521.559	3
521.907	2.94
522.255	3.12
522.602	3.1
522.95	3.08
523.298	2.91
523.645	3.16
523.993	3.09
524.341	3.11
524.688	3.02
525.036	3.2
525.383	3.06
525.73	2.99
526.078	3.08
526.425	3.02
526.772	3.05
527.119	3.04
527.466	3.05
527.814	2.99
528.161	3.09
528.508	3.12
528.854	3.11
529.201	3.13
529.548	3.15
529.895	3.13
530.242	3.04
530.588	3.01
530.935	3.03
531.282	3.07
531.628	3.14
531.975	3.15
532.321	3.14
532.667	3.12
533.014	3.07
533.36	3.21
533.706	3.14
534.052	3.13
534.399	3.23
534.745	3.17
535.091	3.14
535.437	3.22
535.783	3.19
536.129	3.28
536.474	3.17
536.82	3.27
537.166	3.36
537.512	3.28
537.857	3.49
538.203	3.36
538.549	3.35
538.894	3.36
539.239	3.29
539.585	3.3
539.93	3.41
540.276	3.28
540.621	3.4
540.966	3.37
541.311	3.38
541.656	3.4
542.001	3.44
542.346	3.49
542.691	3.39
543.036	3.31
543.381	3.31
543.726	3.33
544.071	3.41
544.415	3.36
544.76	3.49
545.105	3.52
545.449	3.5
545.794	3.65
546.138	3.49
546.483	3.52
546.827	3.61
547.171	3.57
547.516	3.52
547.86	3.62
548.204	3.57
548.548	3.62
548.892	3.66
549.236	3.72
549.58	3.7
549.924	3.65
550.268	3.69
550.612	3.72
550.956	3.84
551.3	4.01
551.643	3.8
551.987	3.91
552.33	3.78
552.674	3.78
553.017	4
553.361	3.98
553.704	3.89
554.048	3.75
554.391	3.93
554.734	4.01
555.077	4.07
555.42	3.74
555.764	4.06
556.107	4
556.45	3.9
556.793	3.87
557.135	3.82
557.478	4.03
557.821	4.07
558.164	4.09
558.507	4.12
558.849	4.07
559.192	4.13
559.534	4.2
559.877	4.13
560.219	4.16
560.562	4.08
560.904	4.17
561.246	4.33
561.589	4.24
561.931	4.01
562.273	4.12
562.615	4.1
562.957	4.31
563.299	4.36
563.641	4.3
563.983	4.26
564.325	4.3
564.667	4.26
565.008	4.41
565.35	4.29
565.692	4.32
566.033	4.43
566.375	4.27
566.716	4.19
567.058	4.51
567.399	4.55
567.741	4.39
568.082	4.19
568.423	4.46
568.764	4.47
569.105	4.4
569.447	4.73
569.788	4.54
570.129	4.14
570.47	4.65
570.811	4.46
571.151	4.52
571.492	4.51
571.833	4.62
572.174	4.5
572.514	4.64
572.855	4.74
573.195	4.54
573.536	4.49
573.876	4.65
574.217	4.62
574.557	4.72
574.898	4.84
575.238	4.75
575.578	4.69
575.918	4.75
576.258	4.7
576.598	4.76
576.938	4.95
577.278	4.8
577.618	4.91
577.958	4.81
578.298	4.95
578.638	4.89
578.977	4.93
579.317	5.07
579.657	4.99
579.996	5.16
580.336	5.07
580.675	5.03
581.014	5.13
581.354	4.97
581.693	5.09
582.032	4.81
582.372	5.32
582.711	5.22
583.05	5.39
583.389	5.18
583.728	5.31
584.067	5.3
584.406	5.36
584.745	5.3
585.083	5.12
585.422	5.33
585.761	5.57
586.1	5.52
586.438	5.67
586.777	5.51
587.115	5.51
587.454	5.65
587.792	5.23
588.13	5.84
588.469	5.59
588.807	5.22
589.145	5.45
589.483	5.48
589.821	5.85
590.159	5.73
590.497	5.68
590.835	5.65
591.173	5.66
591.511	5.71
591.849	5.61
592.187	5.87
592.524	5.65
592.862	5.64
593.2	5.68
593.537	5.6
593.875	5.84
594.212	5.99
594.55	6.01
594.887	5.96
595.224	6
595.561	5.91
595.899	5.68
596.236	6.08
596.573	6.02
596.91	5.99
597.247	6.17
597.584	6.16
597.921	6.03
598.258	6.2
598.594	6.28
598.931	6.08
599.268	6.01
599.604	5.98
599.941	6.1
600.277	6.15
600.614	6.41
600.95	6.4
601.287	6.41
601.623	6.48
601.959	6.23
602.296	6.55
602.632	6.23
602.968	6.51
603.304	6.46
603.64	6.53
603.976	6.13
604.312	6.48
604.648	6.69
604.984	6.52
605.319	6.46
605.655	6.42
605.991	6.53
606.326	6.42
606.662	6.72
606.998	6.67
607.333	6.76
607.668	6.63
608.004	6.71
608.339	6.85
608.674	6.75
609.01	6.84
609.345	7.01
609.68	7.07
610.015	6.84
610.35	7.34
610.685	6.69
611.02	6.89
611.355	6.89
611.689	6.87
612.024	6.92
612.359	7.12
612.694	6.96
613.028	7.17
613.363	6.82
613.697	7.07
614.032	7.38
614.366	7.25
614.7	7.12
615.035	7.52
615.369	7.3
615.703	7.34
616.037	7.13
616.371	7.23
616.705	7.36
617.039	7.14
617.373	7.16
617.707	7.52
618.041	7.59
618.375	7.14
618.709	7.26
619.042	7.29
619.376	7.52
619.71	7.19
620.043	7.72
620.377	7.64
620.71	7.48
621.043	7.97
621.377	7.72
621.71	7.94
622.043	7.63
622.376	8.03
622.709	7.91
623.043	7.52
623.376	8.46
623.709	8.18
624.041	8.17
624.374	7.78
624.707	7.45
625.04	7.78
625.373	8.24
625.705	8.48
626.038	8.36
626.37	8.23
626.703	8.25
627.035	8.28
627.368	7.96
627.7	8.3
628.032	7.96
628.365	8.21
628.697	8.15
629.029	8.01
629.361	8.09
629.693	8.08
630.025	8.25
630.357	8.38
630.689	8.21
631.021	8.56
631.353	8.52
631.684	8.3
632.016	8.57
632.348	8.34
632.679	8.28
633.011	9.52
633.342	8.66
633.674	8.72
634.005	9.27
634.336	8.54
634.668	8.84
634.999	9.24
635.33	8.86
635.661	8.95
635.992	8.84
636.323	8.25
636.654	9.07
636.985	8.95
637.316	8.85
637.647	8.77
637.977	9.09
638.308	9.48
638.639	9.18
638.969	8.97
639.3	9.14
639.63	9.24
639.961	9.39
640.291	9.05
640.622	9.4
640.952	9.85
641.282	9.35
641.612	9.33
641.943	9.51
642.273	9.53
642.603	9.98
642.933	9.04
643.263	9.6
643.592	9.63
643.922	9.51
644.252	9.99
644.582	8.87
644.911	9.7
645.241	9.35
645.571	10.05
645.9	9.06
646.23	9.86
646.559	9.76
646.888	9.33
647.218	10.11
647.547	9.83
647.876	10.23
648.205	9.82
648.534	9.99
648.863	10.1
649.192	10.81
649.521	10.25
649.85	9.8
650.179	10.53
650.508	10.55
650.837	10.28
651.165	10.04
651.494	10.19
651.822	10.03
652.151	10.22
652.479	10.49
652.808	10.11
653.136	10.35
653.465	10.48
653.793	10.36
654.121	10.67
654.449	10.33
654.777	10.72
655.105	10.77
655.433	10.66
655.761	10.88
656.089	10.91
656.417	10.87
656.745	10.63
657.073	10.08
657.4	10.63
657.728	10.15
658.056	10.61
658.383	10.36
658.711	10.75
659.038	10.69
659.365	10.82
659.693	10.89
660.02	10.85
660.347	11.04
660.674	11.02
661.001	10.73
661.329	11.27
661.656	10.86
661.982	10.8
662.309	11.2
662.636	10.89
662.963	11.62
663.29	11.24
663.616	11.16
663.943	11.59
664.27	11.51
664.596	11.72
664.923	11.97
665.249	10.61
665.576	11.04
665.902	11.56
666.228	11.1
666.554	11.35
666.881	10.7
667.207	11.77
667.533	11.41
667.859	11.57
668.185	11.28
668.511	11.72
668.837	11.88
669.162	12.7
669.488	11.61
669.814	11.79
670.139	11.91
670.465	10.94
670.791	11.59
671.116	11.86
671.442	11.91
671.767	11.94
672.092	12.7
672.418	12.28
672.743	12.13
673.068	11.99
673.393	12.04
673.718	11.91
674.043	12.43
674.368	11.98
674.693	12.18
675.018	12.22
675.343	12.28
675.667	12.47
675.992	12.41
676.317	11.89
676.641	12.11
676.966	12.45
677.29	12.21
677.615	12.23
677.939	12.55
678.264	12.6
678.588	13.19
678.912	13.28
679.236	12.6
679.56	12.79
679.885	12.93
680.209	13.31
680.532	12.75
680.856	12.75
681.18	12.76
681.504	12.88
681.828	12.48
682.152	12.73
682.475	13.27
682.799	13.27
683.122	13.28
683.446	13.21
683.769	13.5
684.093	13.22
684.416	12.89
684.739	12.79
685.062	13.71
685.386	13.33
685.709	13.35
686.032	13.31
686.355	12.88
686.678	13.51
687.001	13.75
687.324	14.22
687.646	14.29
687.969	13.64
688.292	12.97
