Data from 0410_forehead_Reflection__3__195.txt Node

Date: Tue Dec 12 19:57:11 CST 2023
User: ToomeyLab
Spectrometer: FLMS14357
Trigger mode: 0
Integration Time (sec): 1.000000E-2
Scans to average: 100
Electric dark correction enabled: true
Nonlinearity correction enabled: false
Boxcar width: 0
XAxis mode: Wavelengths
Number of Pixels in Spectrum: 2048
>>>>>Begin Spectral Data<<<<<
189.047	167.03
189.435	167.03
189.823	167.03
190.211	406.53
190.599	-25.53
190.987	64.21
191.375	-88.34
191.763	536.36
192.151	130.05
192.538	33.79
192.926	70.26
193.314	36.71
193.702	383.76
194.089	239.59
194.477	356.19
194.864	-62.5
195.252	380.57
195.639	-60.04
196.027	117.4
196.414	-760.5
196.801	35.08
197.189	-39.26
197.576	100
197.963	72.29
198.351	109.82
198.738	26.66
199.125	157.75
199.512	-15.39
199.899	15.56
200.286	38.7
200.673	-1.19
201.06	2.62
201.447	-86.31
201.833	20.63
202.22	4.67
202.607	-53.36
202.994	37.38
203.38	36.4
203.767	-2.85
204.154	44.08
204.54	46.89
204.927	44.84
205.313	13.45
205.699	-10.44
206.086	-22.28
206.472	45.69
206.858	25.85
207.245	59.54
207.631	12.12
208.017	39.6
208.403	2.84
208.789	56.26
209.175	31.16
209.561	41.68
209.947	-13.08
210.333	53.67
210.719	-18.24
211.105	13.75
211.491	32.93
211.876	25.29
212.262	67.18
212.648	-59.76
213.034	-36.2
213.419	6.95
213.805	29.84
214.19	16.25
214.576	52.56
214.961	3.39
215.346	55.14
215.732	52.57
216.117	19.43
216.502	22.02
216.888	4.79
217.273	24.35
217.658	-30.7
218.043	-1.66
218.428	8.25
218.813	10.47
219.198	-18.82
219.583	21.79
219.968	26
220.353	-1.49
220.738	22.62
221.122	7.68
221.507	-23.84
221.892	7.2
222.276	14.25
222.661	13.43
223.046	-2.51
223.43	0.9
223.815	9.71
224.199	18.41
224.583	-1
224.968	4.99
225.352	-9.64
225.736	12.82
226.121	9.39
226.505	-2.97
226.889	6.55
227.273	7.06
227.657	13.76
228.041	10.26
228.425	2.21
228.809	5
229.193	1.42
229.577	7.98
229.961	4
230.344	4.87
230.728	5.41
231.112	5.03
231.495	5.53
231.879	5.01
232.263	5.68
232.646	3.93
233.03	4.07
233.413	3.75
233.797	3.42
234.18	1.63
234.563	3.74
234.946	5.05
235.33	4.38
235.713	6
236.096	4.69
236.479	4.53
236.862	5.09
237.245	4.6
237.628	6.9
238.011	3.94
238.394	1.69
238.777	5.62
239.16	4.28
239.543	4.1
239.925	3.71
240.308	3.39
240.691	3.99
241.073	6.27
241.456	6.57
241.838	3.57
242.221	3.61
242.603	5.2
242.986	4.26
243.368	4.55
243.75	3.97
244.133	3.82
244.515	4.49
244.897	5.2
245.279	4.62
245.661	3.41
246.043	3.89
246.425	5.59
246.807	4.59
247.189	4.46
247.571	4.27
247.953	3.82
248.335	4.32
248.717	4.2
249.098	4.08
249.48	4.07
249.862	4.06
250.243	4.18
250.625	4.53
251.006	4.26
251.388	3.87
251.769	5.21
252.151	4.03
252.532	5.7
252.913	4.65
253.295	5.64
253.676	3.48
254.057	3.78
254.438	5.14
254.819	3.97
255.2	3.73
255.581	5.62
255.962	4.56
256.343	4.65
256.724	4.97
257.105	5
257.486	5.17
257.867	3.09
258.247	3.39
258.628	5.49
259.009	3.66
259.389	3.85
259.77	4.8
260.15	4.73
260.531	5.54
260.911	4.45
261.292	4.07
261.672	3.88
262.052	3.89
262.432	3.91
262.813	4.15
263.193	4.41
263.573	4.34
263.953	5.64
264.333	4.42
264.713	3.88
265.093	3.97
265.473	4.96
265.853	3.43
266.233	3.91
266.612	3.35
266.992	4.75
267.372	3.81
267.752	4.57
268.131	3.39
268.511	3.63
268.89	2.81
269.27	3.1
269.649	3.75
270.029	4.03
270.408	3.96
270.787	3.47
271.167	4.43
271.546	4.48
271.925	4.45
272.304	4.61
272.683	3.24
273.062	4.12
273.441	3.98
273.82	3.65
274.199	3.77
274.578	3.89
274.957	3.9
275.336	3.53
275.715	3.85
276.093	3.22
276.472	4.05
276.851	4.67
277.229	3.57
277.608	3.84
277.986	3.71
278.365	3.91
278.743	4.03
279.122	4.48
279.5	3.68
279.878	3.58
280.257	3.73
280.635	3.44
281.013	3.76
281.391	4.32
281.769	4.02
282.147	4.01
282.525	3.43
282.903	3.67
283.281	3.84
283.659	3.74
284.037	3.73
284.415	4.02
284.792	4.74
285.17	4.14
285.548	3.7
285.925	3.73
286.303	4.03
286.68	3.69
287.058	4.13
287.435	3.78
287.813	3.6
288.19	3.95
288.567	4.02
288.945	4.24
289.322	3.66
289.699	4.06
290.076	4.12
290.453	4.2
290.83	4.29
291.207	4.81
291.584	4.21
291.961	4.32
292.338	4.37
292.715	4.11
293.092	3.92
293.469	4.04
293.845	3.94
294.222	4.66
294.599	4.35
294.975	4.1
295.352	4.26
295.728	4.16
296.105	5.2
296.481	4.58
296.858	4.89
297.234	4.63
297.61	4.35
297.986	4.69
298.363	4.54
298.739	4.37
299.115	4.39
299.491	4.52
299.867	4.42
300.243	4.14
300.619	5
300.995	4.9
301.371	5.28
301.746	4.92
302.122	5.95
302.498	5.02
302.874	5.08
303.249	5.81
303.625	5.3
304	5.74
304.376	5.59
304.751	5.69
305.127	5.09
305.502	5.56
305.878	5.57
306.253	5.07
306.628	5.67
307.003	5.6
307.378	5.64
307.754	5.73
308.129	5.84
308.504	6.98
308.879	4.65
309.254	5.88
309.629	5.6
310.003	5.74
310.378	6.31
310.753	6.45
311.128	6.63
311.502	6.1
311.877	6.34
312.252	6.04
312.626	6.12
313.001	6.46
313.375	6.02
313.75	6.56
314.124	6.9
314.498	6.67
314.873	6.92
315.247	6.92
315.621	6.89
315.995	7.67
316.369	7.06
316.743	7.29
317.117	7.08
317.491	6.9
317.865	7.35
318.239	6.83
318.613	7.9
318.987	7.54
319.361	6.91
319.734	7.72
320.108	7.27
320.482	7.68
320.855	7.7
321.229	8.34
321.602	7.6
321.976	7.97
322.349	8.27
322.723	8.14
323.096	8.45
323.469	8.17
323.843	9.41
324.216	9
324.589	8.32
324.962	8.85
325.335	8.71
325.708	8.73
326.081	9.18
326.454	8.39
326.827	9.17
327.2	8.76
327.573	8.22
327.945	9.05
328.318	8.91
328.691	8.63
329.063	9.5
329.436	8.83
329.809	9.05
330.181	8.5
330.553	8.37
330.926	9
331.298	9.36
331.671	9.78
332.043	9.4
332.415	9.66
332.787	9.51
333.159	9.89
333.532	9.8
333.904	9.78
334.276	10.46
334.648	9.59
335.02	9.73
335.391	9.68
335.763	9.94
336.135	10.25
336.507	10.61
336.879	10.12
337.25	10.33
337.622	9.61
337.993	9.44
338.365	10.1
338.736	10.04
339.108	9.99
339.479	10.47
339.851	10.09
340.222	9.72
340.593	10.21
340.964	10.4
341.336	11.02
341.707	10.34
342.078	10.06
342.449	10.32
342.82	11.26
343.191	10.64
343.562	10.71
343.933	11.33
344.303	11.33
344.674	11.86
345.045	11.58
345.416	11.48
345.786	11
346.157	11.28
346.527	11.31
346.898	11.63
347.268	11.4
347.639	11.11
348.009	11.17
348.38	11.53
348.75	11.91
349.12	11.93
349.49	11.65
349.861	11.92
350.231	11.95
350.601	12.02
350.971	12.02
351.341	12.08
351.711	12.26
352.081	11.95
352.45	12.42
352.82	12.39
353.19	12.41
353.56	12.01
353.929	12.26
354.299	11.72
354.669	12.33
355.038	12.14
355.408	12.23
355.777	12.61
356.147	12.36
356.516	12.72
356.885	12.6
357.254	13
357.624	12.72
357.993	12.91
358.362	12.52
358.731	13.15
359.1	12.86
359.469	12.76
359.838	12.99
360.207	13.01
360.576	13.11
360.945	13.13
361.314	13.27
361.682	13.17
362.051	13.56
362.42	13.43
362.788	13.26
363.157	13.83
363.525	13.5
363.894	13.47
364.262	13.61
364.631	13.3
364.999	13.57
365.367	13.75
365.735	13.79
366.104	13.65
366.472	14.04
366.84	13.83
367.208	14.21
367.576	13.93
367.944	13.97
368.312	13.81
368.68	13.98
369.048	14.23
369.416	14.44
369.783	14.34
370.151	14.43
370.519	14.62
370.886	14.73
371.254	14.62
371.621	14.59
371.989	14.52
372.356	14.64
372.724	14.71
373.091	14.71
373.458	14.75
373.826	14.91
374.193	14.82
374.56	15.27
374.927	15.24
375.294	15.38
375.661	15.5
376.028	15.79
376.395	15.5
376.762	15.33
377.129	15.91
377.496	15.55
377.863	15.46
378.229	15.28
378.596	15.31
378.963	15.79
379.329	15.19
379.696	15.67
380.062	15.79
380.429	15.64
380.795	16.01
381.161	15.82
381.528	15.88
381.894	16.21
382.26	16.34
382.626	16.03
382.993	16.39
383.359	16.3
383.725	16.07
384.091	16.61
384.457	16.26
384.823	16.52
385.188	16.76
385.554	16.58
385.92	16.62
386.286	16.66
386.651	16.83
387.017	16.88
387.383	16.87
387.748	16.87
388.114	17.09
388.479	17.27
388.845	17.02
389.21	17.13
389.575	16.96
389.94	16.95
390.306	17.69
390.671	17.39
391.036	17.63
391.401	17.35
391.766	17.66
392.131	17.86
392.496	17.27
392.861	17.63
393.226	17.65
393.591	17.48
393.956	17.59
394.32	17.86
394.685	17.79
395.05	17.96
395.414	17.91
395.779	17.86
396.143	18.09
396.508	18.09
396.872	18.1
397.236	18.41
397.601	18.11
397.965	18.25
398.329	18.36
398.694	18.09
399.058	18.89
399.422	18.27
399.786	18.61
400.15	18.07
400.514	18.7
400.878	18.64
401.242	18.58
401.605	18.71
401.969	18.86
402.333	18.9
402.697	18.83
403.06	19.27
403.424	19.17
403.787	18.65
404.151	19.21
404.514	18.95
404.878	19.37
405.241	19.56
405.604	19.2
405.968	19.36
406.331	19.31
406.694	19.55
407.057	19.29
407.42	19.59
407.783	19.62
408.146	19.78
408.509	19.8
408.872	19.69
409.235	19.88
409.598	19.67
409.961	19.66
410.323	19.69
410.686	20.13
411.049	20
411.411	20.09
411.774	20.05
412.136	20.41
412.499	20.26
412.861	20.43
413.223	20.62
413.586	20.26
413.948	20.58
414.31	20.68
414.672	20.76
415.035	20.76
415.397	20.62
415.759	20.67
416.121	20.82
416.483	20.83
416.845	20.87
417.206	21.01
417.568	20.74
417.93	21.26
418.292	20.99
418.653	21.06
419.015	21.03
419.377	21.17
419.738	20.95
420.1	20.87
420.461	21.01
420.822	21.27
421.184	21.22
421.545	21.25
421.906	21.16
422.267	21.32
422.629	21.24
422.99	21.26
423.351	21.17
423.712	21.3
424.073	21.38
424.434	21.48
424.795	21.58
425.155	21.61
425.516	21.42
425.877	21.54
426.238	21.55
426.598	21.63
426.959	21.71
427.32	21.91
427.68	21.74
428.041	21.95
428.401	22.22
428.761	22.39
429.122	22.27
429.482	22.59
429.842	22.57
430.202	22.56
430.563	22.7
430.923	22.83
431.283	22.79
431.643	22.83
432.003	22.89
432.363	22.99
432.722	22.94
433.082	22.87
433.442	23.11
433.802	23
434.161	22.91
434.521	22.93
434.881	23.13
435.24	23.25
435.6	23.11
435.959	23.06
436.319	23.39
436.678	23.46
437.037	23.44
437.396	23.35
437.756	23.3
438.115	23.57
438.474	23.54
438.833	23.67
439.192	23.54
439.551	23.74
439.91	23.61
440.269	23.7
440.628	23.7
440.987	23.75
441.345	24.01
441.704	23.81
442.063	23.89
442.421	24.01
442.78	24.11
443.138	24.06
443.497	24.11
443.855	24.24
444.214	24.39
444.572	24.47
444.93	24.47
445.288	24.33
445.647	24.56
446.005	24.64
446.363	24.52
446.721	24.55
447.079	24.68
447.437	24.4
447.795	24.54
448.153	24.42
448.51	24.62
448.868	24.61
449.226	24.7
449.584	24.75
449.941	24.95
450.299	24.9
450.656	24.99
451.014	25.08
451.371	25.26
451.729	25.4
452.086	25.56
452.443	25.59
452.801	25.71
453.158	25.42
453.515	25.7
453.872	25.53
454.229	25.61
454.586	25.72
454.943	25.7
455.3	25.78
455.657	26.03
456.014	26.09
456.371	26.19
456.727	26.08
457.084	26.27
457.441	26.23
457.797	26.55
458.154	26.19
458.51	26.3
458.867	26.53
459.223	26.39
459.58	26.51
459.936	26.52
460.292	26.36
460.648	26.35
461.005	26.4
461.361	26.44
461.717	26.46
462.073	26.39
462.429	26.39
462.785	26.57
463.141	26.67
463.496	26.88
463.852	27.16
464.208	27.02
464.564	27.09
464.919	27.41
465.275	27.05
465.631	27.36
465.986	27.37
466.342	27.5
466.697	27.63
467.052	27.57
467.408	27.6
467.763	27.86
468.118	27.76
468.473	28
468.829	27.79
469.184	27.79
469.539	28.09
469.894	27.88
470.249	27.97
470.603	27.95
470.958	28.07
471.313	28.2
471.668	28.19
472.023	28.13
472.377	28.12
472.732	28.22
473.086	28.41
473.441	28.35
473.795	28.45
474.15	28.64
474.504	28.59
474.859	28.75
475.213	28.65
475.567	28.76
475.921	28.72
476.275	28.49
476.63	28.95
476.984	28.98
477.338	28.99
477.692	29.01
478.045	29.01
478.399	28.73
478.753	29.26
479.107	28.93
479.461	29.3
479.814	29.08
480.168	29.14
480.521	28.94
480.875	29.18
481.228	29.42
481.582	29.19
481.935	29.37
482.289	29.39
482.642	29.4
482.995	29.34
483.348	29.35
483.701	29.49
484.055	29.52
484.408	29.17
484.761	29.03
485.114	28.83
485.466	28.56
485.819	28.53
486.172	28.64
486.525	28.77
486.878	28.82
487.23	29.01
487.583	29.13
487.936	29.57
488.288	29.36
488.641	29.41
488.993	29.29
489.345	29.24
489.698	29.25
490.05	29.27
490.402	29.3
490.754	29.55
491.107	29.72
491.459	29.96
491.811	30.07
492.163	30.29
492.515	30.34
492.866	30.2
493.218	29.76
493.57	29.81
493.922	29.96
494.274	29.94
494.625	30.27
494.977	30.56
495.328	30.74
495.68	30.85
496.031	31.12
496.383	31.23
496.734	31.28
497.086	31.26
497.437	31.25
497.788	31.44
498.139	31.33
498.49	31.33
498.842	31.34
499.193	31.6
499.544	31.56
499.894	31.42
500.245	31.69
500.596	31.52
500.947	31.77
501.298	31.82
501.648	32
501.999	31.88
502.35	31.98
502.7	32.14
503.051	32.08
503.401	32.18
503.752	32.42
504.102	32.31
504.452	32.29
504.803	32.49
505.153	32.75
505.503	32.48
505.853	32.51
506.203	32.66
506.553	32.23
506.903	32.56
507.253	32.5
507.603	32.7
507.953	32.82
508.303	32.77
508.652	32.79
509.002	32.8
509.352	32.71
509.701	32.79
510.051	32.75
510.4	32.86
510.75	32.67
511.099	32.81
511.449	32.98
511.798	32.86
512.147	32.93
512.496	33.14
512.846	33.27
513.195	33.33
513.544	33.42
513.893	33.32
514.242	33.31
514.591	33.13
514.939	33.32
515.288	33.4
515.637	33.66
515.986	33.39
516.334	33.69
516.683	33.75
517.032	33.59
517.38	33.91
517.729	34.06
518.077	33.96
518.426	33.81
518.774	34.08
519.122	34.07
519.47	33.95
519.819	33.94
520.167	33.82
520.515	33.68
520.863	33.73
521.211	33.77
521.559	33.83
521.907	34.1
522.255	34.38
522.602	34.41
522.95	34.38
523.298	34.43
523.645	34.73
523.993	34.73
524.341	34.78
524.688	34.89
525.036	34.83
525.383	34.8
525.73	34.82
526.078	35.03
526.425	34.69
526.772	34.66
527.119	34.69
527.466	34.56
527.814	34.57
528.161	34.58
528.508	34.58
528.854	34.71
529.201	34.69
529.548	34.72
529.895	34.48
530.242	34.13
530.588	34.13
530.935	34.24
531.282	34.45
531.628	34.52
531.975	34.63
532.321	34.82
532.667	34.92
533.014	35.16
533.36	35.16
533.706	35.31
534.052	35.22
534.399	35.44
534.745	35.14
535.091	34.91
535.437	34.93
535.783	35.27
536.129	35.36
536.474	35.46
536.82	35.58
537.166	35.86
537.512	36.09
537.857	36.01
538.203	35.77
538.549	35.69
538.894	35.72
539.239	35.98
539.585	35.99
539.93	36.16
540.276	36.51
540.621	36.68
540.966	36.57
541.311	36.57
541.656	36.74
542.001	36.76
542.346	36.54
542.691	36.14
543.036	35.88
543.381	35.8
543.726	36.11
544.071	36.2
544.415	36.23
544.76	36.18
545.105	36.35
545.449	36.44
545.794	36.71
546.138	36.77
546.483	37.09
546.827	37.13
547.171	37.24
547.516	37.32
547.86	37.32
548.204	37.38
548.548	37.38
548.892	37.39
549.236	37.55
549.58	37.43
549.924	37.57
550.268	37.74
550.612	37.74
550.956	38.01
551.3	38.11
551.643	38.04
551.987	38.11
552.33	38.09
552.674	38.51
553.017	38.42
553.361	38.38
553.704	38.38
554.048	38.38
554.391	38.48
554.734	38.44
555.077	38.32
555.42	38.3
555.764	38.42
556.107	38.51
556.45	38.29
556.793	38.97
557.135	38.65
557.478	39.01
557.821	38.96
558.164	38.95
558.507	39.11
558.849	39.04
559.192	39.37
559.534	39.26
559.877	39.43
560.219	39.21
560.562	39.19
560.904	39.52
561.246	39.38
561.589	39.44
561.931	39.72
562.273	39.17
562.615	39.43
562.957	39.65
563.299	39.6
563.641	39.2
563.983	39.58
564.325	39.63
564.667	39.79
565.008	39.75
565.35	39.91
565.692	39.75
566.033	40.03
566.375	39.83
566.716	39.74
567.058	39.97
567.399	40.14
567.741	39.91
568.082	39.78
568.423	39.87
568.764	40.19
569.105	39.78
569.447	40.22
569.788	39.96
570.129	40.21
570.47	40.63
570.811	40.16
571.151	40.5
571.492	40.73
571.833	40.46
572.174	40.52
572.514	40.73
572.855	40.9
573.195	40.71
573.536	40.5
573.876	40.51
574.217	40.54
574.557	40.55
574.898	40.5
575.238	40.63
575.578	40.86
575.918	40.65
576.258	41.01
576.598	40.78
576.938	40.78
577.278	40.89
577.618	40.77
577.958	40.99
578.298	41.2
578.638	41.06
578.977	41.13
579.317	41.08
579.657	41.57
579.996	41.6
580.336	41.76
580.675	42
581.014	41.52
581.354	41.66
581.693	41.64
582.032	42
582.372	42.06
582.711	42.19
583.05	42.44
583.389	42.41
583.728	42.3
584.067	42.37
584.406	42.32
584.745	42.39
585.083	42.34
585.422	42.56
585.761	42.4
586.1	42.61
586.438	42.29
586.777	42.57
587.115	42.71
587.454	42.53
587.792	42.36
588.13	42.86
588.469	43.05
588.807	42.58
589.145	42.88
589.483	42.88
589.821	42.96
590.159	42.74
590.497	42.96
590.835	42.77
591.173	42.67
591.511	42.92
591.849	43.16
592.187	43.08
592.524	42.75
592.862	42.91
593.2	43.28
593.537	42.76
593.875	43.27
594.212	43.14
594.55	43.8
594.887	43.54
595.224	43.37
595.561	43.97
595.899	43.05
596.236	43.22
596.573	43.17
596.91	43.68
597.247	43.28
597.584	43.36
597.921	43.59
598.258	43.86
598.594	43.15
598.931	43.51
599.268	43.42
599.604	43.44
599.941	43.53
600.277	43.64
600.614	44.05
600.95	43.89
601.287	43.98
601.623	44.16
601.959	44.05
602.296	44.15
602.632	44.12
602.968	44.16
603.304	44.26
603.64	44.68
603.976	44.26
604.312	44.56
604.648	44.27
604.984	44.18
605.319	44.07
605.655	43.97
605.991	44.24
606.326	43.99
606.662	44.26
606.998	44.14
607.333	44.52
607.668	44.38
608.004	44.25
608.339	44.69
608.674	44.57
609.01	44.68
609.345	44.77
609.68	44.67
610.015	44.91
610.35	44.64
610.685	44.83
611.02	44.65
611.355	44.82
611.689	44.68
612.024	44.93
612.359	45.01
612.694	45.25
613.028	45.15
613.363	44.98
613.697	45.01
614.032	45.17
614.366	45.54
614.7	45.38
615.035	45.33
615.369	45.48
615.703	45.59
616.037	45.63
616.371	45.4
616.705	45.68
617.039	45.45
617.373	45.43
617.707	45.52
618.041	45.19
618.375	45.73
618.709	45.51
619.042	45.79
619.376	46.18
619.71	45.87
620.043	46.18
620.377	45.47
620.71	46.05
621.043	46.13
621.377	45.87
621.71	46.56
622.043	46.47
622.376	46.25
622.709	46.54
623.043	45.88
623.376	46.42
623.709	46.37
624.041	46.34
624.374	45.97
624.707	46.09
625.04	46.1
625.373	46.49
625.705	46.46
626.038	46.68
626.37	46.23
626.703	46.58
627.035	46.87
627.368	46.58
627.7	46.28
628.032	46.6
628.365	46.99
628.697	46.35
629.029	46.06
629.361	46.65
629.693	46.19
630.025	46.75
630.357	46.72
630.689	46.35
631.021	46.59
631.353	46.78
631.684	46.97
632.016	46.54
632.348	47.28
632.679	46.98
633.011	47.37
633.342	47.57
633.674	47.46
634.005	47.03
634.336	47.66
634.668	47.94
634.999	47.5
635.33	47.32
635.661	47.04
635.992	47.28
636.323	47.53
636.654	47.61
636.985	47.63
637.316	47.73
637.647	47.22
637.977	47.62
638.308	48.14
638.639	48.04
638.969	47.94
639.3	47.52
639.63	48.1
639.961	47.76
640.291	47.66
640.622	47.8
640.952	48.6
641.282	48.23
641.612	48.71
641.943	48.47
642.273	47.74
642.603	48.91
642.933	48.12
643.263	47.85
643.592	48.19
643.922	49
644.252	48.08
644.582	47.79
644.911	48.93
645.241	48.08
645.571	49.02
645.9	48.17
646.23	48
646.559	48.73
646.888	48.96
647.218	48.39
647.547	48.93
647.876	48.73
648.205	49.27
648.534	48.25
648.863	48.61
649.192	49.25
649.521	49.22
649.85	48.36
650.179	49.25
650.508	49
650.837	48.91
651.165	48.6
651.494	48.7
651.822	48.94
652.151	48.55
652.479	49.04
652.808	49.33
653.136	49.11
653.465	49.51
653.793	48.73
654.121	49.44
654.449	48.74
654.777	49.77
655.105	48.84
655.433	49.84
655.761	49.28
656.089	49.32
656.417	49.71
656.745	49.66
657.073	49.41
657.4	49.44
657.728	48.69
658.056	49.36
658.383	48.85
658.711	48.97
659.038	49.74
659.365	49.34
659.693	49.98
660.02	50.04
660.347	49.74
660.674	49.65
661.001	49.88
661.329	49.72
661.656	49.85
661.982	50.18
662.309	49.94
662.636	49.78
662.963	50.75
663.29	50.25
663.616	50.24
663.943	50.45
664.27	50.32
664.596	49.72
664.923	49.91
665.249	50.38
665.576	49.9
665.902	50.39
666.228	50.06
666.554	49.9
666.881	50.46
667.207	50.38
667.533	49.82
667.859	50.77
668.185	50.48
668.511	50.48
668.837	50.64
669.162	50.61
669.488	50.2
669.814	50.65
670.139	50.19
670.465	49.89
