Data from 0410_forehead_Reflection__4__196.txt Node

Date: Tue Dec 12 19:57:29 CST 2023
User: ToomeyLab
Spectrometer: FLMS14357
Trigger mode: 0
Integration Time (sec): 1.000000E-2
Scans to average: 100
Electric dark correction enabled: true
Nonlinearity correction enabled: false
Boxcar width: 0
XAxis mode: Wavelengths
Number of Pixels in Spectrum: 2048
>>>>>Begin Spectral Data<<<<<
189.047	-63.62
189.435	-63.62
189.823	-63.62
190.211	397.26
190.599	6.74
190.987	95.75
191.375	20
191.763	103.71
192.151	67.19
192.538	-105.79
192.926	79.93
193.314	52.29
193.702	129.48
194.089	352.56
194.477	589.43
194.864	-68.12
195.252	221.24
195.639	-57.7
196.027	234.44
196.414	560.5
196.801	69.38
197.189	113.46
197.576	198.76
197.963	-33.64
198.351	21.96
198.738	21.64
199.125	85.82
199.512	12.42
199.899	50.7
200.286	229.25
200.673	-17.66
201.06	4.43
201.447	-96.56
201.833	-4.66
202.22	-18.91
202.607	-16.31
202.994	17.55
203.38	12.28
203.767	22.68
204.154	43.45
204.54	45.9
204.927	-7.82
205.313	49.27
205.699	12.8
206.086	-24.47
206.472	70.67
206.858	26.07
207.245	55.66
207.631	16.91
208.017	49.76
208.403	29.32
208.789	41.25
209.175	15.14
209.561	24.16
209.947	25.21
210.333	15.83
210.719	-36.15
211.105	-15.95
211.491	62.19
211.876	29.21
212.262	10.82
212.648	10.15
213.034	-144.14
213.419	10.07
213.805	35.47
214.19	15.06
214.576	70.33
214.961	36.91
215.346	62.66
215.732	39.64
216.117	7.6
216.502	-4.78
216.888	5.18
217.273	2.41
217.658	23.91
218.043	18.27
218.428	16.91
218.813	15.65
219.198	-34.14
219.583	24.19
219.968	16.93
220.353	22.31
220.738	11.32
221.122	17.59
221.507	-23.81
221.892	4.43
222.276	23.22
222.661	14.51
223.046	-12.9
223.43	6.21
223.815	11.55
224.199	8.49
224.583	12.9
224.968	4.52
225.352	-0.94
225.736	14.05
226.121	-7.2
226.505	-3.35
226.889	1.4
227.273	10.46
227.657	9.34
228.041	2.52
228.425	4.33
228.809	1.01
229.193	1.96
229.577	5.28
229.961	4.02
230.344	4.22
230.728	4.51
231.112	4.26
231.495	2.2
231.879	4.17
232.263	2.53
232.646	0.71
233.03	4.03
233.413	2.46
233.797	2.68
234.18	0.69
234.563	-2.74
234.946	5.7
235.33	5.82
235.713	5.82
236.096	3.4
236.479	4.41
236.862	4.24
237.245	2.99
237.628	2.5
238.011	4.48
238.394	2.92
238.777	3.13
239.16	2.9
239.543	4.07
239.925	3.96
240.308	4.69
240.691	1.99
241.073	4.71
241.456	5.22
241.838	2.11
242.221	5.36
242.603	3.96
242.986	3.32
243.368	3.27
243.75	3.16
244.133	2.87
244.515	2.85
244.897	3.08
245.279	3.85
245.661	2.98
246.043	3.34
246.425	2.74
246.807	2.98
247.189	3.91
247.571	2.88
247.953	2.84
248.335	3.02
248.717	2.84
249.098	2.94
249.48	2.9
249.862	2.57
250.243	2.53
250.625	3.4
251.006	3.57
251.388	3.43
251.769	2.26
252.151	1.73
252.532	3.45
252.913	3.62
253.295	3.51
253.676	2.7
254.057	2.87
254.438	3.35
254.819	2.55
255.2	3.51
255.581	3.11
255.962	2.16
256.343	3.15
256.724	4.03
257.105	3.9
257.486	2.22
257.867	2.91
258.247	2.04
258.628	3.23
259.009	2.4
259.389	3.42
259.77	3.11
260.15	2.97
260.531	3.48
260.911	3.59
261.292	2.51
261.672	3.15
262.052	2.82
262.432	3.28
262.813	2.67
263.193	2.56
263.573	3.25
263.953	4.34
264.333	4.36
264.713	2.68
265.093	2.9
265.473	3.08
265.853	3.2
266.233	2.75
266.612	2.13
266.992	2.51
267.372	2.74
267.752	4.31
268.131	2.7
268.511	2.49
268.89	2.59
269.27	2.74
269.649	2.84
270.029	2.61
270.408	3.45
270.787	2.97
271.167	3
271.546	3.09
271.925	4.14
272.304	3.09
272.683	2.57
273.062	3.09
273.441	2.77
273.82	2.05
274.199	3.11
274.578	2.58
274.957	2.84
275.336	3.36
275.715	2.74
276.093	3.04
276.472	3.49
276.851	3.89
277.229	2.48
277.608	3.15
277.986	2.56
278.365	3.07
278.743	2.37
279.122	2.55
279.5	2.39
279.878	2.7
280.257	3.17
280.635	2.32
281.013	2.86
281.391	2.95
281.769	3.21
282.147	2.86
282.525	2.34
282.903	3.2
283.281	3.22
283.659	2.64
284.037	3.42
284.415	3.07
284.792	3.21
285.17	2.11
285.548	3.13
285.925	2.96
286.303	2.78
286.68	2.81
287.058	2.86
287.435	2.42
287.813	2.46
288.19	2.71
288.567	2.33
288.945	2.92
289.322	2.66
289.699	2.95
290.076	2.84
290.453	3.08
290.83	2.6
291.207	2.96
291.584	2.8
291.961	3.24
292.338	2.89
292.715	2.85
293.092	2.72
293.469	3.17
293.845	3.28
294.222	2.69
294.599	3.34
294.975	3.05
295.352	3.48
295.728	3.49
296.105	3.17
296.481	3.69
296.858	2.89
297.234	3.41
297.61	3.72
297.986	3.38
298.363	3.47
298.739	3.26
299.115	3.23
299.491	3.4
299.867	3.4
300.243	3.27
300.619	3.3
300.995	3.57
301.371	3.47
301.746	3.65
302.122	3.79
302.498	4.06
302.874	3.37
303.249	3.97
303.625	3.25
304	3.49
304.376	4.18
304.751	3.95
305.127	3.64
305.502	4.43
305.878	3.65
306.253	3.76
306.628	3.96
307.003	3.87
307.378	3.87
307.754	4.22
308.129	4.09
308.504	4.95
308.879	3.94
309.254	4.92
309.629	4.45
310.003	4.82
310.378	4.62
310.753	4.79
311.128	5.14
311.502	4.14
311.877	4.36
312.252	4.36
312.626	4.54
313.001	4.81
313.375	4.6
313.75	5.29
314.124	5.32
314.498	4.92
314.873	5.18
315.247	5.03
315.621	5.63
315.995	5.82
316.369	5.68
316.743	5.1
317.117	4.82
317.491	5.01
317.865	5.73
318.239	6.07
318.613	6.22
318.987	6.65
319.361	5.56
319.734	6.03
320.108	6.14
320.482	6.23
320.855	6.11
321.229	6.62
321.602	6.52
321.976	7.06
322.349	6.85
322.723	6.82
323.096	6.9
323.469	6.8
323.843	7.2
324.216	7.05
324.589	6.86
324.962	7.03
325.335	7.34
325.708	7.08
326.081	7.26
326.454	6.92
326.827	7.91
327.2	7.58
327.573	6.94
327.945	7.96
328.318	7.81
328.691	6.73
329.063	7.58
329.436	8.42
329.809	7.53
330.181	7.43
330.553	8.02
330.926	8.27
331.298	8.15
331.671	8.65
332.043	7.94
332.415	8.77
332.787	7.93
333.159	8.57
333.532	8.61
333.904	7.65
334.276	8.76
334.648	8.11
335.02	8.19
335.391	7.77
335.763	8.85
336.135	8.3
336.507	9.43
336.879	8.76
337.25	8.49
337.622	8.79
337.993	8.4
338.365	8.62
338.736	9.06
339.108	8.8
339.479	9.11
339.851	8.73
340.222	8.92
340.593	9.37
340.964	9.59
341.336	9.25
341.707	9.29
342.078	9.4
342.449	9.46
342.82	9.44
343.191	9.76
343.562	10.02
343.933	9.97
344.303	9.74
344.674	9.88
345.045	9.9
345.416	10.37
345.786	9.59
346.157	9.83
346.527	10.38
346.898	9.89
347.268	9.97
347.639	10.38
348.009	10.1
348.38	10.34
348.75	10.53
349.12	10.5
349.49	10.39
349.861	10.88
350.231	10.87
350.601	10.44
350.971	10.62
351.341	10.83
351.711	10.84
352.081	11.24
352.45	11.23
352.82	11.42
353.19	10.8
353.56	11.01
353.929	11.01
354.299	10.87
354.669	11.29
355.038	10.8
355.408	11.4
355.777	11.52
356.147	11.21
356.516	11.38
356.885	11.48
357.254	11.79
357.624	12
357.993	11.91
358.362	11.68
358.731	12.08
359.1	12.05
359.469	11.87
359.838	12.14
360.207	12.13
360.576	12.08
360.945	11.93
361.314	12.51
361.682	12.55
362.051	12.33
362.42	12.34
362.788	12.53
363.157	12.83
363.525	12.54
363.894	12.29
364.262	12.28
364.631	12.4
364.999	12.85
365.367	12.83
365.735	12.82
366.104	12.57
366.472	12.86
366.84	13.19
367.208	13.34
367.576	13.12
367.944	13.25
368.312	13.09
368.68	13.31
369.048	13.4
369.416	13.45
369.783	13.19
370.151	13.42
370.519	13.75
370.886	13.43
371.254	13.45
371.621	14.25
371.989	13.5
372.356	14.19
372.724	13.98
373.091	13.87
373.458	13.84
373.826	14.53
374.193	14.22
374.56	14.43
374.927	14.6
375.294	14.59
375.661	14.33
376.028	15.15
376.395	14.92
376.762	15.12
377.129	14.93
377.496	14.77
377.863	14.96
378.229	15.05
378.596	15.03
378.963	15.09
379.329	14.91
379.696	14.89
380.062	15.36
380.429	15.35
380.795	15.36
381.161	15.55
381.528	15.46
381.894	15.89
382.26	15.41
382.626	15.57
382.993	15.87
383.359	15.37
383.725	15.43
384.091	16.08
384.457	15.96
384.823	16.01
385.188	16.2
385.554	16.18
385.92	16.19
386.286	16.39
386.651	16.29
387.017	16.61
387.383	16.58
387.748	16.53
388.114	16.67
388.479	17.1
388.845	16.67
389.21	16.72
389.575	16.85
389.94	16.52
390.306	17.25
390.671	16.95
391.036	17.24
391.401	17.37
391.766	17.56
392.131	17.57
392.496	17.3
392.861	17.16
393.226	17.68
393.591	17.35
393.956	17.65
394.32	17.45
394.685	17.6
395.05	17.56
395.414	17.8
395.779	17.86
396.143	17.8
396.508	17.59
396.872	18.1
397.236	18.38
397.601	17.93
397.965	18.37
398.329	18.68
398.694	18.26
399.058	18.81
399.422	18.69
399.786	18.6
400.15	18.52
400.514	18.72
400.878	18.59
401.242	18.86
401.605	19.02
401.969	19.21
402.333	19.3
402.697	19.07
403.06	19.16
403.424	19.28
403.787	19.36
404.151	19.53
404.514	19.38
404.878	19.38
405.241	19.41
405.604	19.37
405.968	19.39
406.331	19.7
406.694	19.88
407.057	19.81
407.42	19.89
407.783	19.96
408.146	19.92
408.509	19.99
408.872	20.07
409.235	20.01
409.598	20.03
409.961	19.95
410.323	20.36
410.686	20.44
411.049	20.43
411.411	20.85
411.774	20.52
412.136	20.47
412.499	20.77
412.861	20.97
413.223	20.88
413.586	20.57
413.948	20.95
414.31	20.82
414.672	21.43
415.035	21.22
415.397	20.98
415.759	21.44
416.121	21.26
416.483	21.56
416.845	21.35
417.206	21.54
417.568	21.49
417.93	21.54
418.292	21.65
418.653	21.58
419.015	21.63
419.377	21.6
419.738	21.61
420.1	21.54
420.461	21.69
420.822	21.71
421.184	21.69
421.545	22
421.906	22.01
422.267	21.96
422.629	21.88
422.99	21.96
423.351	21.96
423.712	21.95
424.073	22.15
424.434	22.3
424.795	22.28
425.155	22.24
425.516	22.24
425.877	22.47
426.238	22.47
426.598	22.49
426.959	22.49
427.32	22.67
427.68	22.69
428.041	22.99
428.401	23.12
428.761	23.26
429.122	23.02
429.482	23.46
429.842	23.55
430.202	23.53
430.563	23.61
430.923	23.75
431.283	23.76
431.643	23.73
432.003	23.81
432.363	23.99
432.722	24.15
433.082	24.12
433.442	24.24
433.802	24.31
434.161	24.11
434.521	24.25
434.881	24.44
435.24	24.27
435.6	24.29
435.959	24.28
436.319	24.42
436.678	24.49
437.037	24.57
437.396	24.67
437.756	24.87
438.115	24.78
438.474	24.85
438.833	25.33
439.192	25.3
439.551	25.23
439.91	24.85
440.269	25.3
440.628	25.25
440.987	25.26
441.345	25.6
441.704	25.27
442.063	25.41
442.421	25.55
442.78	25.43
443.138	25.36
443.497	25.57
443.855	25.61
444.214	25.85
444.572	26.08
444.93	26.03
445.288	25.88
445.647	26.07
446.005	25.98
446.363	26.11
446.721	25.99
447.079	26.32
447.437	26.04
447.795	26.28
448.153	26.19
448.51	26.29
448.868	26.08
449.226	26.51
449.584	26.42
449.941	26.62
450.299	26.81
450.656	26.88
451.014	26.95
451.371	27.11
451.729	27.21
452.086	27.24
452.443	27.35
452.801	27.72
453.158	27.32
453.515	27.5
453.872	27.54
454.229	27.9
454.586	27.38
454.943	27.75
455.3	27.61
455.657	27.93
456.014	28.02
456.371	28.18
456.727	27.88
457.084	28.21
457.441	28.29
457.797	28.3
458.154	28.37
458.51	28.09
458.867	28.58
459.223	28.38
459.58	28.71
459.936	28.33
460.292	28.56
460.648	28.61
461.005	28.66
461.361	28.51
461.717	28.47
462.073	28.61
462.429	28.54
462.785	28.86
463.141	28.89
463.496	29.11
463.852	29.37
464.208	29.36
464.564	29.62
464.919	29.81
465.275	29.6
465.631	29.84
465.986	29.86
466.342	29.84
466.697	30.21
467.052	30.19
467.408	29.8
467.763	30.17
468.118	30.21
468.473	30.05
468.829	30.2
469.184	29.88
469.539	30.19
469.894	30.37
470.249	30.63
470.603	30.71
470.958	30.61
471.313	30.88
471.668	30.77
472.023	30.95
472.377	30.84
472.732	30.83
473.086	30.97
473.441	31.15
473.795	31.22
474.15	31.34
474.504	31.24
474.859	31.51
475.213	31.29
475.567	31.43
475.921	31.59
476.275	31.38
476.63	31.7
476.984	31.58
477.338	31.79
477.692	31.83
478.045	32.07
478.399	31.96
478.753	32.02
479.107	31.98
479.461	31.9
479.814	31.87
480.168	32.15
480.521	31.91
480.875	32.1
481.228	32.53
481.582	32.28
481.935	32.39
482.289	32.33
482.642	32.64
482.995	32.45
483.348	32.43
483.701	32.44
484.055	32.4
484.408	32.12
484.761	32.22
485.114	31.81
485.466	31.6
485.819	31.61
486.172	31.64
486.525	31.53
486.878	31.81
487.23	32.11
487.583	32.31
487.936	32.48
488.288	32.45
488.641	32.39
488.993	32.46
489.345	32.29
489.698	32.34
490.05	32.37
490.402	32.36
490.754	32.58
491.107	32.8
491.459	33.01
491.811	33.39
492.163	33.52
492.515	33.58
492.866	33.36
493.218	33.19
493.57	33.07
493.922	33
494.274	33.15
494.625	33.54
494.977	33.77
495.328	34.21
495.68	34.17
496.031	34.47
496.383	34.55
496.734	34.57
497.086	34.56
497.437	34.97
497.788	34.79
498.139	34.99
498.49	34.76
498.842	34.59
499.193	34.88
499.544	34.93
499.894	34.97
500.245	35.14
500.596	35.26
500.947	35.26
501.298	35.45
501.648	35.55
501.999	35.47
502.35	35.58
502.7	35.63
503.051	35.74
503.401	35.89
503.752	36.18
504.102	35.99
504.452	36
504.803	36.13
505.153	36.26
505.503	36.17
505.853	36.33
506.203	36.15
506.553	36.27
506.903	36.38
507.253	36.43
507.603	36.54
507.953	36.84
508.303	36.68
508.652	36.87
509.002	36.74
509.352	36.81
509.701	36.79
510.051	36.77
510.4	36.78
510.75	36.7
511.099	36.77
511.449	36.91
511.798	36.83
512.147	36.91
512.496	36.96
512.846	37.3
513.195	37.34
513.544	37.38
513.893	37.39
514.242	37.26
514.591	37.41
514.939	37.33
515.288	37.47
515.637	37.56
515.986	37.69
516.334	37.88
516.683	37.78
517.032	38.02
517.38	38.14
517.729	38.1
518.077	38.1
518.426	38.12
518.774	38.02
519.122	38.24
519.47	38.08
519.819	38
520.167	38
520.515	37.73
520.863	37.97
521.211	37.87
521.559	38.03
521.907	38.25
522.255	38.42
522.602	38.57
522.95	38.65
523.298	38.83
523.645	39.07
523.993	38.85
524.341	39.21
524.688	39.1
525.036	39.17
525.383	39.32
525.73	39.17
526.078	38.99
526.425	39
526.772	39.1
527.119	39.17
527.466	38.78
527.814	38.87
528.161	38.87
528.508	38.81
528.854	38.92
529.201	38.99
529.548	39.14
529.895	38.9
530.242	38.54
530.588	38.64
530.935	38.55
531.282	38.61
531.628	38.64
531.975	38.91
532.321	39.05
532.667	39.51
533.014	39.65
533.36	39.7
533.706	39.72
534.052	39.71
534.399	39.86
534.745	39.74
535.091	39.62
535.437	39.55
535.783	39.81
536.129	39.68
536.474	39.92
536.82	39.97
537.166	40.4
537.512	40.61
537.857	40.6
538.203	40.47
538.549	40.4
538.894	40.36
539.239	40.55
539.585	40.59
539.93	41.02
540.276	41.02
540.621	41.44
540.966	41.37
541.311	41.27
541.656	41.48
542.001	41.52
542.346	41.29
542.691	40.95
543.036	40.62
543.381	40.56
543.726	40.76
544.071	40.93
544.415	40.84
544.76	41.11
545.105	41.23
545.449	41.32
545.794	41.44
546.138	41.55
546.483	41.78
546.827	42.09
547.171	41.92
547.516	42.02
547.86	42.44
548.204	42.22
548.548	41.94
548.892	42.25
549.236	42.36
549.58	42.52
549.924	42.38
550.268	42.63
550.612	42.68
550.956	43.05
551.3	43
551.643	43.3
551.987	43.3
552.33	43.28
552.674	43.35
553.017	43.55
553.361	43.65
553.704	43.51
554.048	43.48
554.391	43.59
554.734	43.61
555.077	43.6
555.42	43.65
555.764	43.61
556.107	43.64
556.45	43.66
556.793	43.74
557.135	43.88
557.478	44.06
557.821	44.31
558.164	44.34
558.507	44.31
558.849	44.27
559.192	44.35
559.534	44.22
559.877	44.63
560.219	44.6
560.562	44.85
560.904	44.88
561.246	44.59
561.589	44.85
561.931	44.9
562.273	44.64
562.615	44.64
562.957	45.24
563.299	44.86
563.641	45.08
563.983	45.08
564.325	44.92
564.667	45.09
565.008	45.13
565.35	45.34
565.692	45.36
566.033	45.51
566.375	45.49
566.716	44.87
567.058	45.47
567.399	45.63
567.741	45.28
568.082	45.28
568.423	45.57
568.764	45.53
569.105	45.43
569.447	45.71
569.788	45.61
570.129	45.57
570.47	45.97
570.811	45.81
571.151	46.02
571.492	45.98
571.833	46.17
572.174	46.04
572.514	46.08
572.855	46.31
573.195	46.25
573.536	46.18
573.876	46.08
574.217	46.02
574.557	46.17
574.898	46.06
575.238	46.48
575.578	46.29
575.918	46.3
576.258	46.64
576.598	46.65
576.938	46.54
577.278	46.61
577.618	46.61
577.958	46.7
578.298	46.94
578.638	46.49
578.977	47.14
579.317	47.24
579.657	47.28
579.996	47.41
580.336	47.5
580.675	47.24
581.014	47.57
581.354	47.48
581.693	47.67
582.032	47.69
582.372	47.86
582.711	48.06
583.05	47.88
583.389	48.29
583.728	47.88
584.067	48.27
584.406	48.36
584.745	48.24
585.083	48.4
585.422	48.2
585.761	48.33
586.1	48.47
586.438	48.48
586.777	48.17
587.115	48.26
587.454	48.15
587.792	48.37
588.13	48.85
588.469	48.97
588.807	48.67
589.145	48.99
589.483	48.76
589.821	48.9
590.159	49.23
590.497	49.14
590.835	48.85
591.173	48.78
591.511	48.84
591.849	48.9
592.187	49.26
592.524	48.72
592.862	48.74
593.2	49.12
593.537	49.25
593.875	49.53
594.212	49.1
594.55	49.57
594.887	49.69
595.224	49.85
595.561	49.59
595.899	49.89
596.236	49.95
596.573	49.43
596.91	49.39
597.247	49.45
597.584	49.63
597.921	49.56
598.258	49.67
598.594	49.45
598.931	49.41
599.268	49.64
599.604	49.65
599.941	49.45
600.277	49.65
600.614	49.96
600.95	49.99
601.287	50.23
601.623	50.57
601.959	50.14
602.296	50.92
602.632	50.24
602.968	51.07
603.304	50.68
603.64	50.55
603.976	50.88
604.312	50.22
604.648	50.47
604.984	50.58
605.319	50.3
605.655	50.44
605.991	50.74
606.326	50.48
606.662	50.47
606.998	50.57
607.333	50.47
607.668	50.39
608.004	50.59
608.339	50.81
608.674	50.8
609.01	51.02
609.345	51.04
609.68	51.21
610.015	50.97
610.35	51.36
610.685	51.4
611.02	51.14
611.355	51.4
611.689	51.47
612.024	51.27
612.359	51.6
612.694	51.52
613.028	51.6
613.363	51.48
613.697	51.71
614.032	52.21
614.366	51.56
614.7	51.96
615.035	52
615.369	52.29
615.703	52.22
616.037	52.13
616.371	51.84
616.705	52.32
617.039	52.34
617.373	52.6
617.707	52.21
618.041	52.33
618.375	52.79
618.709	52.3
619.042	52.06
619.376	52.97
619.71	52.61
620.043	52.65
620.377	52.7
620.71	52.42
621.043	52.99
621.377	52.28
621.71	53.07
622.043	52.99
622.376	53.35
622.709	53.28
623.043	52.57
623.376	53.37
623.709	52.82
624.041	52.93
624.374	53.73
624.707	53.15
625.04	53.34
625.373	53.62
625.705	53.94
626.038	53.72
626.37	53.25
626.703	53.68
627.035	53.67
627.368	53.32
627.7	53.19
628.032	53.77
628.365	53.47
628.697	54.06
629.029	53.64
629.361	53.43
629.693	53.29
630.025	53.49
630.357	53.83
630.689	53.15
631.021	53.69
631.353	53.82
631.684	53.41
632.016	53.84
632.348	53.82
632.679	54.17
633.011	54.14
633.342	54.44
633.674	54.24
634.005	54.13
634.336	54.52
634.668	54.64
634.999	53.85
635.33	54.24
635.661	54.42
635.992	54.39
636.323	54.22
636.654	54.28
636.985	54.62
637.316	54.93
637.647	54.46
637.977	54.53
638.308	54.94
638.639	54.99
638.969	55.2
639.3	54.7
639.63	55.15
639.961	54.64
640.291	54.73
640.622	54.91
640.952	55.77
641.282	54.99
641.612	55.02
641.943	55.16
642.273	54.89
642.603	55.72
642.933	55.63
643.263	55.16
643.592	55.39
643.922	55.85
644.252	55.69
644.582	55.05
644.911	55.85
645.241	55.71
645.571	55.52
645.9	55.5
646.23	55.85
646.559	56.27
646.888	56.05
647.218	55.99
647.547	55.83
647.876	55.95
648.205	56.03
648.534	55.65
648.863	56.08
649.192	56.49
649.521	56.33
649.85	56.08
650.179	55.83
650.508	56.18
650.837	56.59
651.165	56.26
651.494	56.72
651.822	56.02
652.151	56.56
652.479	56.66
652.808	56.92
653.136	56.21
653.465	57.22
653.793	56.61
654.121	56.54
654.449	56.15
654.777	56.71
655.105	56.67
655.433	56.87
655.761	57.05
656.089	56.63
656.417	57.14
656.745	57.22
657.073	56.51
657.4	57.53
657.728	56.1
658.056	56.89
658.383	57
658.711	56.6
659.038	57.1
659.365	56.89
659.693	56.89
660.02	56.74
660.347	57.11
660.674	57.06
661.001	57.58
661.329	57.41
661.656	57.3
661.982	57.27
662.309	57.36
662.636	57.03
662.963	57.65
663.29	57.65
663.616	57.66
663.943	57.85
664.27	57.82
664.596	57.08
664.923	57.36
665.249	57.6
665.576	57.83
665.902	57.71
666.228	58.08
666.554	57.77
666.881	58.34
667.207	57.97
667.533	57.69
667.859	57.44
668.185	58.69
668.511	58.25
668.837	58.18
669.162	58.81
669.488	57.97
669.814	58.47
670.139	57.92
670.465	56.93
670.791	57.97
