Data from 0410_crown_Reflection__4__191.txt Node

Date: Tue Dec 12 19:55:37 CST 2023
User: ToomeyLab
Spectrometer: FLMS14357
Trigger mode: 0
Integration Time (sec): 1.000000E-2
Scans to average: 100
Electric dark correction enabled: true
Nonlinearity correction enabled: false
Boxcar width: 0
XAxis mode: Wavelengths
Number of Pixels in Spectrum: 2048
>>>>>Begin Spectral Data<<<<<
189.047	128.34
189.435	128.34
189.823	128.34
190.211	46.32
190.599	7.64
190.987	13.79
191.375	182.4
191.763	-395.55
192.151	25.74
192.538	161.66
192.926	128.8
193.314	-50.45
193.702	118.15
194.089	178.41
194.477	501.51
194.864	-143.48
195.252	-193.8
195.639	-11.29
196.027	119.94
196.414	-79.55
196.801	62.1
197.189	120.05
197.576	126.08
197.963	83.03
198.351	27.77
198.738	1.7
199.125	75.5
199.512	-75.38
199.899	36.08
200.286	47.71
200.673	-86.64
201.06	-28.6
201.447	-223.29
201.833	-4.21
202.22	-48.3
202.607	-238.89
202.994	3.33
203.38	-18.89
203.767	-9.72
204.154	5.13
204.54	31.15
204.927	-35.48
205.313	-1.06
205.699	24.54
206.086	-71.63
206.472	8.67
206.858	6.78
207.245	-62.75
207.631	5.65
208.017	-19.54
208.403	-38.92
208.789	-13.84
209.175	-125.44
209.561	50.32
209.947	-29.65
210.333	56.68
210.719	-57.08
211.105	-54.67
211.491	17.64
211.876	-9.53
212.262	-12.94
212.648	-88.64
213.034	-81.09
213.419	-3.11
213.805	-25.38
214.19	8.17
214.576	-15.01
214.961	-7.72
215.346	-38.21
215.732	37.09
216.117	-32.43
216.502	-53.42
216.888	-39.97
217.273	-6.41
217.658	-102.2
218.043	-45.59
218.428	-2.72
218.813	-2.73
219.198	-50.07
219.583	1.1
219.968	-54.4
220.353	-36.14
220.738	-1.71
221.122	-9.59
221.507	-56.08
221.892	-15.33
222.276	-7.52
222.661	1.73
223.046	-11.76
223.43	-0.93
223.815	-3.07
224.199	-3.15
224.583	-7.06
224.968	-12.04
225.352	-12.91
225.736	-2.84
226.121	-20.72
226.505	0.78
226.889	-2.1
227.273	4.5
227.657	0.97
228.041	3.81
228.425	4.38
228.809	3.96
229.193	-1.92
229.577	1.91
229.961	3.1
230.344	5.01
230.728	5.41
231.112	4.86
231.495	4.71
231.879	4.57
232.263	3.38
232.646	3.33
233.03	4.05
233.413	4.54
233.797	4.1
234.18	1.74
234.563	3.13
234.946	4.15
235.33	5.41
235.713	5.52
236.096	2.33
236.479	5.16
236.862	2.58
237.245	2.55
237.628	3.76
238.011	3.35
238.394	3.89
238.777	3.46
239.16	2.6
239.543	3.3
239.925	3.29
240.308	3.8
240.691	4.16
241.073	4.58
241.456	4.28
241.838	4.57
242.221	6.18
242.603	4.98
242.986	3.68
243.368	4.63
243.75	4.46
244.133	4.16
244.515	5.01
244.897	4.79
245.279	5.02
245.661	3.36
246.043	3.37
246.425	5.34
246.807	4.09
247.189	3.86
247.571	4.48
247.953	4.01
248.335	4.53
248.717	4.46
249.098	4.64
249.48	4.25
249.862	3.82
250.243	4.48
250.625	4.98
251.006	4.5
251.388	4.83
251.769	4.07
252.151	4.86
252.532	4.6
252.913	5.04
253.295	4.7
253.676	3.44
254.057	4.29
254.438	4.25
254.819	4.43
255.2	3.01
255.581	3.65
255.962	3.93
256.343	3.37
256.724	3.96
257.105	3.11
257.486	2.81
257.867	3.5
258.247	3.63
258.628	3.45
259.009	3.31
259.389	3.83
259.77	4.3
260.15	4.08
260.531	4.46
260.911	4.39
261.292	3.9
261.672	4.19
262.052	4.25
262.432	4.27
262.813	4.02
263.193	4.16
263.573	3.94
263.953	5.39
264.333	5.26
264.713	4.63
265.093	3.75
265.473	4.94
265.853	3.45
266.233	2.92
266.612	3.27
266.992	4.08
267.372	4.41
267.752	4.64
268.131	3.07
268.511	4.03
268.89	3.46
269.27	3.39
269.649	3.99
270.029	3.39
270.408	4.1
270.787	3.81
271.167	3.52
271.546	4.07
271.925	4.66
272.304	4.46
272.683	3.85
273.062	4.1
273.441	3.65
273.82	3.81
274.199	3.85
274.578	3.63
274.957	3.81
275.336	4.24
275.715	4.66
276.093	3.46
276.472	3.9
276.851	4.34
277.229	3.05
277.608	4.18
277.986	3.12
278.365	3.46
278.743	3.7
279.122	4.5
279.5	2.82
279.878	3.04
280.257	3.62
280.635	4.07
281.013	3.82
281.391	3.77
281.769	3.92
282.147	3.27
282.525	2.97
282.903	3.21
283.281	3.6
283.659	4.11
284.037	3.95
284.415	3.2
284.792	4.2
285.17	3.7
285.548	3.65
285.925	3.33
286.303	3.4
286.68	3.64
287.058	3.86
287.435	3.92
287.813	3.45
288.19	3.89
288.567	3.41
288.945	3.95
289.322	3.52
289.699	3.74
290.076	3.34
290.453	4.3
290.83	3.2
291.207	4.06
291.584	3.29
291.961	4
292.338	3.83
292.715	3.6
293.092	3.98
293.469	3.25
293.845	3.37
294.222	4.02
294.599	3.86
294.975	3.62
295.352	3.16
295.728	4.04
296.105	3.87
296.481	4.22
296.858	3.79
297.234	4.01
297.61	3.51
297.986	3.86
298.363	4.13
298.739	3.65
299.115	3.29
299.491	3.61
299.867	3.52
300.243	3.44
300.619	3.34
300.995	3.87
301.371	3.69
301.746	3.91
302.122	3.96
302.498	3.69
302.874	3.58
303.249	4.39
303.625	3.81
304	3.53
304.376	3.25
304.751	3.92
305.127	3.64
305.502	3.37
305.878	3.85
306.253	3.27
306.628	3.66
307.003	3.91
307.378	3.49
307.754	3.29
308.129	3.3
308.504	4.55
308.879	3.19
309.254	4.7
309.629	3.33
310.003	3.98
310.378	3.49
310.753	4.22
311.128	4.27
311.502	3.19
311.877	3.49
312.252	3.15
312.626	3.53
313.001	3.38
313.375	3.61
313.75	3.84
314.124	4.22
314.498	4.08
314.873	3.43
315.247	4.02
315.621	3.43
315.995	3.75
316.369	3.87
316.743	2.99
317.117	3.02
317.491	3.38
317.865	3.56
318.239	3.33
318.613	4.19
318.987	4.03
319.361	2.88
319.734	3.35
320.108	3.83
320.482	3.26
320.855	3.65
321.229	3.56
321.602	3.73
321.976	3.28
322.349	3.7
322.723	3.3
323.096	3.32
323.469	4.09
323.843	4.27
324.216	3.44
324.589	4.28
324.962	4.17
325.335	4.17
325.708	3.73
326.081	3.47
326.454	3.65
326.827	3.89
327.2	3.74
327.573	3.43
327.945	3.9
328.318	3.96
328.691	3.17
329.063	3.72
329.436	4
329.809	4.25
330.181	2.82
330.553	2.83
330.926	3.71
331.298	3.01
331.671	4
332.043	3.71
332.415	3.85
332.787	3.9
333.159	3.34
333.532	3.82
333.904	3.8
334.276	3.87
334.648	3.51
335.02	2.87
335.391	3.76
335.763	3.44
336.135	4.11
336.507	4.02
336.879	3.39
337.25	3.66
337.622	3.54
337.993	3.92
338.365	3.46
338.736	3.3
339.108	3.52
339.479	3.48
339.851	3.27
340.222	3.29
340.593	3.6
340.964	3.89
341.336	3.81
341.707	3.09
342.078	3.49
342.449	3.4
342.82	3.62
343.191	3.6
343.562	3.85
343.933	4
344.303	3.67
344.674	3.96
345.045	3.8
345.416	3.8
345.786	3.35
346.157	3.46
346.527	4.21
346.898	2.94
347.268	3.71
347.639	3.93
348.009	3.55
348.38	3.63
348.75	4.12
349.12	3.79
349.49	3.48
349.861	3.87
350.231	3.45
350.601	3.76
350.971	3.81
351.341	3.76
351.711	3.96
352.081	3.78
352.45	3.52
352.82	4.25
353.19	3.59
353.56	3.21
353.929	3.43
354.299	3.51
354.669	3.57
355.038	3.04
355.408	3.7
355.777	3.84
356.147	3.64
356.516	3.85
356.885	3.51
357.254	3.96
357.624	3.52
357.993	3.51
358.362	3.82
358.731	4.05
359.1	3.3
359.469	3.36
359.838	3.56
360.207	3.54
360.576	3.91
360.945	3.51
361.314	3.85
361.682	3.76
362.051	3.92
362.42	3.54
362.788	3.61
363.157	4.08
363.525	3.91
363.894	3.56
364.262	3.6
364.631	3.52
364.999	3.66
365.367	4.1
365.735	3.74
366.104	3.89
366.472	3.83
366.84	3.91
367.208	3.69
367.576	3.6
367.944	3.76
368.312	3.78
368.68	3.8
369.048	3.78
369.416	3.78
369.783	3.96
370.151	3.96
370.519	3.44
370.886	4.06
371.254	3.41
371.621	4.09
371.989	3.85
372.356	3.62
372.724	3.42
373.091	3.75
373.458	3.65
373.826	3.81
374.193	3.63
374.56	3.79
374.927	3.82
375.294	3.95
375.661	4.21
376.028	4.15
376.395	4.13
376.762	4.18
377.129	3.97
377.496	4
377.863	3.86
378.229	4.02
378.596	3.71
378.963	4.02
379.329	3.63
379.696	3.65
380.062	4.31
380.429	4.2
380.795	4.01
381.161	3.95
381.528	4.01
381.894	4.22
382.26	3.42
382.626	4.23
382.993	4.2
383.359	3.67
383.725	4.04
384.091	3.91
384.457	3.75
384.823	4.03
385.188	3.92
385.554	4.16
385.92	3.68
386.286	4.08
386.651	4.32
387.017	4.22
387.383	3.96
387.748	4.04
388.114	3.88
388.479	3.94
388.845	3.88
389.21	4
389.575	3.85
389.94	4.02
390.306	4.46
390.671	3.79
391.036	4.11
391.401	3.79
391.766	4.23
392.131	3.91
392.496	3.91
392.861	3.91
393.226	4.05
393.591	4.04
393.956	3.96
394.32	4.12
394.685	4.4
395.05	3.95
395.414	4.26
395.779	4.13
396.143	4.03
396.508	3.94
396.872	3.87
397.236	4.11
397.601	3.89
397.965	4.05
398.329	4.25
398.694	4.18
399.058	4.23
399.422	4.1
399.786	4.04
400.15	4.07
400.514	4.3
400.878	4.31
401.242	4.07
401.605	4.01
401.969	4.02
402.333	4.18
402.697	3.92
403.06	3.76
403.424	4.03
403.787	3.85
404.151	4.03
404.514	3.86
404.878	4.03
405.241	4.06
405.604	4.06
405.968	4.04
406.331	4.36
406.694	4.38
407.057	4.23
407.42	4.14
407.783	3.89
408.146	4.14
408.509	4.06
408.872	4.05
409.235	4.07
409.598	4.21
409.961	4.15
410.323	4.01
410.686	3.97
411.049	4.19
411.411	4.35
411.774	3.97
412.136	4.21
412.499	4.01
412.861	4.15
413.223	4.38
413.586	4.12
413.948	4.07
414.31	4.08
414.672	4.25
415.035	3.95
415.397	3.79
415.759	4.06
416.121	4.01
416.483	3.95
416.845	4.08
417.206	4.29
417.568	4.1
417.93	4.39
418.292	3.98
418.653	4.32
419.015	4.14
419.377	4.08
419.738	4.15
420.1	4.05
420.461	4.2
420.822	4.21
421.184	4.18
421.545	4.41
421.906	4.15
422.267	4.08
422.629	4.18
422.99	4.21
423.351	4.16
423.712	4.12
424.073	4.11
424.434	4.23
424.795	4.2
425.155	4.09
425.516	4.1
425.877	4.19
426.238	4.12
426.598	4.11
426.959	4.07
427.32	4.19
427.68	4.11
428.041	4.2
428.401	4.27
428.761	4.24
429.122	4.43
429.482	4.37
429.842	4.42
430.202	4.32
430.563	4.25
430.923	4.18
431.283	4.15
431.643	4.34
432.003	4.2
432.363	4.32
432.722	4.14
433.082	4.13
433.442	4.43
433.802	4.49
434.161	4.26
434.521	4.32
434.881	4.24
435.24	4.4
435.6	4.32
435.959	4.35
436.319	4.35
436.678	4.42
437.037	4.24
437.396	4.18
437.756	4.16
438.115	4.33
438.474	4.22
438.833	4.39
439.192	4.46
439.551	4.24
439.91	4.2
440.269	4.31
440.628	4.08
440.987	4.14
441.345	4.39
441.704	4.21
442.063	4.38
442.421	4.37
442.78	4.26
443.138	4.27
443.497	4.32
443.855	4.35
444.214	4.34
444.572	4.28
444.93	4.36
445.288	4.12
445.647	4.49
446.005	4.2
446.363	4.12
446.721	4.26
447.079	4.27
447.437	4.18
447.795	4.31
448.153	4.25
448.51	4.26
448.868	4.35
449.226	4.43
449.584	4.35
449.941	4.39
450.299	4.42
450.656	4.34
451.014	4.38
451.371	4.33
451.729	4.43
452.086	4.4
452.443	4.55
452.801	4.46
453.158	4.4
453.515	4.31
453.872	4.31
454.229	4.42
454.586	4.2
454.943	4.38
455.3	4.26
455.657	4.42
456.014	4.65
456.371	4.55
456.727	4.44
457.084	4.61
457.441	4.55
457.797	4.38
458.154	4.22
458.51	4.31
458.867	4.59
459.223	4.57
459.58	4.38
459.936	4.29
460.292	4.42
460.648	4.42
461.005	4.38
461.361	4.28
461.717	4.45
462.073	4.43
462.429	4.43
462.785	4.39
463.141	4.42
463.496	4.38
463.852	4.63
464.208	4.43
464.564	4.33
464.919	4.67
465.275	4.65
465.631	4.79
465.986	4.39
466.342	4.41
466.697	4.56
467.052	4.73
467.408	4.67
467.763	4.68
468.118	4.58
468.473	4.54
468.829	4.63
469.184	4.52
469.539	4.5
469.894	4.55
470.249	4.7
470.603	4.63
470.958	4.5
471.313	4.83
471.668	4.61
472.023	4.46
472.377	4.46
472.732	4.42
473.086	4.81
473.441	4.64
473.795	4.41
474.15	4.75
474.504	4.53
474.859	4.57
475.213	4.57
475.567	4.53
475.921	4.45
476.275	4.44
476.63	4.53
476.984	4.46
477.338	4.68
477.692	4.51
478.045	4.48
478.399	4.53
478.753	4.45
479.107	4.56
479.461	4.61
479.814	4.65
480.168	4.42
480.521	4.57
480.875	4.72
481.228	4.63
481.582	4.62
481.935	4.59
482.289	4.62
482.642	4.78
482.995	4.56
483.348	4.51
483.701	4.74
484.055	4.53
484.408	4.52
484.761	4.53
485.114	4.49
485.466	4.29
485.819	4.28
486.172	4.35
486.525	4.41
486.878	4.47
487.23	4.47
487.583	4.38
487.936	4.52
488.288	4.47
488.641	4.42
488.993	4.4
489.345	4.37
489.698	4.39
490.05	4.44
490.402	4.49
490.754	4.49
491.107	4.55
491.459	4.54
491.811	4.56
492.163	4.52
492.515	4.52
492.866	4.54
493.218	4.43
493.57	4.45
493.922	4.42
494.274	4.49
494.625	4.61
494.977	4.68
495.328	4.81
495.68	4.55
496.031	4.77
496.383	4.67
496.734	4.68
497.086	4.62
497.437	4.77
497.788	4.73
498.139	4.59
498.49	4.85
498.842	4.61
499.193	4.64
499.544	4.72
499.894	4.71
500.245	4.71
500.596	4.76
500.947	4.76
501.298	4.74
501.648	4.92
501.999	4.75
502.35	4.77
502.7	4.71
503.051	4.71
503.401	4.78
503.752	4.89
504.102	4.82
504.452	4.84
504.803	4.81
505.153	4.7
505.503	4.83
505.853	4.83
506.203	4.75
506.553	4.72
506.903	4.87
507.253	4.76
507.603	4.81
507.953	4.78
508.303	4.83
508.652	4.74
509.002	4.86
509.352	4.69
509.701	4.69
510.051	4.82
510.4	4.71
510.75	4.68
511.099	4.68
511.449	4.87
511.798	4.79
512.147	4.74
512.496	4.83
512.846	4.9
513.195	4.71
513.544	4.95
513.893	4.78
514.242	4.73
514.591	4.71
514.939	4.88
515.288	4.79
515.637	4.95
515.986	4.77
516.334	4.89
516.683	4.8
517.032	4.91
517.38	4.81
517.729	4.94
518.077	4.8
518.426	5.06
518.774	4.84
519.122	4.84
519.47	4.85
519.819	4.71
520.167	4.83
520.515	4.69
520.863	4.83
521.211	4.76
521.559	4.85
521.907	4.78
522.255	4.8
522.602	4.93
522.95	4.82
523.298	4.8
523.645	5.01
523.993	4.97
524.341	4.82
524.688	4.89
525.036	4.89
525.383	4.94
525.73	4.81
526.078	4.93
526.425	4.79
526.772	4.82
527.119	4.9
527.466	4.82
527.814	4.67
528.161	4.83
528.508	4.8
528.854	4.73
529.201	4.85
529.548	4.76
529.895	4.67
530.242	4.61
530.588	4.57
530.935	4.69
531.282	4.72
531.628	4.74
531.975	4.72
532.321	4.66
532.667	4.7
533.014	4.82
533.36	4.77
533.706	4.88
534.052	4.73
534.399	4.84
534.745	4.75
535.091	4.69
535.437	4.79
535.783	4.68
536.129	4.87
536.474	4.81
536.82	4.87
537.166	4.95
537.512	4.92
537.857	4.9
538.203	4.8
538.549	4.81
538.894	4.88
539.239	4.85
539.585	4.95
539.93	4.97
540.276	4.84
540.621	4.86
540.966	4.94
541.311	4.96
541.656	5.04
542.001	4.95
542.346	4.84
542.691	4.79
543.036	4.66
543.381	4.66
543.726	4.8
544.071	4.79
544.415	4.77
544.76	4.8
545.105	4.84
545.449	4.93
545.794	4.98
546.138	4.83
546.483	5.03
546.827	4.94
547.171	4.95
547.516	4.92
547.86	4.93
548.204	4.98
548.548	4.98
548.892	5
549.236	4.93
549.58	5.04
549.924	4.96
550.268	5.05
550.612	4.81
550.956	4.99
551.3	5.15
551.643	5.02
551.987	5.16
552.33	5.09
552.674	5.2
553.017	5.18
553.361	5.16
553.704	5.06
554.048	5.22
554.391	5
554.734	5.01
555.077	5.02
555.42	4.99
555.764	5.07
556.107	5.13
556.45	5.02
556.793	5.09
557.135	5.08
557.478	5.14
557.821	5.08
558.164	5.07
558.507	5.18
558.849	4.97
559.192	5.09
559.534	5.14
559.877	5.26
560.219	5.15
560.562	5.15
560.904	5.26
561.246	5.18
561.589	5.17
561.931	5.23
562.273	4.99
562.615	5.2
562.957	5.04
563.299	5.29
563.641	5.24
563.983	5.23
564.325	5.03
564.667	5.22
565.008	4.89
565.35	4.94
565.692	5.36
566.033	5.16
566.375	5.04
566.716	5.07
567.058	5.24
567.399	5.24
567.741	5.02
568.082	5.03
568.423	5.14
568.764	5.16
569.105	5.06
569.447	5.12
569.788	5.19
570.129	5.03
570.47	5.1
570.811	5.24
571.151	5.33
571.492	5.16
571.833	5.3
572.174	5.13
572.514	5.13
572.855	5.2
573.195	5.18
573.536	5.15
573.876	5.24
574.217	5.11
574.557	5.1
574.898	5.21
575.238	5.23
575.578	5.18
575.918	5.16
576.258	5.25
576.598	5.19
576.938	5.22
577.278	5.18
577.618	5.36
577.958	5.13
578.298	5.27
578.638	5.15
578.977	5.2
579.317	5.2
579.657	5.3
579.996	5.29
580.336	5.21
580.675	5.1
581.014	5.21
581.354	5.2
581.693	5.12
582.032	5.03
582.372	4.98
582.711	5.45
583.05	5.39
583.389	5.31
583.728	5.32
584.067	5.46
584.406	5.24
584.745	5.34
585.083	5.28
585.422	5.29
585.761	5.66
586.1	5.18
586.438	5.5
586.777	5.34
587.115	5.2
587.454	5.45
587.792	5.15
588.13	5.48
588.469	5.35
588.807	5.16
589.145	5.37
589.483	5.21
589.821	5.38
590.159	5.48
590.497	5.3
590.835	5.56
591.173	5.29
591.511	5.28
591.849	5.28
592.187	5.41
592.524	5.12
592.862	5.49
593.2	4.98
593.537	5.01
593.875	5.47
594.212	5.29
594.55	5.58
594.887	5.67
595.224	5.31
595.561	5.83
595.899	5.25
596.236	5.55
596.573	5.34
596.91	5.57
597.247	5.34
597.584	5.47
597.921	5.29
598.258	5.34
598.594	5.45
598.931	5.38
599.268	5.17
599.604	5.24
599.941	5.41
600.277	5.25
600.614	5.54
600.95	5.53
601.287	5.24
601.623	5.47
601.959	5.23
602.296	5.6
602.632	5.24
602.968	5.24
603.304	5.48
603.64	5.44
603.976	5.2
604.312	5.43
604.648	5.43
604.984	5.54
605.319	5.41
605.655	5.36
605.991	5.45
606.326	5.4
606.662	5.46
606.998	5.21
607.333	5.52
607.668	5.49
608.004	5.47
608.339	5.36
608.674	5.42
609.01	5.25
609.345	5.74
609.68	5.55
610.015	5.21
610.35	5.28
610.685	5.33
611.02	5.52
611.355	5.25
611.689	5.22
612.024	5.53
612.359	5.33
612.694	5.43
613.028	5.49
613.363	5.37
613.697	5.73
614.032	5.65
614.366	5.87
614.7	5.27
615.035	5.29
615.369	5.62
615.703	5.46
616.037	5.56
616.371	5.25
616.705	5.77
617.039	5.37
617.373	5.28
617.707	5.02
618.041	5.26
618.375	4.98
618.709	5.36
619.042	5.29
619.376	5.35
619.71	5.69
620.043	5.51
620.377	5.62
620.71	5.46
621.043	5.19
621.377	5.1
621.71	5.36
622.043	5.97
622.376	5.66
622.709	5.37
623.043	5.79
623.376	5.78
623.709	5.66
624.041	5.48
624.374	5.74
624.707	5.3
625.04	5.41
625.373	5.63
625.705	5.86
626.038	5.6
626.37	5.8
626.703	5.8
627.035	5.35
627.368	5.76
627.7	5.39
628.032	5.54
628.365	5.64
628.697	5.5
629.029	5.38
629.361	5.5
629.693	5.16
630.025	5.13
630.357	5.64
630.689	5.31
631.021	5.55
631.353	5.81
631.684	5.82
632.016	5.74
632.348	6.04
632.679	5.32
633.011	6.07
633.342	5.95
633.674	5.69
634.005	5.84
634.336	5.96
634.668	5.62
634.999	5.57
635.33	6
635.661	5.51
635.992	5.71
636.323	5.59
636.654	5.93
636.985	5.77
637.316	5.39
637.647	5.53
637.977	5.76
638.308	5.77
638.639	5.38
638.969	5.66
639.3	5.56
639.63	5.96
639.961	5.63
640.291	5.41
640.622	5.69
640.952	5.61
641.282	5.76
641.612	5.66
641.943	5.28
642.273	5.84
642.603	6.86
642.933	5.94
643.263	5.89
643.592	6.04
643.922	6.17
644.252	6.04
644.582	4.96
644.911	6.02
645.241	5.36
645.571	6.4
645.9	5.52
646.23	5.83
646.559	6.35
646.888	5.78
647.218	5.99
647.547	5.69
647.876	5.7
648.205	5.77
648.534	5.64
648.863	5.92
649.192	6.14
649.521	6.41
649.85	5.3
650.179	6.25
650.508	6.35
650.837	6.2
651.165	5.54
651.494	5.56
651.822	6.15
652.151	6.55
652.479	6.12
652.808	6.32
653.136	5.82
653.465	5.74
653.793	5.87
654.121	5.69
654.449	5.95
654.777	6
655.105	5.91
655.433	5.86
655.761	6
656.089	5.18
656.417	6.31
656.745	5.9
657.073	5.65
657.4	5.95
657.728	5.15
658.056	5.83
658.383	5.06
658.711	5.73
659.038	5.57
659.365	5.91
659.693	5.76
660.02	5.83
660.347	6.06
660.674	6.28
661.001	6.27
661.329	6.22
661.656	5.97
661.982	5.64
662.309	5.93
662.636	5.54
662.963	6.24
663.29	5.92
663.616	6.24
663.943	5.97
664.27	5.93
664.596	5.79
664.923	6.39
665.249	5.7
665.576	6.14
665.902	5.66
666.228	6.29
666.554	5.78
666.881	5.89
667.207	5.87
667.533	6.5
667.859	5.58
668.185	5.78
668.511	6.32
668.837	5.79
669.162	6.92
669.488	6.02
669.814	6.08
670.139	5.96
670.465	5.57
670.791	5.99
671.116	5.93
671.442	5.91
671.767	6.09
672.092	6.07
672.418	5.82
672.743	6.35
673.068	5.47
673.393	5.78
673.718	6.55
674.043	6.5
674.368	5.59
674.693	5.2
675.018	6.16
675.343	5.68
675.667	5.87
675.992	6.19
676.317	6.17
676.641	6.02
676.966	6.46
677.29	5.92
677.615	5.8
677.939	5.88
678.264	6.31
678.588	5.91
678.912	6.45
679.236	6.45
679.56	6.26
679.885	6.68
680.209	6.47
680.532	6.3
680.856	5.76
681.18	6.2
681.504	6.04
681.828	5.89
682.152	5.92
682.475	6.5
682.799	6.24
683.122	6.38
683.446	6.38
683.769	6.82
684.093	5.3
684.416	6.17
684.739	7.03
685.062	6.08
685.386	6.92
685.709	6.55
686.032	6.75
686.355	6.2
686.678	7.05
687.001	6.38
687.324	6.54
687.646	6.69
687.969	6.28
688.292	6.43
688.614	6.12
688.937	6.04
689.26	6.81
689.582	5.9
689.904	5.93
690.227	6.37
690.549	7.08
690.871	6.52
691.194	6.44
691.516	6.42
691.838	6.23
