Data from 0410_chest_Reflection__4__186.txt Node

Date: Tue Dec 12 19:53:58 CST 2023
User: ToomeyLab
Spectrometer: FLMS14357
Trigger mode: 0
Integration Time (sec): 1.000000E-2
Scans to average: 100
Electric dark correction enabled: true
Nonlinearity correction enabled: false
Boxcar width: 0
XAxis mode: Wavelengths
Number of Pixels in Spectrum: 2048
>>>>>Begin Spectral Data<<<<<
189.047	415.55
189.435	415.55
189.823	415.55
190.211	-112.63
190.599	-8.83
190.987	116.14
191.375	-483.54
191.763	132.28
192.151	60.29
192.538	-206.48
192.926	17.13
193.314	18.91
193.702	-65.73
194.089	-110.91
194.477	-21.45
194.864	-103.8
195.252	229.25
195.639	17.69
196.027	87.47
196.414	-56.3
196.801	51.86
197.189	-47.78
197.576	252.89
197.963	61.16
198.351	43.39
198.738	7.2
199.125	27.37
199.512	-24
199.899	19.31
200.286	32.11
200.673	-38.72
201.06	-10.87
201.447	-9.57
201.833	15
202.22	20.51
202.607	-188.11
202.994	5.41
203.38	-7.7
203.767	-25.93
204.154	11.47
204.54	21.89
204.927	-31.54
205.313	16.41
205.699	-28.81
206.086	24.36
206.472	29.43
206.858	-39.28
207.245	-19.6
207.631	19.63
208.017	8.57
208.403	-28.47
208.789	15.44
209.175	-49.71
209.561	-14.91
209.947	-15.08
210.333	30.87
210.719	9.52
211.105	0.37
211.491	15.02
211.876	46.75
212.262	65.73
212.648	-60.06
213.034	-18.91
213.419	-21.33
213.805	-9.13
214.19	-10.06
214.576	15.05
214.961	39.33
215.346	-55.26
215.732	10.28
216.117	6.84
216.502	-31.08
216.888	-35.87
217.273	-33.51
217.658	-7.06
218.043	-21.79
218.428	11.71
218.813	-14.71
219.198	-61.01
219.583	15.82
219.968	26.08
220.353	11.73
220.738	-13.33
221.122	10.4
221.507	-4.33
221.892	1.52
222.276	10.81
222.661	-0.03
223.046	-21.87
223.43	-13.46
223.815	-14.64
224.199	4.64
224.583	-8.02
224.968	-2.48
225.352	-20.82
225.736	4.6
226.121	0.91
226.505	-2.05
226.889	-1.97
227.273	-3.01
227.657	10.61
228.041	6.44
228.425	1.6
228.809	-3.73
229.193	-0.26
229.577	3.18
229.961	2.79
230.344	3.41
230.728	4.07
231.112	4.35
231.495	3.76
231.879	4.13
232.263	4.44
232.646	1.76
233.03	5.03
233.413	3.96
233.797	3.95
234.18	-2.31
234.563	0.2
234.946	4.51
235.33	6.41
235.713	4.58
236.096	3.46
236.479	2.42
236.862	1.85
237.245	2.27
237.628	1.71
238.011	2.66
238.394	2.31
238.777	4.14
239.16	3.78
239.543	2.61
239.925	5.24
240.308	3.38
240.691	2.94
241.073	3.79
241.456	3.67
241.838	2.77
242.221	4.54
242.603	3.92
242.986	2.37
243.368	4.33
243.75	2.55
244.133	3.54
244.515	3.51
244.897	3.45
245.279	3.8
245.661	2.8
246.043	1.62
246.425	4.32
246.807	3.07
247.189	3.61
247.571	4.47
247.953	2.87
248.335	3.35
248.717	3.31
249.098	3.53
249.48	3.25
249.862	3.26
250.243	3.28
250.625	4.07
251.006	2.98
251.388	3.2
251.769	2.24
252.151	2.55
252.532	3.15
252.913	4.78
253.295	3.44
253.676	2.99
254.057	2.78
254.438	3.93
254.819	2.77
255.2	2.45
255.581	3.01
255.962	1.86
256.343	2.96
256.724	2.42
257.105	2.84
257.486	2.21
257.867	2.65
258.247	1.74
258.628	2.71
259.009	2.5
259.389	2.65
259.77	3.55
260.15	2.81
260.531	3.34
260.911	3.48
261.292	2.66
261.672	3
262.052	3.24
262.432	3.07
262.813	3.32
263.193	3.55
263.573	3.08
263.953	5.05
264.333	4.65
264.713	2.82
265.093	3.33
265.473	3.78
265.853	2.19
266.233	3.26
266.612	2.23
266.992	3.09
267.372	3.93
267.752	4.14
268.131	2.26
268.511	2.8
268.89	2.64
269.27	2.41
269.649	2.87
270.029	2.69
270.408	3.47
270.787	2.9
271.167	3.1
271.546	3.44
271.925	4.12
272.304	3.57
272.683	2.84
273.062	3.32
273.441	3.48
273.82	2.51
274.199	3.02
274.578	3.29
274.957	2.56
275.336	3.52
275.715	2.77
276.093	2.3
276.472	2.45
276.851	2.93
277.229	2.82
277.608	2.87
277.986	3.02
278.365	2.68
278.743	2.96
279.122	3.65
279.5	2.53
279.878	3.08
280.257	3.06
280.635	2.47
281.013	2.99
281.391	2.72
281.769	3.01
282.147	2.88
282.525	1.96
282.903	2.61
283.281	2.36
283.659	2.93
284.037	3.04
284.415	2.75
284.792	3.73
285.17	3
285.548	3.02
285.925	2.33
286.303	2.91
286.68	2.98
287.058	2.82
287.435	2.84
287.813	2.41
288.19	2.59
288.567	3.02
288.945	2.81
289.322	2.26
289.699	2.86
290.076	2.71
290.453	2.67
290.83	2.69
291.207	3.43
291.584	2.98
291.961	3.04
292.338	2.85
292.715	2.71
293.092	2.74
293.469	3.27
293.845	3.2
294.222	2.4
294.599	2.48
294.975	2.62
295.352	3.08
295.728	2.96
296.105	3.12
296.481	2.94
296.858	3.28
297.234	3.85
297.61	3.43
297.986	3.29
298.363	3.14
298.739	2.76
299.115	2.59
299.491	3.02
299.867	2.98
300.243	2.71
300.619	2.57
300.995	3.81
301.371	2.91
301.746	2.85
302.122	3.39
302.498	2.96
302.874	2.98
303.249	4.15
303.625	2.77
304	3.17
304.376	3.32
304.751	3.26
305.127	2.54
305.502	3.09
305.878	3.01
306.253	2.97
306.628	2.72
307.003	2.87
307.378	3.14
307.754	3.18
308.129	2.55
308.504	4.41
308.879	2.29
309.254	3.13
309.629	2.32
310.003	3.26
310.378	2.72
310.753	3.41
311.128	3.28
311.502	2.68
311.877	2.48
312.252	2.42
312.626	2.96
313.001	2.71
313.375	2.92
313.75	3.09
314.124	3.11
314.498	3.26
314.873	2.49
315.247	3.7
315.621	3.18
315.995	3.54
316.369	3.36
316.743	2.95
317.117	2.33
317.491	3.11
317.865	3.32
318.239	2.81
318.613	3.57
318.987	3.44
319.361	2.86
319.734	3.05
320.108	3.08
320.482	2.77
320.855	2.78
321.229	3.07
321.602	3.14
321.976	3.18
322.349	3.33
322.723	3.27
323.096	3.05
323.469	2.97
323.843	3.35
324.216	3.04
324.589	3.19
324.962	3.62
325.335	2.93
325.708	2.64
326.081	3.01
326.454	2.67
326.827	3.16
327.2	2.95
327.573	2.55
327.945	3.31
328.318	3.46
328.691	2.5
329.063	3.61
329.436	3.29
329.809	2.89
330.181	2.44
330.553	2.83
330.926	3.34
331.298	3.04
331.671	3.23
332.043	2.61
332.415	3.43
332.787	2.91
333.159	2.53
333.532	2.83
333.904	2.92
334.276	3.58
334.648	2.55
335.02	2.07
335.391	2.58
335.763	2.82
336.135	3.01
336.507	3.52
336.879	2.89
337.25	3.44
337.622	3.01
337.993	3.46
338.365	3.01
338.736	2.61
339.108	2.78
339.479	3.02
339.851	2.55
340.222	2.22
340.593	3.21
340.964	3.18
341.336	3.06
341.707	3.22
342.078	2.8
342.449	2.47
342.82	3.27
343.191	3.24
343.562	3.02
343.933	3.24
344.303	3.26
344.674	2.93
345.045	3.28
345.416	3.03
345.786	2.57
346.157	2.97
346.527	3.4
346.898	2.34
347.268	3
347.639	3.27
348.009	3.05
348.38	2.9
348.75	3.26
349.12	3.28
349.49	2.88
349.861	3.14
350.231	2.78
350.601	3.5
350.971	3.29
351.341	2.99
351.711	3.09
352.081	2.86
352.45	2.93
352.82	3.42
353.19	2.78
353.56	2.96
353.929	2.7
354.299	3.36
354.669	2.81
355.038	2.89
355.408	3.4
355.777	3.38
356.147	2.97
356.516	3.35
356.885	3.51
357.254	3.07
357.624	2.7
357.993	3.23
358.362	3.05
358.731	3.4
359.1	2.96
359.469	2.81
359.838	3.2
360.207	3.03
360.576	3.63
360.945	2.79
361.314	3.15
361.682	3.16
362.051	3.5
362.42	3.28
362.788	3.28
363.157	3.35
363.525	3.08
363.894	3.31
364.262	2.99
364.631	2.86
364.999	3.24
365.367	3.35
365.735	3.13
366.104	3.17
366.472	3.25
366.84	3.15
367.208	3.02
367.576	3.09
367.944	3.33
368.312	3.37
368.68	2.79
369.048	3.37
369.416	3.15
369.783	3.34
370.151	2.57
370.519	3.05
370.886	3.3
371.254	3.22
371.621	3.36
371.989	2.9
372.356	2.87
372.724	3.11
373.091	2.82
373.458	3.21
373.826	3.48
374.193	2.93
374.56	3.23
374.927	3.12
375.294	3.01
375.661	3.34
376.028	3.17
376.395	3.26
376.762	3.53
377.129	3.27
377.496	3.19
377.863	3.14
378.229	3.34
378.596	2.98
378.963	3.33
379.329	3.07
379.696	3.07
380.062	3.47
380.429	3.33
380.795	3.05
381.161	3.32
381.528	2.83
381.894	3.3
382.26	3
382.626	3.42
382.993	3.37
383.359	2.99
383.725	2.93
384.091	3.08
384.457	3.18
384.823	3.14
385.188	3.28
385.554	3.62
385.92	3.38
386.286	3.49
386.651	3.5
387.017	3.59
387.383	3.4
387.748	3.2
388.114	3.15
388.479	3.41
388.845	3.32
389.21	3.3
389.575	3.05
389.94	3.3
390.306	3.23
390.671	3.59
391.036	3.33
391.401	3.41
391.766	3.24
392.131	3.4
392.496	3.34
392.861	3.15
393.226	3.42
393.591	3.35
393.956	3.41
394.32	3.34
394.685	3.33
395.05	3.28
395.414	3.51
395.779	3.34
396.143	3.44
396.508	3.18
396.872	3.45
397.236	3.34
397.601	3.37
397.965	3.4
398.329	3.46
398.694	3.24
399.058	3.46
399.422	3.24
399.786	3.38
400.15	3.3
400.514	3.59
400.878	3.38
401.242	3.32
401.605	3.6
401.969	3.32
402.333	3.42
402.697	3.47
403.06	3.39
403.424	3.36
403.787	3.19
404.151	3.53
404.514	3.33
404.878	3.39
405.241	3.54
405.604	3.39
405.968	3.17
406.331	3.5
406.694	3.8
407.057	3.43
407.42	3.33
407.783	3.21
408.146	3.36
408.509	3.35
408.872	3.43
409.235	3.45
409.598	3.24
409.961	3.42
410.323	3.69
410.686	3.36
411.049	3.52
411.411	3.56
411.774	3.37
412.136	3.51
412.499	3.45
412.861	3.5
413.223	3.79
413.586	3.21
413.948	3.21
414.31	3.29
414.672	3.61
415.035	3.51
415.397	3.51
415.759	3.35
416.121	3.59
416.483	3.52
416.845	3.52
417.206	3.63
417.568	3.56
417.93	3.43
418.292	3.35
418.653	3.57
419.015	3.42
419.377	3.42
419.738	3.43
420.1	3.27
420.461	3.56
420.822	3.48
421.184	3.47
421.545	3.59
421.906	3.43
422.267	3.46
422.629	3.41
422.99	3.42
423.351	3.4
423.712	3.51
424.073	3.57
424.434	3.48
424.795	3.47
425.155	3.31
425.516	3.38
425.877	3.47
426.238	3.47
426.598	3.45
426.959	3.47
427.32	3.63
427.68	3.46
428.041	3.66
428.401	3.55
428.761	3.55
429.122	3.54
429.482	3.79
429.842	3.75
430.202	3.43
430.563	3.54
430.923	3.68
431.283	3.57
431.643	3.62
432.003	3.64
432.363	3.62
432.722	3.51
433.082	3.62
433.442	3.5
433.802	3.89
434.161	3.59
434.521	3.63
434.881	3.68
435.24	3.59
435.6	3.6
435.959	3.71
436.319	3.6
436.678	3.77
437.037	3.64
437.396	3.45
437.756	3.56
438.115	3.63
438.474	3.43
438.833	3.74
439.192	3.81
439.551	3.62
439.91	3.54
440.269	3.68
440.628	3.54
440.987	3.52
441.345	3.8
441.704	3.54
442.063	3.73
442.421	3.73
442.78	3.67
443.138	3.61
443.497	3.75
443.855	3.7
444.214	3.82
444.572	3.85
444.93	3.77
445.288	3.55
445.647	3.82
446.005	3.78
446.363	3.53
446.721	3.58
447.079	3.79
447.437	3.5
447.795	3.65
448.153	3.61
448.51	3.71
448.868	3.75
449.226	3.78
449.584	3.64
449.941	3.68
450.299	3.76
450.656	3.73
451.014	3.72
451.371	3.72
451.729	3.85
452.086	3.82
452.443	3.97
452.801	3.84
453.158	3.73
453.515	3.84
453.872	3.81
454.229	3.9
454.586	3.7
454.943	3.67
455.3	3.68
455.657	3.92
456.014	4.13
456.371	3.95
456.727	3.81
457.084	3.93
457.441	3.98
457.797	3.8
458.154	3.89
458.51	3.93
458.867	4.05
459.223	3.76
459.58	3.76
459.936	3.65
460.292	3.89
460.648	3.81
461.005	3.87
461.361	3.76
461.717	3.91
462.073	3.83
462.429	3.79
462.785	3.79
463.141	3.95
463.496	3.77
463.852	4.15
464.208	3.9
464.564	3.97
464.919	4.11
465.275	3.84
465.631	4.11
465.986	3.93
466.342	3.92
466.697	4
467.052	4.15
467.408	3.92
467.763	3.81
468.118	4.05
468.473	4.01
468.829	4.07
469.184	3.71
469.539	4.03
469.894	3.99
470.249	4.08
470.603	3.99
470.958	3.91
471.313	4.09
471.668	4.13
472.023	4.01
472.377	4.08
472.732	4.06
473.086	4.06
473.441	4.21
473.795	3.95
474.15	4.09
474.504	3.88
474.859	4.05
475.213	3.96
475.567	4.12
475.921	4.05
476.275	4.04
476.63	4.13
476.984	4.17
477.338	4.03
477.692	3.83
478.045	4.13
478.399	4.07
478.753	4.04
479.107	4.03
479.461	4.14
479.814	4.1
480.168	3.96
480.521	4.07
480.875	4.14
481.228	4.26
481.582	4.14
481.935	4.14
482.289	4.17
482.642	4.26
482.995	4.13
483.348	4.09
483.701	4.32
484.055	4.16
484.408	4.04
484.761	4.07
485.114	3.96
485.466	3.95
485.819	3.92
486.172	3.93
486.525	4
486.878	4.01
487.23	4.03
487.583	4.02
487.936	4.15
488.288	4.06
488.641	4.03
488.993	4
489.345	4.01
489.698	4.05
490.05	4.05
490.402	4.06
490.754	4.07
491.107	4.11
491.459	4.19
491.811	4.29
492.163	4.21
492.515	4.25
492.866	4.15
493.218	4.12
493.57	4.07
493.922	4.12
494.274	4.16
494.625	4.31
494.977	4.4
495.328	4.46
495.68	4.27
496.031	4.45
496.383	4.44
496.734	4.32
497.086	4.34
497.437	4.45
497.788	4.36
498.139	4.42
498.49	4.35
498.842	4.41
499.193	4.35
499.544	4.43
499.894	4.45
500.245	4.48
500.596	4.54
500.947	4.4
501.298	4.52
501.648	4.5
501.999	4.39
502.35	4.61
502.7	4.37
503.051	4.49
503.401	4.54
503.752	4.63
504.102	4.46
504.452	4.52
504.803	4.61
505.153	4.56
505.503	4.76
505.853	4.73
506.203	4.63
506.553	4.57
506.903	4.66
507.253	4.6
507.603	4.57
507.953	4.61
508.303	4.75
508.652	4.6
509.002	4.71
509.352	4.64
509.701	4.67
510.051	4.67
510.4	4.61
510.75	4.62
511.099	4.62
511.449	4.63
511.798	4.61
512.147	4.71
512.496	4.73
512.846	4.67
513.195	4.59
513.544	4.79
513.893	4.75
514.242	4.69
514.591	4.82
514.939	4.68
515.288	4.73
515.637	4.59
515.986	4.72
516.334	4.81
516.683	4.7
517.032	4.83
517.38	4.86
517.729	4.96
518.077	4.76
518.426	4.89
518.774	4.86
519.122	4.92
519.47	4.85
519.819	4.86
520.167	4.83
520.515	4.72
520.863	4.87
521.211	4.84
521.559	5.01
521.907	4.93
522.255	4.94
522.602	4.96
522.95	5.02
523.298	4.9
523.645	5.11
523.993	5.08
524.341	4.99
524.688	5.05
525.036	5.15
525.383	5.03
525.73	4.87
526.078	5.1
526.425	5.02
526.772	4.94
527.119	5
527.466	5.07
527.814	4.97
528.161	5.08
528.508	5.06
528.854	5.14
529.201	5.08
529.548	5.01
529.895	4.97
530.242	4.86
530.588	4.89
530.935	4.92
531.282	4.99
531.628	5.07
531.975	5.07
532.321	5.11
532.667	5.14
533.014	5.18
533.36	5.15
533.706	5.14
534.052	5.2
534.399	5.24
534.745	5.16
535.091	5.17
535.437	5.19
535.783	5.19
536.129	5.36
536.474	5.29
536.82	5.31
537.166	5.4
537.512	5.4
537.857	5.47
538.203	5.4
538.549	5.36
538.894	5.41
539.239	5.43
539.585	5.54
539.93	5.52
540.276	5.57
540.621	5.59
540.966	5.48
541.311	5.54
541.656	5.63
542.001	5.53
542.346	5.51
542.691	5.56
543.036	5.45
543.381	5.38
543.726	5.46
544.071	5.49
544.415	5.51
544.76	5.6
545.105	5.58
545.449	5.65
545.794	5.75
546.138	5.67
546.483	5.69
546.827	5.84
547.171	5.84
547.516	5.84
547.86	5.97
548.204	5.85
548.548	5.77
548.892	5.81
549.236	5.95
549.58	6.02
549.924	5.92
550.268	6.1
550.612	5.91
550.956	6.16
551.3	6.12
551.643	6.04
551.987	6.08
552.33	5.97
552.674	6.13
553.017	6.4
553.361	6.42
553.704	6.06
554.048	6.28
554.391	6.34
554.734	6.25
555.077	6.33
555.42	6.24
555.764	6.38
556.107	6.4
556.45	6.27
556.793	6.45
557.135	6.45
557.478	6.43
557.821	6.43
558.164	6.31
558.507	6.76
558.849	6.39
559.192	6.47
559.534	6.49
559.877	6.68
560.219	6.55
560.562	6.63
560.904	6.86
561.246	6.67
561.589	6.85
561.931	6.63
562.273	6.62
562.615	6.69
562.957	6.82
563.299	6.79
563.641	6.93
563.983	6.68
564.325	6.95
564.667	6.89
565.008	6.85
565.35	6.84
565.692	6.96
566.033	6.87
566.375	6.88
566.716	6.85
567.058	6.98
567.399	7.07
567.741	7.04
568.082	6.94
568.423	7
568.764	7.04
569.105	7.14
569.447	7.16
569.788	7.1
570.129	7.07
570.47	7.16
570.811	7.24
571.151	7.32
571.492	7.32
571.833	7.34
572.174	7.32
572.514	7.47
572.855	7.5
573.195	7.32
573.536	7.3
573.876	7.37
574.217	7.42
574.557	7.49
574.898	7.48
575.238	7.55
575.578	7.52
575.918	7.6
576.258	7.88
576.598	7.48
576.938	7.64
577.278	7.65
577.618	7.59
577.958	7.75
578.298	7.77
578.638	7.76
578.977	7.71
579.317	7.68
579.657	7.78
579.996	8.04
580.336	7.86
580.675	7.94
581.014	7.87
581.354	7.98
581.693	8.04
582.032	7.83
582.372	8.07
582.711	8.13
583.05	8.37
583.389	8.31
583.728	8.33
584.067	8.27
584.406	8.39
584.745	8.17
585.083	8.18
585.422	8.31
585.761	8.46
586.1	8.33
586.438	8.49
586.777	8.47
587.115	8.1
587.454	8.45
587.792	8.47
588.13	8.81
588.469	8.72
588.807	8.72
589.145	8.72
589.483	8.65
589.821	8.93
590.159	8.69
590.497	8.74
590.835	8.86
591.173	8.61
591.511	8.8
591.849	8.83
592.187	9.16
592.524	8.82
592.862	8.71
593.2	8.77
593.537	8.46
593.875	8.95
594.212	8.89
594.55	9.26
594.887	9.44
595.224	9.46
595.561	9.25
595.899	9.18
596.236	9.19
596.573	9.14
596.91	9.09
597.247	9.17
597.584	9.2
597.921	9.37
598.258	9.56
598.594	9.55
598.931	9.44
599.268	9.35
599.604	9.21
599.941	9.46
600.277	9.47
600.614	9.8
600.95	9.94
601.287	9.83
601.623	9.85
601.959	9.82
602.296	9.71
602.632	9.7
602.968	9.98
603.304	9.85
603.64	10.17
603.976	9.73
604.312	9.79
604.648	9.99
604.984	10.05
605.319	9.89
605.655	10.01
605.991	10.18
606.326	9.75
606.662	10.07
606.998	10.01
607.333	10.26
607.668	10.04
608.004	10.24
608.339	10.33
608.674	10.06
609.01	10.46
609.345	10.57
609.68	10.3
610.015	10.24
610.35	10.37
610.685	10.54
611.02	10.52
611.355	10.59
611.689	10.44
612.024	10.45
612.359	10.72
612.694	10.59
613.028	10.72
613.363	10.62
613.697	10.64
614.032	10.69
614.366	10.87
614.7	10.56
615.035	10.8
615.369	10.88
615.703	11.04
616.037	10.91
616.371	11.11
616.705	11.14
617.039	11
617.373	10.88
617.707	10.83
618.041	11.02
618.375	11.4
618.709	11.36
619.042	11.19
619.376	11.05
619.71	11.24
620.043	11.43
620.377	11.25
620.71	11.3
621.043	11.21
621.377	10.96
621.71	11.54
622.043	11.73
622.376	11.73
622.709	11.71
623.043	11.7
623.376	12.11
623.709	11.69
624.041	11.98
624.374	12.05
624.707	11.67
625.04	11.77
625.373	12.11
625.705	12.16
626.038	11.98
626.37	12.1
626.703	12.39
627.035	12.36
627.368	12.4
627.7	12.13
628.032	11.94
628.365	12.08
628.697	12.36
629.029	12.08
629.361	12.09
629.693	12.07
630.025	12.06
630.357	12.34
630.689	12.17
631.021	12.61
631.353	12.8
631.684	12.3
632.016	12.64
632.348	12.74
632.679	12.6
633.011	12.86
633.342	12.91
633.674	12.84
634.005	13.01
634.336	13.08
634.668	12.87
634.999	12.96
635.33	12.87
635.661	12.74
635.992	13.01
636.323	12.65
636.654	12.85
636.985	13.1
637.316	12.93
637.647	13.45
637.977	13.5
638.308	13.6
638.639	13.2
638.969	13.52
639.3	13.47
639.63	13.83
639.961	13.47
640.291	13.28
640.622	13.38
640.952	13.42
641.282	13.43
641.612	13.46
641.943	13.3
642.273	13.99
642.603	13.99
642.933	14.15
643.263	13.52
643.592	14.12
643.922	14.33
644.252	13.84
644.582	13.85
644.911	14.08
645.241	13.61
645.571	14.61
645.9	14.21
646.23	13.81
646.559	14.5
646.888	13.85
647.218	14.45
647.547	14.6
647.876	14.44
648.205	14.17
648.534	14.51
648.863	14.6
649.192	14.77
649.521	14.86
649.85	14
650.179	14.83
650.508	14.72
650.837	14.64
651.165	14.39
651.494	14.32
651.822	14.38
652.151	15.23
652.479	14.39
652.808	15.04
653.136	15.3
653.465	15.1
653.793	14.63
654.121	15.34
654.449	14.7
654.777	15.61
655.105	15.3
655.433	15.8
655.761	15.66
656.089	15.26
656.417	15.21
656.745	14.94
657.073	15.18
657.4	15.56
657.728	14.94
658.056	14.96
658.383	14.36
658.711	15.58
659.038	15.49
659.365	15.28
659.693	15.5
660.02	15.45
660.347	15.96
660.674	15.63
661.001	15.58
661.329	15.71
661.656	15.15
661.982	15.54
662.309	16.05
662.636	15.68
662.963	16.17
663.29	16.33
663.616	15.7
663.943	16
664.27	16.33
664.596	16.02
664.923	16.35
665.249	16.03
665.576	16.15
665.902	16.46
666.228	16.9
666.554	15.94
666.881	15.86
667.207	16.56
667.533	16.54
667.859	16.74
668.185	16.2
668.511	16.39
668.837	15.92
669.162	17.45
669.488	16.5
669.814	16.75
670.139	16.13
670.465	15.97
670.791	16.67
671.116	16.36
671.442	16.83
671.767	17.09
672.092	17.54
672.418	16.75
672.743	17.12
673.068	16.44
673.393	16.94
673.718	17.18
674.043	16.95
674.368	16.56
674.693	16.48
675.018	17.05
675.343	17
675.667	17.3
675.992	16.95
676.317	17.79
676.641	17.49
676.966	17.33
677.29	17.64
677.615	17.68
677.939	17.21
678.264	17.97
678.588	18.15
678.912	18.1
679.236	17.73
679.56	17.9
679.885	17.35
680.209	17.63
680.532	17.61
680.856	17.34
681.18	17.48
681.504	17.71
681.828	18.49
682.152	17.77
682.475	17.91
682.799	18.12
683.122	18.63
683.446	18.28
683.769	19.38
684.093	17.52
684.416	18.1
684.739	18.23
685.062	17.99
685.386	18.44
685.709	18.99
686.032	18.27
686.355	18.27
