Data from 0410_crown_Reflection__1__188.txt Node

Date: Tue Dec 12 19:55:10 CST 2023
User: ToomeyLab
Spectrometer: FLMS14357
Trigger mode: 0
Integration Time (sec): 1.000000E-2
Scans to average: 100
Electric dark correction enabled: true
Nonlinearity correction enabled: false
Boxcar width: 0
XAxis mode: Wavelengths
Number of Pixels in Spectrum: 2048
>>>>>Begin Spectral Data<<<<<
189.047	-116.76
189.435	-116.76
189.823	-116.76
190.211	-819.16
190.599	-31.28
190.987	141.12
191.375	310.51
191.763	272.54
192.151	16.43
192.538	444
192.926	6.02
193.314	23.51
193.702	183.28
194.089	330.1
194.477	1333.23
194.864	-101.52
195.252	27.59
195.639	35.23
196.027	74.42
196.414	-429.41
196.801	-4.33
197.189	19.52
197.576	262.2
197.963	65.69
198.351	-49.38
198.738	8.03
199.125	45.38
199.512	-23.05
199.899	59.03
200.286	-17.65
200.673	-60.16
201.06	-17.05
201.447	-122.06
201.833	-18.63
202.22	-22.3
202.607	-309.98
202.994	21.75
203.38	16.36
203.767	-100.84
204.154	-37.26
204.54	24.86
204.927	0.6
205.313	-6.2
205.699	-51.1
206.086	-78.8
206.472	8.68
206.858	-36.51
207.245	-59.08
207.631	20.99
208.017	-10.9
208.403	-70.73
208.789	39.99
209.175	-56.27
209.561	58.03
209.947	-33.19
210.333	-2.16
210.719	-74.62
211.105	-98.24
211.491	-6.25
211.876	-16.29
212.262	23.87
212.648	-77.12
213.034	-59.05
213.419	14.11
213.805	-27.9
214.19	9.49
214.576	10.8
214.961	3.68
215.346	-40.59
215.732	10.99
216.117	1.97
216.502	-70.55
216.888	-3.79
217.273	-20.43
217.658	-65.14
218.043	2.06
218.428	10.28
218.813	-9.69
219.198	-81.33
219.583	-6.44
219.968	-4.21
220.353	-2.38
220.738	-2.92
221.122	-8.03
221.507	-44
221.892	-28.69
222.276	-4.75
222.661	10.09
223.046	-26.84
223.43	0.4
223.815	-3.84
224.199	4.91
224.583	2.87
224.968	8.6
225.352	-4.17
225.736	1.63
226.121	-9.92
226.505	4.2
226.889	-2.39
227.273	-0.72
227.657	10.91
228.041	5.92
228.425	12.47
228.809	7.57
229.193	5.63
229.577	10.52
229.961	7.84
230.344	8.13
230.728	9.12
231.112	9.39
231.495	9.15
231.879	9.69
232.263	7.96
232.646	6.53
233.03	7.4
233.413	7.31
233.797	5.76
234.18	4.31
234.563	6.11
234.946	6.56
235.33	8.12
235.713	9.36
236.096	7.58
236.479	7.04
236.862	8.55
237.245	8.9
237.628	8.35
238.011	8.32
238.394	6.45
238.777	7.22
239.16	8.76
239.543	6.42
239.925	6.88
240.308	7.52
240.691	5.61
241.073	8.21
241.456	7.15
241.838	7.66
242.221	8.77
242.603	8.69
242.986	8.14
243.368	8.72
243.75	7.82
244.133	8.4
244.515	8.39
244.897	8.61
245.279	9.28
245.661	7.05
246.043	7.02
246.425	7.94
246.807	8.66
247.189	8.04
247.571	7.71
247.953	7.69
248.335	8.12
248.717	7.91
249.098	7.85
249.48	7.94
249.862	7.5
250.243	7.56
250.625	8.17
251.006	7.41
251.388	6.73
251.769	7
252.151	7.52
252.532	7.48
252.913	8.23
253.295	7.81
253.676	6.85
254.057	6.77
254.438	7.69
254.819	6.85
255.2	6.63
255.581	6.6
255.962	6.31
256.343	5.99
256.724	6.44
257.105	8.92
257.486	6.91
257.867	4.79
258.247	6.68
258.628	6.58
259.009	6.19
259.389	6.73
259.77	7.22
260.15	7.07
260.531	8.04
260.911	7.86
261.292	7.02
261.672	6.98
262.052	7.16
262.432	7.28
262.813	6.73
263.193	7.25
263.573	7.65
263.953	8.25
264.333	7.2
264.713	7.02
265.093	6.42
265.473	7.35
265.853	6.7
266.233	6.54
266.612	6.39
266.992	7.02
267.372	7.16
267.752	7.83
268.131	5.5
268.511	6.65
268.89	5.95
269.27	5.78
269.649	6.74
270.029	6.51
270.408	6.27
270.787	6.66
271.167	7.37
271.546	7.01
271.925	7.8
272.304	6.95
272.683	6.42
273.062	6.51
273.441	7.01
273.82	6.18
274.199	6.41
274.578	6.5
274.957	6.78
275.336	6.45
275.715	6.73
276.093	6.42
276.472	6.24
276.851	5.84
277.229	5.87
277.608	6.23
277.986	6.06
278.365	6.71
278.743	6.57
279.122	7.06
279.5	6.48
279.878	5.77
280.257	6
280.635	6.6
281.013	5.75
281.391	6.79
281.769	5.94
282.147	6.12
282.525	6.21
282.903	6.1
283.281	5.88
283.659	6.44
284.037	6.31
284.415	6.37
284.792	6.43
285.17	6.22
285.548	5.77
285.925	6.28
286.303	5.95
286.68	6.43
287.058	6.45
287.435	6.35
287.813	5.82
288.19	6.21
288.567	6.47
288.945	6.32
289.322	5.68
289.699	5.91
290.076	6.38
290.453	6.32
290.83	5.85
291.207	6.45
291.584	6.31
291.961	5.9
292.338	6.06
292.715	6.1
293.092	5.84
293.469	6.13
293.845	5.74
294.222	5.67
294.599	6.03
294.975	6.18
295.352	5.76
295.728	6.04
296.105	6.34
296.481	6.1
296.858	5.41
297.234	6.4
297.61	5.43
297.986	5.97
298.363	6.03
298.739	5.86
299.115	5.38
299.491	5.45
299.867	5.7
300.243	5.59
300.619	5.75
300.995	6.08
301.371	5.39
301.746	5.18
302.122	6.47
302.498	6.11
302.874	6.17
303.249	6.25
303.625	5.45
304	5.91
304.376	5.52
304.751	5.62
305.127	5.53
305.502	6.29
305.878	5.87
306.253	5.7
306.628	6.1
307.003	5.37
307.378	5.69
307.754	5.87
308.129	5.72
308.504	6.15
308.879	5.47
309.254	6.04
309.629	5.57
310.003	5.83
310.378	5.66
310.753	5.62
311.128	5.89
311.502	5.17
311.877	5.46
312.252	5.48
312.626	5.02
313.001	5.53
313.375	5.24
313.75	6.01
314.124	6.04
314.498	5.65
314.873	5.63
315.247	6.03
315.621	5.42
315.995	5.38
316.369	5.49
316.743	4.88
317.117	5.19
317.491	5.23
317.865	5.23
318.239	4.57
318.613	5.65
318.987	5.65
319.361	5
319.734	5.15
320.108	5.42
320.482	5.7
320.855	4.86
321.229	5.21
321.602	5.46
321.976	5.45
322.349	6.14
322.723	5.02
323.096	5.5
323.469	5.68
323.843	5.99
324.216	5.34
324.589	5.51
324.962	5.87
325.335	5.9
325.708	5.85
326.081	5.71
326.454	5.71
326.827	6.56
327.2	5.46
327.573	4.77
327.945	5.58
328.318	5.32
328.691	4.8
329.063	5.42
329.436	5.22
329.809	5.76
330.181	4.72
330.553	5.33
330.926	5.52
331.298	5.28
331.671	5.22
332.043	5.16
332.415	5.57
332.787	4.98
333.159	5.78
333.532	5.49
333.904	5.55
334.276	6.26
334.648	4.68
335.02	5.1
335.391	5.18
335.763	5.61
336.135	5.56
336.507	5.61
336.879	4.88
337.25	5.47
337.622	4.97
337.993	5.2
338.365	4.69
338.736	5.16
339.108	5.31
339.479	5.9
339.851	5.63
340.222	5.01
340.593	5.11
340.964	4.87
341.336	5.45
341.707	5.05
342.078	4.98
342.449	4.88
342.82	5.84
343.191	5.49
343.562	5.44
343.933	5.58
344.303	5.63
344.674	5.5
345.045	5.64
345.416	5.85
345.786	5.23
346.157	5.38
346.527	5.78
346.898	5.26
347.268	5.39
347.639	5.76
348.009	5.46
348.38	5.15
348.75	5.4
349.12	5.52
349.49	5.26
349.861	5.42
350.231	5.56
350.601	6.22
350.971	5.4
351.341	5.85
351.711	5.9
352.081	5.21
352.45	4.98
352.82	5.6
353.19	5.7
353.56	5.24
353.929	4.74
354.299	5.18
354.669	5.32
355.038	5.04
355.408	5.14
355.777	6.26
356.147	5.01
356.516	5.7
356.885	5.4
357.254	5.57
357.624	5.35
357.993	5.12
358.362	5.5
358.731	5.5
359.1	5.32
359.469	5.53
359.838	5.54
360.207	5.43
360.576	6
360.945	5.35
361.314	5.75
361.682	5.6
362.051	6.1
362.42	6.06
362.788	5.55
363.157	6.02
363.525	6.03
363.894	5.53
364.262	5.73
364.631	5.19
364.999	5.88
365.367	5.9
365.735	5.75
366.104	5.81
366.472	6.19
366.84	5.51
367.208	5.41
367.576	5.29
367.944	5.79
368.312	5.99
368.68	5.19
369.048	5.55
369.416	6.08
369.783	5.93
370.151	5.72
370.519	5.64
370.886	5.79
371.254	5.34
371.621	6.08
371.989	5.75
372.356	5.69
372.724	5.82
373.091	5.52
373.458	5.7
373.826	5.95
374.193	5.53
374.56	5.9
374.927	5.56
375.294	5.76
375.661	5.99
376.028	5.83
376.395	6.12
376.762	6.47
377.129	5.72
377.496	5.82
377.863	5.87
378.229	6.07
378.596	5.53
378.963	6.05
379.329	5.86
379.696	5.78
380.062	6.3
380.429	5.76
380.795	6.31
381.161	5.76
381.528	6.11
381.894	6
382.26	5.85
382.626	6.09
382.993	5.67
383.359	5.43
383.725	6.1
384.091	6.07
384.457	5.89
384.823	6.19
385.188	6.02
385.554	5.86
385.92	6.08
386.286	6.03
386.651	6.13
387.017	6.19
387.383	5.78
387.748	6.1
388.114	6.09
388.479	6.3
388.845	5.93
389.21	6.04
389.575	5.98
389.94	5.93
390.306	5.98
390.671	5.78
391.036	6.1
391.401	6.03
391.766	5.87
392.131	6.16
392.496	6.06
392.861	5.94
393.226	6.19
393.591	6.25
393.956	5.93
394.32	6.19
394.685	6.33
395.05	5.96
395.414	6.11
395.779	5.95
396.143	6.36
396.508	5.92
396.872	6.12
397.236	6
397.601	5.97
397.965	6.14
398.329	6.05
398.694	6.01
399.058	6.03
399.422	6.18
399.786	6.09
400.15	5.9
400.514	6.21
400.878	6.31
401.242	6.04
401.605	6.17
401.969	6.17
402.333	6.21
402.697	5.99
403.06	6.21
403.424	5.99
403.787	6
404.151	6.31
404.514	5.98
404.878	6.01
405.241	6.36
405.604	5.98
405.968	6.09
406.331	6.19
406.694	6.4
407.057	5.85
407.42	6.18
407.783	6.01
408.146	6.28
408.509	6.15
408.872	6.53
409.235	6.12
409.598	6.13
409.961	5.94
410.323	6.29
410.686	6.14
411.049	6.3
411.411	6.37
411.774	6.3
412.136	6.07
412.499	6.21
412.861	6.16
413.223	6.4
413.586	6.22
413.948	6.2
414.31	6.34
414.672	6.39
415.035	6.22
415.397	6.02
415.759	6.3
416.121	6.38
416.483	6.32
416.845	6.36
417.206	6.29
417.568	6.21
417.93	6.24
418.292	6.23
418.653	6.47
419.015	6.18
419.377	6.22
419.738	6.28
420.1	6.19
420.461	6.24
420.822	6.36
421.184	6.19
421.545	6.38
421.906	6.24
422.267	6.3
422.629	6.08
422.99	6.13
423.351	6.13
423.712	6.26
424.073	6.16
424.434	6.3
424.795	6.41
425.155	6.19
425.516	6.1
425.877	6.25
426.238	6.21
426.598	6.1
426.959	6.26
427.32	6.22
427.68	6.27
428.041	6.28
428.401	6.23
428.761	6.41
429.122	6.38
429.482	6.34
429.842	6.51
430.202	6.43
430.563	6.38
430.923	6.37
431.283	6.14
431.643	6.36
432.003	6.23
432.363	6.53
432.722	6.41
433.082	6.34
433.442	6.22
433.802	6.43
434.161	6.41
434.521	6.21
434.881	6.27
435.24	6.31
435.6	6.31
435.959	6.38
436.319	6.25
436.678	6.44
437.037	6.32
437.396	6.34
437.756	6.22
438.115	6.34
438.474	6.4
438.833	6.48
439.192	6.23
439.551	6.38
439.91	6.26
440.269	6.31
440.628	6.13
440.987	6.22
441.345	6.48
441.704	6.34
442.063	6.31
442.421	6.43
442.78	6.43
443.138	6.32
443.497	6.36
443.855	6.28
444.214	6.41
444.572	6.4
444.93	6.44
445.288	6.32
445.647	6.42
446.005	6.2
446.363	6.23
446.721	6.17
447.079	6.24
447.437	6.24
447.795	6.29
448.153	6.24
448.51	6.32
448.868	6.33
449.226	6.44
449.584	6.33
449.941	6.4
450.299	6.47
450.656	6.48
451.014	6.33
451.371	6.44
451.729	6.65
452.086	6.35
452.443	6.57
452.801	6.52
453.158	6.28
453.515	6.53
453.872	6.32
454.229	6.52
454.586	6.05
454.943	6.27
455.3	6.39
455.657	6.34
456.014	6.32
456.371	6.57
456.727	6.27
457.084	6.46
457.441	6.46
457.797	6.31
458.154	6.24
458.51	6.33
458.867	6.54
459.223	6.5
459.58	6.26
459.936	6.18
460.292	6.31
460.648	6.38
461.005	6.34
461.361	6.36
461.717	6.39
462.073	6.3
462.429	6.38
462.785	6.32
463.141	6.46
463.496	6.34
463.852	6.69
464.208	6.48
464.564	6.56
464.919	6.54
465.275	6.51
465.631	6.66
465.986	6.39
466.342	6.34
466.697	6.51
467.052	6.61
467.408	6.5
467.763	6.42
468.118	6.43
468.473	6.47
468.829	6.47
469.184	6.41
469.539	6.52
469.894	6.55
470.249	6.54
470.603	6.61
470.958	6.52
471.313	6.76
471.668	6.48
472.023	6.3
472.377	6.57
472.732	6.57
473.086	6.55
473.441	6.63
473.795	6.47
474.15	6.58
474.504	6.54
474.859	6.63
475.213	6.39
475.567	6.35
475.921	6.53
476.275	6.39
476.63	6.34
476.984	6.55
477.338	6.51
477.692	6.39
478.045	6.48
478.399	6.38
478.753	6.37
479.107	6.42
479.461	6.56
479.814	6.37
480.168	6.4
480.521	6.33
480.875	6.4
481.228	6.57
481.582	6.46
481.935	6.56
482.289	6.64
482.642	6.65
482.995	6.36
483.348	6.42
483.701	6.61
484.055	6.38
484.408	6.39
484.761	6.33
485.114	6.33
485.466	6.19
485.819	6.15
486.172	6.16
486.525	6.11
486.878	6.19
487.23	6.22
487.583	6.33
487.936	6.45
488.288	6.27
488.641	6.34
488.993	6.28
489.345	6.26
489.698	6.24
490.05	6.19
490.402	6.23
490.754	6.23
491.107	6.26
491.459	6.34
491.811	6.5
492.163	6.29
492.515	6.48
492.866	6.33
493.218	6.34
493.57	6.24
493.922	6.22
494.274	6.25
494.625	6.36
494.977	6.44
495.328	6.57
495.68	6.4
496.031	6.64
496.383	6.56
496.734	6.41
497.086	6.34
497.437	6.52
497.788	6.45
498.139	6.52
498.49	6.63
498.842	6.38
499.193	6.36
499.544	6.55
499.894	6.41
500.245	6.52
500.596	6.42
500.947	6.43
501.298	6.62
501.648	6.61
501.999	6.45
502.35	6.54
502.7	6.54
503.051	6.49
503.401	6.56
503.752	6.82
504.102	6.51
504.452	6.56
504.803	6.43
505.153	6.54
505.503	6.7
505.853	6.64
506.203	6.58
506.553	6.52
506.903	6.6
507.253	6.54
507.603	6.54
507.953	6.62
508.303	6.52
508.652	6.67
509.002	6.47
509.352	6.52
509.701	6.56
510.051	6.38
510.4	6.39
510.75	6.45
511.099	6.48
511.449	6.56
511.798	6.42
512.147	6.4
512.496	6.54
512.846	6.6
513.195	6.35
513.544	6.56
513.893	6.48
514.242	6.51
514.591	6.37
514.939	6.53
515.288	6.39
515.637	6.43
515.986	6.46
516.334	6.6
516.683	6.4
517.032	6.54
517.38	6.43
517.729	6.6
518.077	6.48
518.426	6.61
518.774	6.44
519.122	6.59
519.47	6.56
519.819	6.41
520.167	6.43
520.515	6.24
520.863	6.36
521.211	6.29
521.559	6.49
521.907	6.45
522.255	6.59
522.602	6.58
522.95	6.46
523.298	6.64
523.645	6.57
523.993	6.57
524.341	6.65
524.688	6.43
525.036	6.52
525.383	6.52
525.73	6.63
526.078	6.5
526.425	6.27
526.772	6.49
527.119	6.52
527.466	6.45
527.814	6.28
528.161	6.44
528.508	6.36
528.854	6.37
529.201	6.41
529.548	6.41
529.895	6.38
530.242	6.16
530.588	6.2
530.935	6.18
531.282	6.2
531.628	6.26
531.975	6.22
532.321	6.3
532.667	6.27
533.014	6.28
533.36	6.41
533.706	6.33
534.052	6.35
534.399	6.34
534.745	6.35
535.091	6.26
535.437	6.36
535.783	6.29
536.129	6.34
536.474	6.35
536.82	6.4
537.166	6.5
537.512	6.43
537.857	6.37
538.203	6.34
538.549	6.32
538.894	6.41
539.239	6.34
539.585	6.37
539.93	6.44
540.276	6.42
540.621	6.49
540.966	6.44
541.311	6.5
541.656	6.57
542.001	6.41
542.346	6.4
542.691	6.29
543.036	6.22
543.381	6.14
543.726	6.16
544.071	6.23
544.415	6.22
544.76	6.32
545.105	6.33
545.449	6.4
545.794	6.46
546.138	6.24
546.483	6.32
546.827	6.42
547.171	6.41
547.516	6.46
547.86	6.48
548.204	6.48
548.548	6.41
548.892	6.38
549.236	6.41
549.58	6.4
549.924	6.4
550.268	6.46
550.612	6.4
550.956	6.5
551.3	6.64
551.643	6.43
551.987	6.58
552.33	6.5
552.674	6.59
553.017	6.62
553.361	6.5
553.704	6.4
554.048	6.44
554.391	6.44
554.734	6.4
555.077	6.51
555.42	6.43
555.764	6.59
556.107	6.43
556.45	6.3
556.793	6.19
557.135	6.37
557.478	6.35
557.821	6.38
558.164	6.56
558.507	6.47
558.849	6.35
559.192	6.42
559.534	6.24
559.877	6.52
560.219	6.33
560.562	6.61
560.904	6.44
561.246	6.52
561.589	6.39
561.931	6.56
562.273	6.23
562.615	6.42
562.957	6.45
563.299	6.51
563.641	6.4
563.983	6.41
564.325	6.41
564.667	6.46
565.008	6.21
565.35	6.36
565.692	6.48
566.033	6.54
566.375	6.65
566.716	6.27
567.058	6.44
567.399	6.46
567.741	6.36
568.082	6.4
568.423	6.43
568.764	6.5
569.105	6.4
569.447	6.41
569.788	6.44
570.129	6.26
570.47	6.49
570.811	6.38
571.151	6.39
571.492	6.64
571.833	6.32
572.174	6.41
572.514	6.28
572.855	6.54
573.195	6.44
573.536	6.21
573.876	6.29
574.217	6.54
574.557	6.32
574.898	6.42
575.238	6.41
575.578	6.24
575.918	6.3
576.258	6.48
576.598	6.06
576.938	6.38
577.278	6.39
577.618	6.49
577.958	6.28
578.298	6.42
578.638	6.37
578.977	6.5
579.317	6.37
579.657	6.43
579.996	6.29
580.336	6.27
580.675	6.52
581.014	6.51
581.354	6.4
581.693	6.5
582.032	6.15
582.372	6.52
582.711	6.39
583.05	6.29
583.389	6.09
583.728	6.43
584.067	6.6
584.406	6.55
584.745	6.71
585.083	6.06
585.422	6.42
585.761	6.45
586.1	6.43
586.438	6.44
586.777	6.26
587.115	6.23
587.454	6.63
587.792	6.18
588.13	6.69
588.469	6.33
588.807	6.22
589.145	6.16
589.483	6.49
589.821	6.39
590.159	6.25
590.497	6.57
590.835	6.18
591.173	6.3
591.511	6.26
591.849	6.23
592.187	6.33
592.524	6.17
592.862	6.08
593.2	6.25
593.537	6.21
593.875	6.47
594.212	6.28
594.55	6.24
594.887	6.52
595.224	6.23
595.561	6.74
595.899	6.35
596.236	6.5
596.573	6.17
596.91	6.5
597.247	6.26
597.584	6.43
597.921	6.23
598.258	6.41
598.594	6.4
598.931	6.41
599.268	6.22
599.604	6.06
599.941	6.34
600.277	6.14
600.614	6.39
600.95	6.37
601.287	6.32
601.623	6.41
601.959	6.08
602.296	6.55
602.632	5.99
602.968	6.14
603.304	6.25
603.64	6.45
603.976	6.17
604.312	6.42
604.648	6.37
604.984	6.39
605.319	6.27
605.655	6.13
605.991	6.4
606.326	6.19
606.662	6.3
606.998	6.13
607.333	6.45
607.668	6.33
608.004	6.22
608.339	6.43
608.674	6.32
609.01	6.24
609.345	6.4
609.68	6.07
610.015	5.89
610.35	6.2
610.685	6.52
611.02	6.41
611.355	6.25
611.689	6.26
612.024	6.25
612.359	6.28
612.694	6.22
613.028	6.34
613.363	6.21
613.697	6.14
614.032	6.36
614.366	6.51
614.7	6.12
615.035	6.36
615.369	6.36
615.703	6.41
616.037	6.32
616.371	5.97
616.705	6.14
617.039	6.29
617.373	6.3
617.707	6.16
618.041	6.61
618.375	6.38
618.709	5.95
619.042	6.45
619.376	6.09
619.71	6.21
620.043	5.82
620.377	6.16
620.71	6.06
621.043	6.16
621.377	5.78
621.71	6.25
622.043	6.51
622.376	6.63
622.709	6.44
623.043	6.67
623.376	6.96
623.709	6.37
624.041	6.28
624.374	6.05
624.707	6.01
625.04	6.18
625.373	6.42
625.705	6.31
626.038	6.29
626.37	6.11
626.703	6.52
627.035	6.32
627.368	6.33
627.7	6.4
628.032	6.12
628.365	6.26
628.697	6.31
629.029	5.74
629.361	6.01
629.693	5.94
630.025	5.94
630.357	6.51
630.689	5.8
631.021	6.31
631.353	6.61
631.684	6.03
632.016	6.36
632.348	6.46
632.679	6.21
633.011	6.33
633.342	6.24
633.674	6.24
634.005	6.32
634.336	6.55
634.668	6.19
634.999	6.4
635.33	6.48
635.661	6.21
635.992	6.46
636.323	6.27
636.654	6.08
636.985	6.28
637.316	6.48
637.647	5.86
637.977	6.42
638.308	6.39
638.639	6.46
638.969	6.03
639.3	6.1
639.63	6.25
639.961	6.3
640.291	5.82
640.622	6.23
640.952	6.54
641.282	6.31
641.612	6.68
641.943	6.22
642.273	6.29
642.603	6.71
642.933	6.32
643.263	6.14
643.592	6.03
643.922	6.72
644.252	6.1
644.582	5.69
644.911	5.86
645.241	5.78
645.571	7
645.9	6.27
646.23	6.23
646.559	6.09
646.888	5.83
647.218	5.78
647.547	6.11
647.876	5.85
648.205	6.62
648.534	6.57
648.863	6.69
649.192	6.59
649.521	6.88
649.85	5.95
650.179	6.42
650.508	6.59
650.837	6.64
651.165	5.78
651.494	5.88
651.822	6.34
652.151	5.96
652.479	6.38
652.808	6.2
653.136	6.56
653.465	6.28
653.793	6.49
654.121	6.33
654.449	6.13
654.777	6.5
655.105	6.32
655.433	6.78
655.761	6.62
656.089	6.57
656.417	6.38
656.745	5.61
657.073	6.1
657.4	6.82
657.728	5.85
658.056	6.49
658.383	5.85
658.711	6.41
659.038	6.38
659.365	5.68
659.693	5.82
660.02	5.88
660.347	6.68
660.674	6.15
661.001	6.12
661.329	6.24
661.656	6.03
661.982	6.19
662.309	6.61
662.636	6.31
662.963	6.47
663.29	6.54
663.616	5.95
663.943	6
664.27	6.11
664.596	6.13
664.923	6.91
665.249	5.62
665.576	6.07
665.902	6.4
666.228	6.53
666.554	6.13
666.881	5.99
667.207	5.88
667.533	6.7
667.859	6.19
668.185	5.92
668.511	6.3
668.837	6.03
669.162	6.93
669.488	6.19
669.814	6.47
670.139	6.44
670.465	6.15
670.791	6.22
671.116	5.92
671.442	6.17
671.767	6.29
672.092	6.76
672.418	6.33
672.743	6.44
673.068	5.71
673.393	6.16
673.718	6.48
674.043	6.22
674.368	5.83
674.693	5.68
675.018	5.97
675.343	5.63
675.667	6.33
675.992	5.83
676.317	5.85
676.641	5.24
676.966	5.59
677.29	5.91
677.615	6.68
677.939	6.07
678.264	6.44
678.588	6.29
678.912	6.61
679.236	5.45
679.56	5.78
679.885	6.6
680.209	6.11
680.532	6.26
680.856	5.78
681.18	6.06
681.504	6.43
681.828	5.99
682.152	5.93
682.475	6.54
682.799	6.1
683.122	6.32
683.446	6.52
683.769	6.35
684.093	6.01
684.416	6.37
684.739	6.39
685.062	6.39
685.386	6.75
685.709	6.4
686.032	6.13
686.355	6.18
686.678	6.58
687.001	6.08
687.324	6.11
687.646	6.75
687.969	5.57
688.292	6.43
688.614	6.51
688.937	6.39
689.26	6.68
689.582	5.65
689.904	5.81
690.227	6.4
690.549	6.25
690.871	5.53
691.194	6.44
691.516	6.92
691.838	6.29
692.16	6.85
