Data from 0410_crown_Reflection__3__190.txt Node

Date: Tue Dec 12 19:55:28 CST 2023
User: ToomeyLab
Spectrometer: FLMS14357
Trigger mode: 0
Integration Time (sec): 1.000000E-2
Scans to average: 100
Electric dark correction enabled: true
Nonlinearity correction enabled: false
Boxcar width: 0
XAxis mode: Wavelengths
Number of Pixels in Spectrum: 2048
>>>>>Begin Spectral Data<<<<<
189.047	-193.61
189.435	-193.61
189.823	-193.61
190.211	105.26
190.599	105.01
190.987	78.06
191.375	-228.11
191.763	469.76
192.151	83.4
192.538	308.41
192.926	7.76
193.314	26.88
193.702	163.69
194.089	-28.35
194.477	750.45
194.864	-111.53
195.252	332.88
195.639	-18.22
196.027	82.24
196.414	-745.1
196.801	115.46
197.189	-22.43
197.576	345.77
197.963	-8.77
198.351	15.26
198.738	29.12
199.125	18.01
199.512	-4.57
199.899	-12.07
200.286	53.64
200.673	-26.4
201.06	-15.06
201.447	-202.79
201.833	-13.59
202.22	2.74
202.607	-313.38
202.994	-53.47
203.38	-8.92
203.767	-36.41
204.154	0.7
204.54	20.64
204.927	-17.82
205.313	10.2
205.699	18.22
206.086	-25.97
206.472	-7.86
206.858	-83.31
207.245	-57.12
207.631	59.77
208.017	-20.23
208.403	-56.01
208.789	-22.45
209.175	-22.97
209.561	9.48
209.947	-40.92
210.333	25.06
210.719	39.95
211.105	-91.58
211.491	33.22
211.876	-40.98
212.262	-12.39
212.648	-137.75
213.034	-153.44
213.419	-42.08
213.805	12.71
214.19	16.92
214.576	1.16
214.961	47.79
215.346	2.74
215.732	15.32
216.117	-13.1
216.502	-26.2
216.888	19.24
217.273	-29.39
217.658	-38.01
218.043	1.53
218.428	4.17
218.813	10.19
219.198	-76.43
219.583	-3.69
219.968	14.46
220.353	-26.89
220.738	12
221.122	-6.13
221.507	-11.38
221.892	-11.48
222.276	-1.8
222.661	2.07
223.046	-5.16
223.43	11.01
223.815	-7.6
224.199	2.15
224.583	-3.43
224.968	13.71
225.352	-3.96
225.736	10.55
226.121	3.69
226.505	9.69
226.889	0.01
227.273	-1.5
227.657	6.87
228.041	10.19
228.425	5.8
228.809	3.28
229.193	0
229.577	8.04
229.961	7.02
230.344	8.38
230.728	8.48
231.112	8.72
231.495	8.73
231.879	9.4
232.263	5.8
232.646	5.35
233.03	8.19
233.413	6.36
233.797	5.81
234.18	1.96
234.563	3.63
234.946	6.46
235.33	9.58
235.713	7.61
236.096	7.8
236.479	6.67
236.862	9.31
237.245	7.43
237.628	8.27
238.011	6.18
238.394	6.09
238.777	10.48
239.16	8.15
239.543	7.7
239.925	7.19
240.308	7.71
240.691	5.84
241.073	8.27
241.456	6.62
241.838	8.28
242.221	7.78
242.603	7.73
242.986	6.87
243.368	7.95
243.75	7.12
244.133	7.61
244.515	7.63
244.897	7.42
245.279	7.46
245.661	6.67
246.043	6.09
246.425	7.32
246.807	6.39
247.189	7.56
247.571	7.5
247.953	6.95
248.335	7.4
248.717	7.24
249.098	7.33
249.48	7.22
249.862	7.26
250.243	6.78
250.625	7.54
251.006	7.07
251.388	6.97
251.769	8.08
252.151	7.05
252.532	7.12
252.913	7.38
253.295	7.29
253.676	6.43
254.057	6.83
254.438	7.66
254.819	6.26
255.2	6.09
255.581	6.52
255.962	5.71
256.343	6.93
256.724	7.4
257.105	6.02
257.486	4.63
257.867	5.47
258.247	4.79
258.628	6.32
259.009	4.88
259.389	6.94
259.77	6.37
260.15	6.3
260.531	7.27
260.911	6.8
261.292	6.21
261.672	6.7
262.052	6.45
262.432	6.68
262.813	6.66
263.193	5.86
263.573	6.44
263.953	6.75
264.333	7.4
264.713	6.7
265.093	6.04
265.473	5.97
265.853	5.43
266.233	5.75
266.612	6.33
266.992	6.95
267.372	6.94
267.752	7.18
268.131	5.83
268.511	6.36
268.89	5.9
269.27	6.03
269.649	6.82
270.029	5.83
270.408	6.08
270.787	6.87
271.167	6.19
271.546	6.04
271.925	6.69
272.304	6.87
272.683	5.2
273.062	5.86
273.441	6.3
273.82	5.79
274.199	6.45
274.578	6.2
274.957	5.84
275.336	6.11
275.715	5.93
276.093	5.42
276.472	6.19
276.851	6.36
277.229	5.96
277.608	6.33
277.986	5.76
278.365	5.91
278.743	6.08
279.122	6.21
279.5	5.45
279.878	5.19
280.257	5.25
280.635	5.77
281.013	6.15
281.391	6.15
281.769	6.26
282.147	6.53
282.525	5.82
282.903	5.5
283.281	5.9
283.659	6.19
284.037	6.28
284.415	5.97
284.792	6.14
285.17	5.27
285.548	6.24
285.925	5.88
286.303	5.72
286.68	5.62
287.058	6.02
287.435	5.74
287.813	5.58
288.19	6.05
288.567	6.08
288.945	5.77
289.322	5.31
289.699	6.54
290.076	5.55
290.453	6.03
290.83	5.57
291.207	6.23
291.584	5.81
291.961	5.84
292.338	5.8
292.715	5.46
293.092	6.11
293.469	5.65
293.845	5.88
294.222	5.64
294.599	5.78
294.975	5.33
295.352	5.71
295.728	5.81
296.105	5.93
296.481	6.35
296.858	5.73
297.234	6.31
297.61	5.7
297.986	5.97
298.363	5.82
298.739	5.87
299.115	5.47
299.491	5.68
299.867	5.5
300.243	5.68
300.619	5.62
300.995	5.42
301.371	5.69
301.746	5.68
302.122	6.67
302.498	5.73
302.874	6.02
303.249	5.96
303.625	5.11
304	5.77
304.376	5.38
304.751	5.75
305.127	5.46
305.502	6.07
305.878	6.02
306.253	5.5
306.628	5.88
307.003	6.02
307.378	5.5
307.754	5.23
308.129	5.08
308.504	6.73
308.879	5.19
309.254	6.29
309.629	5.55
310.003	5.76
310.378	5.67
310.753	5.39
311.128	5.87
311.502	5.36
311.877	5.05
312.252	5.34
312.626	5.4
313.001	5.5
313.375	5.37
313.75	5.81
314.124	5.58
314.498	5.66
314.873	6.06
315.247	5.66
315.621	5.35
315.995	5.69
316.369	5.67
316.743	5.49
317.117	5.05
317.491	5.09
317.865	5.04
318.239	5.61
318.613	5.91
318.987	5.57
319.361	4.83
319.734	5.72
320.108	5.49
320.482	5.37
320.855	4.63
321.229	5.09
321.602	5.65
321.976	5.29
322.349	5.53
322.723	5.44
323.096	4.92
323.469	5.11
323.843	5.73
324.216	5.61
324.589	5.54
324.962	5.43
325.335	6.09
325.708	5.49
326.081	5.35
326.454	5.34
326.827	5.79
327.2	5.59
327.573	5.07
327.945	5.55
328.318	5.39
328.691	4.98
329.063	5.37
329.436	5.24
329.809	5.47
330.181	4.66
330.553	5.66
330.926	5.5
331.298	4.9
331.671	6.09
332.043	5.02
332.415	5.9
332.787	5.02
333.159	5.31
333.532	5.44
333.904	5.61
334.276	5.09
334.648	5.15
335.02	4.74
335.391	5.25
335.763	5.01
336.135	5.66
336.507	5.5
336.879	4.85
337.25	4.98
337.622	5.25
337.993	5.43
338.365	5.34
338.736	5.15
339.108	5.32
339.479	5.56
339.851	5.17
340.222	4.82
340.593	5.34
340.964	5.05
341.336	5.32
341.707	4.67
342.078	4.81
342.449	5
342.82	5.13
343.191	5.43
343.562	5.61
343.933	5.74
344.303	5.35
344.674	5.35
345.045	5.41
345.416	5.7
345.786	4.93
346.157	4.92
346.527	6.04
346.898	4.85
347.268	5.08
347.639	5.66
348.009	5.37
348.38	5.25
348.75	5.68
349.12	5.51
349.49	5.32
349.861	5.62
350.231	5.35
350.601	5.97
350.971	5.19
351.341	5.46
351.711	5.74
352.081	5.19
352.45	5.05
352.82	5.28
353.19	5.04
353.56	5.26
353.929	5.34
354.299	4.89
354.669	5.38
355.038	4.84
355.408	4.76
355.777	5.82
356.147	5.44
356.516	5.47
356.885	5.25
357.254	5.19
357.624	5.29
357.993	5.2
358.362	5.56
358.731	5.41
359.1	4.96
359.469	5.21
359.838	5.16
360.207	5.56
360.576	5.82
360.945	5.18
361.314	5.39
361.682	5.71
362.051	5.36
362.42	5.44
362.788	5.27
363.157	5.95
363.525	5.57
363.894	5
364.262	5.12
364.631	4.98
364.999	5.59
365.367	5.47
365.735	5.08
366.104	5.52
366.472	5.17
366.84	5.26
367.208	5.05
367.576	5.42
367.944	5.16
368.312	5.27
368.68	5.07
369.048	5.49
369.416	5.6
369.783	5.76
370.151	5.62
370.519	5.1
370.886	5.35
371.254	5.32
371.621	5.73
371.989	5.12
372.356	5.33
372.724	5.54
373.091	5.23
373.458	5.37
373.826	5.57
374.193	5.28
374.56	5.75
374.927	5.44
375.294	5.22
375.661	5.54
376.028	5.75
376.395	5.85
376.762	5.74
377.129	5.38
377.496	5.47
377.863	5.34
378.229	5.39
378.596	5.27
378.963	5.57
379.329	5.65
379.696	5.38
380.062	5.54
380.429	5.22
380.795	5.57
381.161	5.73
381.528	5.59
381.894	5.72
382.26	5.29
382.626	5.58
382.993	5.61
383.359	5.44
383.725	5.37
384.091	5.36
384.457	5.41
384.823	5.4
385.188	5.46
385.554	5.3
385.92	5.26
386.286	5.98
386.651	5.56
387.017	6.12
387.383	5.64
387.748	5.73
388.114	5.45
388.479	5.7
388.845	5.57
389.21	5.29
389.575	5.24
389.94	5.41
390.306	5.72
390.671	5.37
391.036	5.67
391.401	5.65
391.766	5.34
392.131	5.35
392.496	5.65
392.861	5.35
393.226	5.69
393.591	5.66
393.956	5.54
394.32	5.64
394.685	5.66
395.05	5.52
395.414	5.48
395.779	5.36
396.143	5.78
396.508	5.61
396.872	5.72
397.236	5.49
397.601	5.82
397.965	5.69
398.329	5.57
398.694	5.35
399.058	5.76
399.422	5.34
399.786	5.54
400.15	5.18
400.514	5.72
400.878	5.55
401.242	5.47
401.605	5.91
401.969	5.44
402.333	5.93
402.697	5.75
403.06	5.36
403.424	5.56
403.787	5.31
404.151	5.78
404.514	5.36
404.878	5.64
405.241	5.87
405.604	5.49
405.968	5.58
406.331	5.77
406.694	5.77
407.057	5.47
407.42	5.46
407.783	5.62
408.146	5.66
408.509	5.51
408.872	5.76
409.235	5.79
409.598	5.39
409.961	5.58
410.323	5.59
410.686	5.7
411.049	5.8
411.411	5.66
411.774	5.66
412.136	5.77
412.499	5.58
412.861	5.66
413.223	5.77
413.586	5.45
413.948	5.49
414.31	5.75
414.672	5.78
415.035	5.6
415.397	5.77
415.759	5.56
416.121	5.6
416.483	5.59
416.845	5.83
417.206	5.82
417.568	5.52
417.93	5.75
418.292	5.71
418.653	5.81
419.015	5.56
419.377	5.67
419.738	5.54
420.1	5.58
420.461	5.56
420.822	5.56
421.184	5.61
421.545	5.91
421.906	5.51
422.267	5.59
422.629	5.51
422.99	5.56
423.351	5.61
423.712	5.72
424.073	5.73
424.434	5.67
424.795	5.62
425.155	5.58
425.516	5.53
425.877	5.61
426.238	5.73
426.598	5.49
426.959	5.65
427.32	5.81
427.68	5.63
428.041	5.68
428.401	5.68
428.761	5.7
429.122	5.82
429.482	5.7
429.842	5.72
430.202	5.5
430.563	5.77
430.923	5.69
431.283	5.84
431.643	5.86
432.003	5.63
432.363	5.75
432.722	5.62
433.082	5.74
433.442	5.69
433.802	5.79
434.161	5.83
434.521	5.86
434.881	5.8
435.24	5.74
435.6	5.66
435.959	5.73
436.319	5.75
436.678	5.84
437.037	5.67
437.396	5.76
437.756	5.66
438.115	5.65
438.474	5.58
438.833	5.85
439.192	5.94
439.551	5.9
439.91	5.47
440.269	5.67
440.628	5.57
440.987	5.64
441.345	5.77
441.704	5.69
442.063	5.71
442.421	5.85
442.78	5.72
443.138	5.63
443.497	5.75
443.855	5.72
444.214	5.84
444.572	5.7
444.93	5.66
445.288	5.56
445.647	5.85
446.005	5.73
446.363	5.59
446.721	5.65
447.079	5.62
447.437	5.63
447.795	5.81
448.153	5.71
448.51	5.74
448.868	5.65
449.226	5.85
449.584	5.68
449.941	5.75
450.299	5.84
450.656	5.63
451.014	5.76
451.371	5.81
451.729	5.84
452.086	5.77
452.443	5.86
452.801	5.89
453.158	5.67
453.515	5.92
453.872	5.81
454.229	5.81
454.586	5.62
454.943	5.71
455.3	5.67
455.657	5.8
456.014	5.96
456.371	6.02
456.727	5.74
457.084	5.87
457.441	5.93
457.797	5.83
458.154	5.85
458.51	5.8
458.867	5.9
459.223	5.81
459.58	5.72
459.936	5.77
460.292	5.88
460.648	5.93
461.005	5.76
461.361	5.7
461.717	5.87
462.073	5.79
462.429	5.69
462.785	5.71
463.141	5.76
463.496	5.71
463.852	6.03
464.208	5.79
464.564	5.83
464.919	5.99
465.275	6.03
465.631	6.06
465.986	5.91
466.342	5.78
466.697	5.93
467.052	6.06
467.408	5.81
467.763	6.05
468.118	5.96
468.473	5.89
468.829	5.79
469.184	5.82
469.539	5.95
469.894	5.91
470.249	5.85
470.603	5.84
470.958	5.8
471.313	6.05
471.668	5.97
472.023	5.89
472.377	5.83
472.732	6.05
473.086	5.92
473.441	6
473.795	6.02
474.15	5.98
474.504	5.79
474.859	5.89
475.213	5.95
475.567	5.86
475.921	5.98
476.275	5.79
476.63	5.87
476.984	5.96
477.338	5.98
477.692	5.84
478.045	6.01
478.399	5.86
478.753	5.84
479.107	5.95
479.461	5.98
479.814	5.85
480.168	5.76
480.521	5.84
480.875	5.93
481.228	6.02
481.582	6.01
481.935	5.92
482.289	6.1
482.642	6.08
482.995	5.95
483.348	5.86
483.701	6.01
484.055	5.88
484.408	5.88
484.761	5.76
485.114	5.74
485.466	5.64
485.819	5.61
486.172	5.63
486.525	5.66
486.878	5.65
487.23	5.71
487.583	5.75
487.936	5.86
488.288	5.71
488.641	5.8
488.993	5.71
489.345	5.71
489.698	5.69
490.05	5.68
490.402	5.76
490.754	5.73
491.107	5.77
491.459	5.79
491.811	5.91
492.163	5.83
492.515	5.9
492.866	5.82
493.218	5.8
493.57	5.73
493.922	5.64
494.274	5.77
494.625	5.84
494.977	5.97
495.328	6.05
495.68	5.82
496.031	6.02
496.383	6.01
496.734	5.9
497.086	5.92
497.437	6.01
497.788	6.08
498.139	5.99
498.49	6.03
498.842	5.86
499.193	5.95
499.544	6.01
499.894	5.97
500.245	6.05
500.596	5.91
500.947	5.92
501.298	6.13
501.648	6.21
501.999	6.07
502.35	6.13
502.7	5.9
503.051	5.99
503.401	6.02
503.752	6.16
504.102	6.12
504.452	6.15
504.803	6.2
505.153	6.11
505.503	6.08
505.853	6.03
506.203	5.92
506.553	5.97
506.903	6.05
507.253	6.2
507.603	6.07
507.953	6.08
508.303	6.1
508.652	6.08
509.002	6.17
509.352	6.06
509.701	6.18
510.051	6.06
510.4	6.01
510.75	5.86
511.099	5.9
511.449	6.1
511.798	5.98
512.147	5.97
512.496	6.18
512.846	6.07
513.195	6
513.544	6.08
513.893	6.06
514.242	5.95
514.591	6.06
514.939	5.98
515.288	5.98
515.637	5.96
515.986	6.07
516.334	6.23
516.683	5.98
517.032	6.11
517.38	6.09
517.729	5.95
518.077	6.01
518.426	6.09
518.774	5.94
519.122	6.04
519.47	6.08
519.819	5.97
520.167	5.85
520.515	5.92
520.863	6.06
521.211	5.98
521.559	6.03
521.907	6.02
522.255	6
522.602	6.15
522.95	6.15
523.298	5.94
523.645	6.12
523.993	6.12
524.341	6.24
524.688	6.1
525.036	6.04
525.383	6.09
525.73	6.13
526.078	6
526.425	5.96
526.772	5.94
527.119	5.93
527.466	6
527.814	5.99
528.161	5.98
528.508	5.96
528.854	5.93
529.201	6.02
529.548	5.94
529.895	5.87
530.242	5.73
530.588	5.73
530.935	5.78
531.282	5.83
531.628	5.89
531.975	5.83
532.321	5.86
532.667	5.9
533.014	5.93
533.36	6.01
533.706	5.97
534.052	5.96
534.399	6.04
534.745	5.9
535.091	5.89
535.437	5.91
535.783	5.95
536.129	6.01
536.474	6
536.82	6.08
537.166	6.12
537.512	6.22
537.857	6.13
538.203	6.08
538.549	5.99
538.894	6.02
539.239	5.97
539.585	6.06
539.93	6.2
540.276	6.02
540.621	6.1
540.966	6.03
541.311	6.13
541.656	6.04
542.001	6.06
542.346	5.94
542.691	6
543.036	5.95
543.381	5.78
543.726	5.88
544.071	5.95
544.415	5.88
544.76	5.99
545.105	5.98
545.449	6.07
545.794	6.1
546.138	6.05
546.483	6.06
546.827	6.16
547.171	6.17
547.516	6.11
547.86	6.19
548.204	6.14
548.548	6.09
548.892	5.98
549.236	6.12
549.58	6.12
549.924	5.96
550.268	6.11
550.612	6.11
550.956	6.29
551.3	6.37
551.643	6.3
551.987	6.3
552.33	6.17
552.674	6.31
553.017	6.35
553.361	6.33
553.704	6.21
554.048	6.1
554.391	6.26
554.734	6.32
555.077	6.21
555.42	6.18
555.764	6.22
556.107	6.26
556.45	6.27
556.793	6.04
557.135	6.2
557.478	6.22
557.821	6.34
558.164	6.3
558.507	6.29
558.849	6.24
559.192	6.28
559.534	6.35
559.877	6.13
560.219	6.26
560.562	6.38
560.904	6.24
561.246	6.27
561.589	6.35
561.931	5.95
562.273	6.09
562.615	6.17
562.957	6.3
563.299	6.28
563.641	6.31
563.983	6.35
564.325	6.31
564.667	6.29
565.008	5.89
565.35	6.01
565.692	6.18
566.033	6.22
566.375	6.06
566.716	6.09
567.058	6.26
567.399	6.25
567.741	6.29
568.082	6.08
568.423	6.09
568.764	6.21
569.105	6.23
569.447	6.23
569.788	6.21
570.129	6.04
570.47	6.25
570.811	6.18
571.151	6.37
571.492	6.27
571.833	6.22
572.174	6.22
572.514	6.23
572.855	6.41
573.195	6.2
573.536	6.07
573.876	6.14
574.217	6.34
574.557	6.27
574.898	6.1
575.238	6.36
575.578	6.24
575.918	6.07
576.258	6.34
576.598	6.22
576.938	6.26
577.278	6.29
577.618	6.19
577.958	6.09
578.298	6.43
578.638	6.13
578.977	6.13
579.317	6.23
579.657	6.29
579.996	6.35
580.336	6.29
580.675	6.39
581.014	6.48
581.354	6.17
581.693	6.37
582.032	6.08
582.372	6.36
582.711	6.43
583.05	6.31
583.389	6.25
583.728	6.45
584.067	6.51
584.406	6.66
584.745	6.31
585.083	6.15
585.422	6.29
585.761	6.42
586.1	6.16
586.438	6.51
586.777	6.22
587.115	6.35
587.454	6.5
587.792	6.13
588.13	6.54
588.469	6.33
588.807	6.07
589.145	6.42
589.483	6.13
589.821	6.31
590.159	6.31
590.497	6.56
590.835	6.42
591.173	6.11
591.511	6.27
591.849	6.19
592.187	6.26
592.524	6.27
592.862	6.27
593.2	6.11
593.537	6.13
593.875	6.5
594.212	6.28
594.55	6.41
594.887	6.63
595.224	6.17
595.561	6.54
595.899	6.29
596.236	6.44
596.573	6.34
596.91	6.66
597.247	6.3
597.584	6.45
597.921	6.35
598.258	6.42
598.594	6.35
598.931	6.38
599.268	6.34
599.604	6.15
599.941	6.29
600.277	6.27
600.614	6.37
600.95	6.43
601.287	6.42
601.623	6.3
601.959	6.39
602.296	6.33
602.632	6.24
602.968	6.25
603.304	6.41
603.64	6.4
603.976	6.24
604.312	6.5
604.648	6.49
604.984	6.46
605.319	6.31
605.655	6.1
605.991	6.47
606.326	6.33
606.662	6.5
606.998	6.2
607.333	6.5
607.668	6.23
608.004	6.46
608.339	6.49
608.674	6.27
609.01	6.21
609.345	6.41
609.68	6.3
610.015	6.12
610.35	6.39
610.685	6.58
611.02	6.35
611.355	6.25
611.689	6.29
612.024	6.19
612.359	6.45
612.694	6.46
613.028	6.2
613.363	6.26
613.697	6.46
614.032	6.58
614.366	6.73
614.7	6.32
615.035	6.46
615.369	6.29
615.703	6.41
616.037	6.21
616.371	6.26
616.705	6.25
617.039	6.29
617.373	6.46
617.707	6.21
618.041	6.46
618.375	6.17
618.709	6.43
619.042	6.47
619.376	6.1
619.71	6.38
620.043	6.5
620.377	6.46
620.71	6.14
621.043	6.31
621.377	5.94
621.71	6.79
622.043	6.65
622.376	6.7
622.709	6.44
623.043	6.33
623.376	6.86
623.709	6.81
624.041	6.25
624.374	6.38
624.707	6.42
625.04	6.65
625.373	7.01
625.705	6.45
626.038	6.58
626.37	6.63
626.703	6.56
627.035	6.4
627.368	6.47
627.7	6.37
628.032	6.39
628.365	6.33
628.697	6.42
629.029	6.13
629.361	6.33
629.693	6.15
630.025	6.2
630.357	6.73
630.689	6.02
631.021	6.5
631.353	6.55
631.684	6.43
632.016	6.5
632.348	6.48
632.679	6.37
633.011	6.64
633.342	6.31
633.674	6.48
634.005	6.59
634.336	6.67
634.668	6.36
634.999	6.35
635.33	6.7
635.661	6.49
635.992	6.59
636.323	6.24
636.654	6.7
636.985	6.64
637.316	6.14
637.647	6.19
637.977	6.55
638.308	6.6
638.639	6.67
638.969	6.5
639.3	6.18
639.63	6.85
639.961	6.62
640.291	6.37
640.622	6.79
640.952	6.68
641.282	6.63
641.612	6.14
641.943	6.74
642.273	7.04
642.603	7.28
642.933	6.6
643.263	6.15
643.592	6.1
643.922	6.94
644.252	7.24
644.582	6.6
644.911	6.58
645.241	6.33
645.571	7.01
645.9	6.58
646.23	6.52
646.559	7.24
646.888	6.34
647.218	6.71
647.547	6.54
647.876	6.33
648.205	6.67
648.534	6.99
648.863	6.75
649.192	7.06
649.521	6.66
649.85	6.52
650.179	6.96
650.508	7.01
650.837	6.64
651.165	6.06
651.494	6.71
651.822	6.05
652.151	7.16
652.479	7.09
652.808	7.09
653.136	6.58
653.465	6.82
653.793	6.58
654.121	6.93
654.449	6.6
654.777	6.86
655.105	6.74
655.433	6.83
655.761	6.84
656.089	6.42
656.417	6.43
656.745	6.81
657.073	6.36
657.4	7.11
657.728	6.02
658.056	6.39
658.383	5.81
658.711	6.47
659.038	6.39
659.365	6.92
659.693	6.61
660.02	6.95
660.347	6.67
660.674	6.85
661.001	6.69
661.329	6.67
661.656	6.52
661.982	6.53
662.309	6.66
662.636	6.64
662.963	6.8
663.29	6.87
663.616	6.83
663.943	7.04
664.27	6.97
664.596	6.69
664.923	7.56
665.249	6.8
665.576	6.51
665.902	6.53
666.228	6.94
666.554	7.03
666.881	6.15
667.207	6.85
667.533	6.56
667.859	6.31
668.185	7.08
668.511	5.88
668.837	6.73
669.162	7.51
669.488	6.22
669.814	6.94
670.139	6.66
670.465	6.04
670.791	6.41
671.116	7.22
671.442	6.36
671.767	6.94
672.092	7.08
672.418	6.59
672.743	6.58
673.068	6.06
673.393	6.51
673.718	7.17
674.043	6.67
674.368	6.33
674.693	6.24
675.018	6.76
675.343	6.68
675.667	7.4
675.992	7.14
676.317	6.88
676.641	6.38
676.966	6.87
677.29	6.48
677.615	6.53
677.939	7.21
678.264	7.34
678.588	6.56
678.912	6.97
679.236	6.31
679.56	6.91
679.885	7.1
680.209	7.19
680.532	7.59
680.856	6.59
681.18	6.97
681.504	7.17
681.828	6.89
682.152	6.8
682.475	7.04
682.799	7.5
683.122	6.88
683.446	7.03
683.769	7.26
684.093	6.43
684.416	7.05
684.739	6.88
685.062	6.71
685.386	6.36
685.709	7.12
686.032	6.13
686.355	6.64
686.678	7.46
687.001	7.22
687.324	7.28
687.646	7.01
687.969	6.57
688.292	6.93
688.614	6.69
688.937	6.95
689.26	6.86
689.582	6.56
689.904	6.72
690.227	6.67
690.549	6.98
690.871	6.87
691.194	7.13
691.516	6.4
691.838	6.73
