Data from 0410_forehead_Reflection__1__193.txt Node

Date: Tue Dec 12 19:56:32 CST 2023
User: ToomeyLab
Spectrometer: FLMS14357
Trigger mode: 0
Integration Time (sec): 1.000000E-2
Scans to average: 100
Electric dark correction enabled: true
Nonlinearity correction enabled: false
Boxcar width: 0
XAxis mode: Wavelengths
Number of Pixels in Spectrum: 2048
>>>>>Begin Spectral Data<<<<<
189.047	238.7
189.435	238.7
189.823	238.7
190.211	240.21
190.599	62.86
190.987	74.17
191.375	170.63
191.763	-215.77
192.151	147.45
192.538	-314.07
192.926	110.11
193.314	14.31
193.702	305.51
194.089	-138.39
194.477	523.56
194.864	-219.89
195.252	47.54
195.639	5.06
196.027	155.2
196.414	-117.93
196.801	228.07
197.189	100.99
197.576	199.26
197.963	-2.47
198.351	39.12
198.738	74.97
199.125	203.03
199.512	-11.46
199.899	-19.88
200.286	159.51
200.673	-25.56
201.06	-19.34
201.447	-149.82
201.833	9.03
202.22	5.62
202.607	-149.66
202.994	52.53
203.38	23.96
203.767	-17.8
204.154	-5.66
204.54	39.03
204.927	4.13
205.313	39.71
205.699	-4.1
206.086	-16.53
206.472	50.98
206.858	13.01
207.245	59.73
207.631	37.57
208.017	21.05
208.403	4.49
208.789	-10.96
209.175	-41.58
209.561	21.78
209.947	-4.07
210.333	20.9
210.719	0.07
211.105	-45.86
211.491	27.9
211.876	32.38
212.262	10.72
212.648	-108.83
213.034	-33.96
213.419	-14.65
213.805	52.6
214.19	25.72
214.576	40.94
214.961	2.24
215.346	8.64
215.732	41.33
216.117	17.86
216.502	-6.51
216.888	7.81
217.273	4.96
217.658	-36.45
218.043	-5.17
218.428	-34.47
218.813	8.31
219.198	-11.2
219.583	30.98
219.968	13.31
220.353	12.71
220.738	15.84
221.122	1.04
221.507	10.02
221.892	-0.6
222.276	19.02
222.661	17.96
223.046	-7.65
223.43	13.86
223.815	4.91
224.199	-4.65
224.583	10.03
224.968	3.97
225.352	-15.78
225.736	15.44
226.121	27.03
226.505	3.91
226.889	4.68
227.273	7.56
227.657	3.06
228.041	0.21
228.425	0.87
228.809	1.06
229.193	2.93
229.577	4.87
229.961	2.42
230.344	4.19
230.728	4.43
231.112	3.48
231.495	3.06
231.879	4.04
232.263	4.73
232.646	3.44
233.03	3.75
233.413	3.65
233.797	3.85
234.18	-3.16
234.563	2.34
234.946	4.63
235.33	7.34
235.713	4.91
236.096	2.9
236.479	3.96
236.862	0.96
237.245	4.16
237.628	3.61
238.011	4.86
238.394	3.21
238.777	3.73
239.16	3.94
239.543	4.21
239.925	4.87
240.308	3.43
240.691	2.21
241.073	3.48
241.456	3.82
241.838	4.11
242.221	3.46
242.603	4.52
242.986	3.48
243.368	4.7
243.75	3.24
244.133	3.99
244.515	3.7
244.897	4.23
245.279	3.68
245.661	3.43
246.043	3.39
246.425	4.65
246.807	2.85
247.189	3.57
247.571	4.23
247.953	2.61
248.335	3.5
248.717	3.68
249.098	3.69
249.48	3.49
249.862	3.45
250.243	3.24
250.625	3.84
251.006	3.86
251.388	4.15
251.769	3.18
252.151	3.2
252.532	4.57
252.913	4.21
253.295	3.94
253.676	3.21
254.057	3.05
254.438	4.01
254.819	3.41
255.2	3.25
255.581	4.24
255.962	2.15
256.343	3.97
256.724	4.42
257.105	5.03
257.486	3.24
257.867	2.94
258.247	2.25
258.628	3.97
259.009	3.37
259.389	4.36
259.77	3.53
260.15	3.77
260.531	4.19
260.911	3.51
261.292	2.8
261.672	3.36
262.052	3.5
262.432	3.38
262.813	3.45
263.193	3.84
263.573	3.28
263.953	4.79
264.333	4.33
264.713	3.51
265.093	3.61
265.473	3.17
265.853	2.46
266.233	2.77
266.612	2.72
266.992	3.68
267.372	3.51
267.752	4.17
268.131	2.5
268.511	3.3
268.89	3.13
269.27	2.43
269.649	3.4
270.029	3.37
270.408	3.62
270.787	3.01
271.167	3.07
271.546	3.52
271.925	4.07
272.304	3.9
272.683	2.86
273.062	3.55
273.441	3.45
273.82	2.89
274.199	3.16
274.578	3.41
274.957	3.07
275.336	3.83
275.715	3.32
276.093	2.63
276.472	3.59
276.851	3.73
277.229	2.31
277.608	3.53
277.986	2.97
278.365	3.13
278.743	3.58
279.122	3.21
279.5	2.71
279.878	2.54
280.257	2.79
280.635	3.21
281.013	3.67
281.391	3.42
281.769	3.35
282.147	3.41
282.525	2.83
282.903	2.97
283.281	3.13
283.659	3.22
284.037	3.62
284.415	3.09
284.792	3.3
285.17	3.03
285.548	2.95
285.925	3.48
286.303	3.2
286.68	3.5
287.058	3.61
287.435	3.16
287.813	2.78
288.19	3.39
288.567	3.56
288.945	3.28
289.322	3.03
289.699	3.57
290.076	2.92
290.453	3.5
290.83	2.8
291.207	3.96
291.584	3.7
291.961	3.73
292.338	3.52
292.715	3.28
293.092	3.26
293.469	3.26
293.845	3.62
294.222	3.8
294.599	3.64
294.975	3.96
295.352	3.68
295.728	3.94
296.105	4.14
296.481	4.22
296.858	3.9
297.234	4.47
297.61	4.44
297.986	4.31
298.363	4.02
298.739	3.95
299.115	3.84
299.491	3.88
299.867	4.02
300.243	4.12
300.619	4.43
300.995	4.13
301.371	4.49
301.746	4.37
302.122	4.87
302.498	3.96
302.874	4.43
303.249	5.69
303.625	4.2
304	4.76
304.376	4.43
304.751	4.99
305.127	5.15
305.502	5
305.878	4.93
306.253	4.94
306.628	4.89
307.003	5.63
307.378	5.17
307.754	5.42
308.129	4.92
308.504	5.96
308.879	5.39
309.254	6.04
309.629	4.69
310.003	5.69
310.378	5.97
310.753	5.63
311.128	5.96
311.502	5.41
311.877	5.61
312.252	4.78
312.626	6.01
313.001	5.72
313.375	6.02
313.75	5.97
314.124	6.38
314.498	6.26
314.873	5.85
315.247	6.62
315.621	5.99
315.995	6.65
316.369	6.75
316.743	6.65
317.117	6.23
317.491	6.13
317.865	6.67
318.239	6.28
318.613	7.04
318.987	7.48
319.361	6.96
319.734	7.09
320.108	7.19
320.482	6.95
320.855	7.23
321.229	7.4
321.602	7.6
321.976	7.98
322.349	7.61
322.723	7.17
323.096	7.26
323.469	7.83
323.843	8.37
324.216	7.99
324.589	7.62
324.962	8.14
325.335	8.39
325.708	8.29
326.081	8.24
326.454	7.36
326.827	8.29
327.2	8.25
327.573	7.86
327.945	8.38
328.318	8.87
328.691	7.98
329.063	8.83
329.436	8.99
329.809	9.12
330.181	8.42
330.553	8.36
330.926	9.1
331.298	9.01
331.671	8.99
332.043	9.01
332.415	9.12
332.787	9.11
333.159	8.55
333.532	9.22
333.904	9.03
334.276	9.47
334.648	9.57
335.02	8.61
335.391	9.44
335.763	9.41
336.135	10.1
336.507	9.4
336.879	9.6
337.25	9.64
337.622	9.39
337.993	10.02
338.365	9.37
338.736	10.65
339.108	9.46
339.479	10.69
339.851	9.24
340.222	9.19
340.593	10.23
340.964	10.39
341.336	10.51
341.707	9.6
342.078	10.02
342.449	9.99
342.82	10.14
343.191	10.48
343.562	10.44
343.933	10.26
344.303	10.6
344.674	11.1
345.045	10.99
345.416	10.76
345.786	10.35
346.157	10.77
346.527	11.13
346.898	10.65
347.268	10.45
347.639	10.56
348.009	10.85
348.38	10.91
348.75	11.35
349.12	11.26
349.49	10.88
349.861	11.7
350.231	11.22
350.601	12.07
350.971	11.56
351.341	11.58
351.711	11.79
352.081	11.8
352.45	11.09
352.82	11.48
353.19	11.67
353.56	12
353.929	11.38
354.299	11.21
354.669	11.65
355.038	11.65
355.408	12.12
355.777	12.56
356.147	12.42
356.516	12.19
356.885	12.37
357.254	12.5
357.624	12.15
357.993	12.27
358.362	12.34
358.731	12.52
359.1	12.49
359.469	12.47
359.838	12.54
360.207	12.91
360.576	13.16
360.945	12.63
361.314	12.77
361.682	12.85
362.051	12.94
362.42	13.06
362.788	12.86
363.157	13.19
363.525	13.24
363.894	12.95
364.262	13.23
364.631	13.14
364.999	13.45
365.367	13.5
365.735	13.52
366.104	13.69
366.472	13.71
366.84	13.71
367.208	13.89
367.576	13.59
367.944	13.85
368.312	13.61
368.68	13.77
369.048	14.27
369.416	13.78
369.783	13.72
370.151	13.93
370.519	13.62
370.886	14.38
371.254	13.78
371.621	14.68
371.989	14.08
372.356	14.16
372.724	14.37
373.091	14.5
373.458	14.58
373.826	14.79
374.193	14
374.56	14.74
374.927	15.09
375.294	14.84
375.661	15.05
376.028	15.23
376.395	15.44
376.762	15.14
377.129	14.93
377.496	15.19
377.863	15.37
378.229	15.52
378.596	15.2
378.963	15.36
379.329	15.26
379.696	15.13
380.062	15.91
380.429	15.67
380.795	15.82
381.161	16.12
381.528	15.69
381.894	16.21
382.26	16.12
382.626	15.86
382.993	15.84
383.359	15.91
383.725	16.08
384.091	15.8
384.457	16.07
384.823	16.3
385.188	16.41
385.554	16.45
385.92	16.66
386.286	16.5
386.651	16.48
387.017	16.84
387.383	16.69
387.748	16.68
388.114	16.68
388.479	17.19
388.845	16.84
389.21	17.22
389.575	16.88
389.94	17.25
390.306	17.12
390.671	17.03
391.036	17.41
391.401	17.33
391.766	17.35
392.131	17.57
392.496	17.23
392.861	17.56
393.226	17.72
393.591	17.31
393.956	17.55
394.32	17.75
394.685	17.78
395.05	17.94
395.414	17.69
395.779	18.09
396.143	18.01
396.508	18.17
396.872	18.02
397.236	18.34
397.601	18.17
397.965	18.21
398.329	18.47
398.694	18.47
399.058	18.48
399.422	18.21
399.786	18.57
400.15	18.19
400.514	18.79
400.878	18.76
401.242	18.67
401.605	18.97
401.969	18.58
402.333	18.92
402.697	18.87
403.06	18.88
403.424	18.98
403.787	18.83
404.151	19.18
404.514	18.85
404.878	19.22
405.241	19.72
405.604	19.16
405.968	19.41
406.331	19.84
406.694	19.53
407.057	19.36
407.42	19.33
407.783	19.45
408.146	19.52
408.509	19.93
408.872	19.92
409.235	19.83
409.598	19.84
409.961	19.83
410.323	20.2
410.686	19.95
411.049	20.1
411.411	20.14
411.774	20.46
412.136	20.39
412.499	20.35
412.861	20.36
413.223	20.84
413.586	20.29
413.948	20.6
414.31	20.69
414.672	20.67
415.035	20.75
415.397	20.68
415.759	20.73
416.121	20.71
416.483	21
416.845	20.91
417.206	21.29
417.568	21
417.93	21.14
418.292	21.16
418.653	21.25
419.015	21.15
419.377	21.19
419.738	21.3
420.1	21.12
420.461	21.14
420.822	21.32
421.184	21.21
421.545	21.43
421.906	21.37
422.267	21.37
422.629	21.38
422.99	21.45
423.351	21.48
423.712	21.47
424.073	21.62
424.434	21.76
424.795	21.75
425.155	21.84
425.516	21.83
425.877	21.74
426.238	21.88
426.598	21.82
426.959	21.97
427.32	22.2
427.68	22.18
428.041	22.18
428.401	22.54
428.761	22.72
429.122	22.75
429.482	22.89
429.842	22.81
430.202	22.65
430.563	22.95
430.923	22.82
431.283	23.12
431.643	23.03
432.003	23.03
432.363	23.23
432.722	23.15
433.082	23.27
433.442	23.39
433.802	23.35
434.161	23.34
434.521	23.53
434.881	23.48
435.24	23.66
435.6	23.51
435.959	23.56
436.319	23.58
436.678	23.73
437.037	23.78
437.396	23.87
437.756	23.85
438.115	24.11
438.474	23.96
438.833	24.19
439.192	24.29
439.551	24.11
439.91	23.95
440.269	24.13
440.628	24.18
440.987	24.18
441.345	24.5
441.704	24.43
442.063	24.4
442.421	24.56
442.78	24.39
443.138	24.36
443.497	24.47
443.855	24.74
444.214	24.76
444.572	25.11
444.93	24.94
445.288	24.95
445.647	25.26
446.005	25.08
446.363	25.05
446.721	25.11
447.079	25.16
447.437	25.02
447.795	25.02
448.153	25.03
448.51	25.05
448.868	25.2
449.226	25.48
449.584	25.38
449.941	25.32
450.299	25.62
450.656	25.61
451.014	25.71
451.371	25.84
451.729	25.9
452.086	26.04
452.443	26.27
452.801	26.33
453.158	26.04
453.515	26.02
453.872	26.47
454.229	26.16
454.586	26.19
454.943	26.35
455.3	26.51
455.657	26.61
456.014	26.82
456.371	26.69
456.727	26.78
457.084	26.93
457.441	26.79
457.797	27.14
458.154	26.87
458.51	27.23
458.867	27.06
459.223	27.27
459.58	27.2
459.936	27
460.292	27.24
460.648	27.16
461.005	27.23
461.361	27.04
461.717	27.11
462.073	27.11
462.429	27.05
462.785	27.32
463.141	27.41
463.496	27.75
463.852	27.83
464.208	27.65
464.564	27.81
464.919	28.14
465.275	28.09
465.631	28.33
465.986	28.39
466.342	28.05
466.697	28.29
467.052	28.34
467.408	28.3
467.763	28.52
468.118	28.59
468.473	28.51
468.829	28.3
469.184	28.39
469.539	28.67
469.894	28.63
470.249	28.68
470.603	28.75
470.958	28.94
471.313	29.16
471.668	28.88
472.023	28.99
472.377	28.98
472.732	29.08
473.086	29.33
473.441	29.46
473.795	29.2
474.15	29.56
474.504	29.34
474.859	29.48
475.213	29.51
475.567	29.4
475.921	29.6
476.275	29.66
476.63	29.59
476.984	29.72
477.338	29.91
477.692	29.86
478.045	29.93
478.399	29.76
478.753	29.82
479.107	29.99
479.461	29.95
479.814	29.94
480.168	30.07
480.521	30
480.875	30.29
481.228	30.27
481.582	30.12
481.935	30.22
482.289	30.32
482.642	30.45
482.995	30.29
483.348	30.22
483.701	30.46
484.055	30.32
484.408	30.11
484.761	30.04
485.114	29.86
485.466	29.48
485.819	29.5
486.172	29.59
486.525	29.7
486.878	29.88
487.23	30.04
487.583	30.02
487.936	30.34
488.288	30.41
488.641	30.38
488.993	30.32
489.345	30.2
489.698	30.21
490.05	30.27
490.402	30.25
490.754	30.52
491.107	30.68
491.459	30.97
491.811	31.2
492.163	31.31
492.515	31.51
492.866	31.2
493.218	30.91
493.57	30.84
493.922	31.03
494.274	31.01
494.625	31.36
494.977	31.75
495.328	31.8
495.68	32.11
496.031	32.19
496.383	32.47
496.734	32.3
497.086	32.34
497.437	32.62
497.788	32.56
498.139	32.38
498.49	32.42
498.842	32.52
499.193	32.61
499.544	32.74
499.894	32.52
500.245	32.89
500.596	32.71
500.947	32.95
501.298	32.89
501.648	33.14
501.999	33.07
502.35	33.16
502.7	33.19
503.051	33.39
503.401	33.3
503.752	33.54
504.102	33.49
504.452	33.47
504.803	33.86
505.153	33.67
505.503	33.85
505.853	33.64
506.203	33.77
506.553	33.7
506.903	33.8
507.253	33.95
507.603	33.87
507.953	34.11
508.303	33.95
508.652	34.23
509.002	34.2
509.352	34.15
509.701	34.24
510.051	34.14
510.4	34.31
510.75	34.09
511.099	34.18
511.449	34.19
511.798	34.32
512.147	34.28
512.496	34.38
512.846	34.65
513.195	34.46
513.544	34.79
513.893	34.61
514.242	34.61
514.591	34.58
514.939	34.76
515.288	34.77
515.637	34.74
515.986	34.85
516.334	35.19
516.683	35.13
517.032	35.36
517.38	35.38
517.729	35.3
518.077	35.4
518.426	35.43
518.774	35.35
519.122	35.24
519.47	35.37
519.819	35.16
520.167	35.19
520.515	35
520.863	35.06
521.211	35.05
521.559	35.32
521.907	35.58
522.255	35.66
522.602	35.93
522.95	35.85
523.298	36
523.645	36.06
523.993	36.02
524.341	36.45
524.688	36.39
525.036	36.25
525.383	36.32
525.73	36.22
526.078	36.27
526.425	36.28
526.772	36.32
527.119	36.15
527.466	35.98
527.814	36.06
528.161	35.92
528.508	35.92
528.854	36.09
529.201	36.23
529.548	36.24
529.895	36.05
530.242	35.63
530.588	35.66
530.935	35.77
531.282	35.8
531.628	36
531.975	36.07
532.321	36.39
532.667	36.55
533.014	36.78
533.36	36.68
533.706	36.8
534.052	36.86
534.399	36.83
534.745	36.75
535.091	36.48
535.437	36.67
535.783	36.77
536.129	36.93
536.474	36.99
536.82	37.22
537.166	37.52
537.512	37.5
537.857	37.4
538.203	37.39
538.549	37.27
538.894	37.3
539.239	37.59
539.585	37.62
539.93	37.85
540.276	38.01
540.621	38.15
540.966	38.27
541.311	38.3
541.656	38.36
542.001	38.22
542.346	38.15
542.691	37.84
543.036	37.53
543.381	37.51
543.726	37.59
544.071	37.75
544.415	37.76
544.76	37.82
545.105	37.92
545.449	38.33
545.794	38.41
546.138	38.51
546.483	38.74
546.827	38.71
547.171	38.88
547.516	38.89
547.86	39.09
548.204	38.99
548.548	38.83
548.892	38.97
549.236	38.97
549.58	39.26
549.924	39.22
550.268	39.38
550.612	39.69
550.956	39.68
551.3	39.88
551.643	39.81
551.987	39.62
552.33	40.03
552.674	40.09
553.017	40.11
553.361	40.15
553.704	40.21
554.048	39.89
554.391	40.32
554.734	40.11
555.077	40.03
555.42	40.27
555.764	40.22
556.107	40.55
556.45	40.48
556.793	40.67
557.135	40.36
557.478	40.66
557.821	40.76
558.164	40.75
558.507	40.94
558.849	40.86
559.192	41.05
559.534	41.06
559.877	41.21
560.219	41.13
560.562	41.33
560.904	41.33
561.246	41.25
561.589	41.42
561.931	41.49
562.273	41.18
562.615	41.24
562.957	41.44
563.299	41.38
563.641	41.53
563.983	41.35
564.325	41.58
564.667	41.5
565.008	41.31
565.35	41.56
565.692	41.72
566.033	41.97
566.375	41.67
566.716	41.78
567.058	41.79
567.399	42
567.741	41.55
568.082	41.72
568.423	41.72
568.764	41.96
569.105	41.6
569.447	41.97
569.788	41.96
570.129	41.9
570.47	42.25
570.811	42.38
571.151	42.35
571.492	42.39
571.833	42.4
572.174	42.6
572.514	42.66
572.855	42.86
573.195	42.53
573.536	42.49
573.876	42.56
574.217	42.33
574.557	42.31
574.898	42.3
575.238	42.79
575.578	42.69
575.918	42.59
576.258	43.03
576.598	42.76
576.938	42.95
577.278	42.78
577.618	43.06
577.958	42.9
578.298	43.19
578.638	42.85
578.977	43.05
579.317	43.65
579.657	43.46
579.996	43.71
580.336	43.32
580.675	43.62
581.014	43.7
581.354	43.65
581.693	43.66
582.032	43.6
582.372	44.06
582.711	43.98
583.05	44.33
583.389	44.03
583.728	44.08
584.067	44.18
584.406	44.31
584.745	44.1
585.083	44.26
585.422	44.34
585.761	44.47
586.1	44.21
586.438	44.49
586.777	44.26
587.115	44.27
587.454	44.19
587.792	44.4
588.13	44.45
588.469	44.69
588.807	44.19
589.145	45.07
589.483	44.62
589.821	44.7
590.159	44.9
590.497	45.1
590.835	44.92
591.173	44.95
591.511	45.13
591.849	44.95
592.187	45.24
592.524	45.07
592.862	44.84
593.2	45.01
593.537	44.89
593.875	45.61
594.212	45.25
594.55	45.64
594.887	45.79
595.224	45.68
595.561	45.68
595.899	45.61
596.236	45.56
596.573	45.3
596.91	45.57
597.247	45.63
597.584	45.65
597.921	45.69
598.258	45.71
598.594	45.72
598.931	45.49
599.268	45.42
599.604	45.24
599.941	45.58
600.277	45.34
600.614	45.85
600.95	46.01
601.287	46.12
601.623	45.84
601.959	46.06
602.296	46.24
602.632	46.26
602.968	46.75
603.304	46.23
603.64	46.29
603.976	45.95
604.312	46.08
604.648	46.18
604.984	46.35
605.319	46.44
605.655	46.51
605.991	46.62
606.326	46.26
606.662	46.42
606.998	46.18
607.333	46.43
607.668	46.47
608.004	46.53
608.339	46.67
608.674	46.85
609.01	46.55
609.345	46.98
609.68	46.93
610.015	46.86
610.35	47.05
610.685	47.36
611.02	46.9
611.355	46.82
611.689	46.95
612.024	47.06
612.359	47.11
612.694	46.99
613.028	47.09
613.363	47.34
613.697	47.22
614.032	47.16
614.366	47.54
614.7	47.37
615.035	47.36
615.369	47.42
615.703	47.75
616.037	48.13
616.371	47.69
616.705	47.67
617.039	47.5
617.373	47.99
617.707	47.91
618.041	47.65
618.375	48.37
618.709	47.96
619.042	48.18
619.376	48.25
619.71	48.04
620.043	48.17
620.377	48.04
620.71	48.27
621.043	48.55
621.377	48.3
621.71	48.42
622.043	48.54
622.376	48.62
622.709	48.54
623.043	48.24
623.376	49.01
623.709	48.97
624.041	48.29
624.374	48.97
624.707	48.25
625.04	48.46
625.373	48.69
625.705	49.01
626.038	48.89
626.37	48.72
626.703	49.18
627.035	49.11
627.368	48.82
627.7	48.92
628.032	48.54
628.365	49.16
628.697	48.64
629.029	48.84
629.361	49.13
629.693	48.81
630.025	48.85
630.357	49.39
630.689	48.75
631.021	49.25
631.353	49.19
631.684	49.34
632.016	49.35
632.348	49.49
632.679	49.05
633.011	49.78
633.342	49.54
633.674	49.67
634.005	49.6
634.336	50.12
634.668	50.2
634.999	49.48
635.33	49.96
635.661	49.89
635.992	49.68
636.323	49.71
636.654	49.84
636.985	50.22
637.316	50.24
637.647	49.82
637.977	50.33
638.308	50.46
638.639	50.05
638.969	50.09
639.3	50.25
639.63	49.75
639.961	49.93
640.291	50.13
640.622	50.69
640.952	50.37
641.282	50.06
641.612	49.77
641.943	50.84
642.273	50.41
642.603	50.53
642.933	50.68
643.263	50.06
643.592	50.68
643.922	51.15
644.252	50.82
644.582	50.68
644.911	51.58
645.241	51.11
645.571	50.66
645.9	50.31
646.23	50.9
646.559	51.3
646.888	51.34
647.218	50.45
647.547	50.87
647.876	51.11
648.205	51.07
648.534	50.86
648.863	51.44
649.192	51.2
649.521	51.35
649.85	51.22
650.179	51.2
650.508	51.09
650.837	51.61
651.165	51.78
651.494	51.35
651.822	51.33
652.151	51.35
652.479	51.64
652.808	51.45
653.136	51.36
653.465	51.31
653.793	51.57
654.121	51.14
654.449	51.18
654.777	52.1
655.105	51.06
655.433	51.94
655.761	52.38
656.089	52.25
656.417	51.88
656.745	51.74
657.073	51.34
657.4	51.96
657.728	51.3
658.056	51.95
658.383	51.85
658.711	51.5
659.038	51.71
659.365	51.45
659.693	51.94
660.02	51.39
660.347	52.53
660.674	52.66
661.001	52.84
661.329	52.4
661.656	51.72
661.982	52.34
662.309	52.4
662.636	52.33
662.963	52.93
663.29	52.54
663.616	52.46
663.943	52.19
664.27	52.37
664.596	52.43
664.923	52.15
665.249	52.82
665.576	52.02
665.902	52.67
666.228	52.9
666.554	52.86
666.881	52.37
667.207	52.11
667.533	52.33
667.859	53.08
668.185	53.18
668.511	52.33
668.837	52.65
669.162	53.39
669.488	52.42
669.814	52.91
