Data from 0410_chest_Reflection__0__182.txt Node

Date: Tue Dec 12 19:53:21 CST 2023
User: ToomeyLab
Spectrometer: FLMS14357
Trigger mode: 0
Integration Time (sec): 1.000000E-2
Scans to average: 100
Electric dark correction enabled: true
Nonlinearity correction enabled: false
Boxcar width: 0
XAxis mode: Wavelengths
Number of Pixels in Spectrum: 2048
>>>>>Begin Spectral Data<<<<<
189.047	-61.74
189.435	-61.74
189.823	-61.74
190.211	424.42
190.599	72.1
190.987	66.8
191.375	14.63
191.763	397.77
192.151	111.79
192.538	-203.03
192.926	36.14
193.314	-4.2
193.702	245.42
194.089	244.27
194.477	1135.95
194.864	66.95
195.252	262.43
195.639	7.15
196.027	103.57
196.414	-985.99
196.801	80.66
197.189	190.22
197.576	171.8
197.963	94.94
198.351	4.91
198.738	-21.65
199.125	38.84
199.512	-37.44
199.899	-10.25
200.286	57.22
200.673	-60.93
201.06	-7.1
201.447	-174.89
201.833	-30.78
202.22	-13.5
202.607	-156.94
202.994	23.27
203.38	20.91
203.767	15.81
204.154	-21.07
204.54	40.11
204.927	-21.45
205.313	38.64
205.699	-28.04
206.086	-60.8
206.472	35.63
206.858	38.52
207.245	-4.26
207.631	20.48
208.017	12.88
208.403	-22.39
208.789	19.23
209.175	-40.73
209.561	-2.16
209.947	-36.99
210.333	-19.15
210.719	1.67
211.105	-91.4
211.491	28.32
211.876	-25.16
212.262	11.15
212.648	-6.69
213.034	-100.09
213.419	-26.59
213.805	15.07
214.19	11.43
214.576	58.64
214.961	-63.54
215.346	-55.35
215.732	9.64
216.117	0.18
216.502	-83.05
216.888	-16.14
217.273	-29.31
217.658	-116.29
218.043	12.61
218.428	-1.9
218.813	-21.64
219.198	-112.92
219.583	-16.32
219.968	9.54
220.353	18.62
220.738	-14.22
221.122	-10.66
221.507	-33.67
221.892	3.11
222.276	8.3
222.661	-7.3
223.046	-23.73
223.43	9.06
223.815	-10.28
224.199	8.32
224.583	-3.48
224.968	4.52
225.352	-12.62
225.736	8.97
226.121	-9.7
226.505	2.69
226.889	-4.11
227.273	-7.92
227.657	5.42
228.041	-1.23
228.425	-3.09
228.809	-5.08
229.193	-4.95
229.577	1.1
229.961	-1.48
230.344	1.36
230.728	1.01
231.112	0.89
231.495	1.14
231.879	0.69
232.263	0.62
232.646	-1.54
233.03	-0.76
233.413	-1.17
233.797	1.3
234.18	-3.32
234.563	-2.42
234.946	-0.67
235.33	3.23
235.713	2.92
236.096	0.69
236.479	1.57
236.862	1.23
237.245	-1.02
237.628	-0.3
238.011	-1.65
238.394	2.03
238.777	1.37
239.16	0.02
239.543	0.95
239.925	2.8
240.308	0.59
240.691	-0.67
241.073	2.54
241.456	2.75
241.838	-0.46
242.221	0.95
242.603	1.15
242.986	0.35
243.368	1.7
243.75	0.04
244.133	0.65
244.515	0.99
244.897	0.73
245.279	1.37
245.661	0.66
246.043	0.04
246.425	1.02
246.807	-0.55
247.189	1.05
247.571	1.23
247.953	0.55
248.335	0.83
248.717	1.07
249.098	1.18
249.48	0.94
249.862	0.88
250.243	0.84
250.625	1.49
251.006	1.05
251.388	1.63
251.769	1.67
252.151	-0.43
252.532	0.46
252.913	1.67
253.295	0.76
253.676	0.57
254.057	0.57
254.438	1.13
254.819	0.78
255.2	1.42
255.581	1.22
255.962	0.54
256.343	1.27
256.724	1.39
257.105	1.06
257.486	-0.01
257.867	0.58
258.247	-0.26
258.628	1.15
259.009	0.17
259.389	1.53
259.77	1.44
260.15	0.76
260.531	1.94
260.911	1.42
261.292	0.78
261.672	0.99
262.052	0.98
262.432	0.9
262.813	1.16
263.193	1.01
263.573	1.26
263.953	2.34
264.333	1.91
264.713	0.8
265.093	1.27
265.473	0.77
265.853	-0.38
266.233	-0.06
266.612	0.49
266.992	0.59
267.372	1.89
267.752	2.14
268.131	0.32
268.511	0.91
268.89	0.28
269.27	0.19
269.649	1.39
270.029	0.63
270.408	0.94
270.787	1.02
271.167	0.98
271.546	0.72
271.925	2.08
272.304	1.36
272.683	0.03
273.062	1.35
273.441	1.13
273.82	0.68
274.199	0.66
274.578	0.94
274.957	0.6
275.336	1.04
275.715	0.73
276.093	0.35
276.472	1.32
276.851	1.19
277.229	1.24
277.608	0.9
277.986	0.37
278.365	0.97
278.743	0.55
279.122	1.44
279.5	0.46
279.878	0.38
280.257	0.88
280.635	1.09
281.013	0.12
281.391	1.36
281.769	1.23
282.147	0.97
282.525	0.47
282.903	0.84
283.281	0.75
283.659	0.42
284.037	0.84
284.415	0.93
284.792	1.45
285.17	0.75
285.548	1.14
285.925	0.81
286.303	0.92
286.68	0.97
287.058	1.21
287.435	1.22
287.813	0.42
288.19	1
288.567	0.95
288.945	1.06
289.322	0.66
289.699	0.57
290.076	0.93
290.453	1.17
290.83	0.8
291.207	1.36
291.584	0.94
291.961	0.6
292.338	0.97
292.715	1.1
293.092	0.65
293.469	0.59
293.845	1.16
294.222	0.82
294.599	1.09
294.975	0.95
295.352	1.2
295.728	1.23
296.105	1.06
296.481	1.57
296.858	1.03
297.234	1.45
297.61	1.29
297.986	1.18
298.363	0.92
298.739	0.84
299.115	0.53
299.491	0.88
299.867	0.88
300.243	0.77
300.619	0.89
300.995	1.16
301.371	1.1
301.746	1.24
302.122	1.75
302.498	1.12
302.874	1.2
303.249	1.72
303.625	0.57
304	1.31
304.376	1.39
304.751	1.48
305.127	1.19
305.502	1.3
305.878	0.71
306.253	0.79
306.628	0.65
307.003	0.93
307.378	0.72
307.754	1.2
308.129	0.67
308.504	1.98
308.879	0.59
309.254	1.7
309.629	0.46
310.003	1
310.378	1.52
310.753	1.37
311.128	1.67
311.502	0.74
311.877	1
312.252	0.81
312.626	0.73
313.001	1.05
313.375	0.94
313.75	1.19
314.124	1.46
314.498	1.05
314.873	1.07
315.247	1.31
315.621	0.97
315.995	1.07
316.369	0.7
316.743	0.92
317.117	0.42
317.491	1.01
317.865	1.51
318.239	0.81
318.613	1.51
318.987	1.36
319.361	0.58
319.734	1.06
320.108	1.24
320.482	1.22
320.855	0.71
321.229	1.28
321.602	1.54
321.976	1.52
322.349	1.45
322.723	0.62
323.096	1.19
323.469	1.36
323.843	1.88
324.216	1.92
324.589	1.43
324.962	1.51
325.335	1.78
325.708	1.57
326.081	1.67
326.454	1.2
326.827	1.67
327.2	1.72
327.573	0.92
327.945	1.34
328.318	1.46
328.691	0.96
329.063	1.91
329.436	1.4
329.809	1.49
330.181	1.2
330.553	1.62
330.926	1.25
331.298	0.95
331.671	1.59
332.043	1.19
332.415	1.82
332.787	1.1
333.159	1.68
333.532	1.05
333.904	1.34
334.276	1.93
334.648	0.54
335.02	0.58
335.391	1.85
335.763	1.26
336.135	1.73
336.507	1.7
336.879	1.26
337.25	1.49
337.622	0.81
337.993	1.32
338.365	0.7
338.736	1.64
339.108	1.22
339.479	1.36
339.851	0.91
340.222	1.02
340.593	1.54
340.964	1.43
341.336	1.69
341.707	0.95
342.078	0.92
342.449	1.5
342.82	2.17
343.191	1.55
343.562	1.02
343.933	1.54
344.303	1.59
344.674	1.58
345.045	1.54
345.416	1.67
345.786	1.21
346.157	1.17
346.527	1.75
346.898	1.12
347.268	1.19
347.639	1.42
348.009	1.3
348.38	1.33
348.75	1.7
349.12	1.61
349.49	1.36
349.861	1.74
350.231	1.7
350.601	2.06
350.971	1.62
351.341	1.18
351.711	1.49
352.081	1.43
352.45	1.41
352.82	1.74
353.19	1.67
353.56	1.35
353.929	1.22
354.299	1.22
354.669	1.75
355.038	0.87
355.408	1.18
355.777	1.94
356.147	1.08
356.516	1.47
356.885	1.31
357.254	1.56
357.624	1.36
357.993	1.52
358.362	1.6
358.731	1.49
359.1	1.16
359.469	1.43
359.838	1.17
360.207	1.4
360.576	1.73
360.945	1.4
361.314	1.47
361.682	1.6
362.051	1.63
362.42	1.55
362.788	1.39
363.157	1.87
363.525	1.51
363.894	1.21
364.262	1.54
364.631	1.14
364.999	1.53
365.367	1.58
365.735	1.25
366.104	1.46
366.472	1.55
366.84	1.67
367.208	1.39
367.576	1.57
367.944	1.62
368.312	1.55
368.68	1.43
369.048	1.71
369.416	1.58
369.783	2
370.151	1.56
370.519	1.24
370.886	1.51
371.254	1.74
371.621	1.59
371.989	1.31
372.356	1.26
372.724	1.48
373.091	1.5
373.458	1.25
373.826	1.55
374.193	1.38
374.56	1.61
374.927	1.62
375.294	1.58
375.661	2.05
376.028	1.66
376.395	1.59
376.762	1.85
377.129	1.47
377.496	1.32
377.863	1.78
378.229	1.56
378.596	1.44
378.963	1.86
379.329	1.28
379.696	1.25
380.062	1.79
380.429	1.75
380.795	1.83
381.161	1.45
381.528	1.53
381.894	1.57
382.26	1.29
382.626	1.54
382.993	1.74
383.359	1.27
383.725	1.69
384.091	1.55
384.457	1.34
384.823	1.66
385.188	1.61
385.554	1.37
385.92	1.39
386.286	1.8
386.651	1.97
387.017	1.9
387.383	1.71
387.748	1.75
388.114	1.99
388.479	1.8
388.845	1.64
389.21	1.69
389.575	1.7
389.94	1.35
390.306	1.65
390.671	1.9
391.036	1.72
391.401	1.98
391.766	1.7
392.131	1.86
392.496	1.52
392.861	1.36
393.226	1.69
393.591	1.46
393.956	1.52
394.32	1.81
394.685	1.58
395.05	1.7
395.414	1.68
395.779	1.65
396.143	1.83
396.508	1.59
396.872	1.51
397.236	1.7
397.601	1.75
397.965	1.78
398.329	1.88
398.694	1.81
399.058	1.78
399.422	1.7
399.786	1.5
400.15	1.46
400.514	1.78
400.878	1.64
401.242	1.66
401.605	1.84
401.969	1.42
402.333	1.84
402.697	1.71
403.06	1.49
403.424	1.75
403.787	1.37
404.151	1.95
404.514	1.43
404.878	1.71
405.241	1.79
405.604	1.48
405.968	1.51
406.331	1.91
406.694	1.9
407.057	1.5
407.42	1.77
407.783	1.45
408.146	1.48
408.509	1.71
408.872	1.88
409.235	1.68
409.598	1.91
409.961	1.76
410.323	2.04
410.686	1.72
411.049	1.81
411.411	1.8
411.774	1.98
412.136	1.75
412.499	1.71
412.861	1.86
413.223	2.05
413.586	1.64
413.948	1.65
414.31	1.8
414.672	1.74
415.035	1.48
415.397	1.79
415.759	1.81
416.121	1.9
416.483	2.02
416.845	1.53
417.206	1.77
417.568	1.76
417.93	1.73
418.292	1.71
418.653	1.86
419.015	1.71
419.377	1.73
419.738	1.8
420.1	1.81
420.461	1.95
420.822	1.9
421.184	1.74
421.545	1.99
421.906	1.78
422.267	1.7
422.629	1.77
422.99	1.77
423.351	1.84
423.712	1.85
424.073	1.85
424.434	1.78
424.795	1.91
425.155	1.69
425.516	1.69
425.877	1.81
426.238	1.8
426.598	1.81
426.959	1.79
427.32	1.76
427.68	1.81
428.041	1.85
428.401	1.82
428.761	1.74
429.122	1.86
429.482	2.07
429.842	1.76
430.202	1.74
430.563	1.96
430.923	1.97
431.283	1.72
431.643	1.89
432.003	1.95
432.363	1.96
432.722	1.84
433.082	1.89
433.442	1.78
433.802	2.03
434.161	1.9
434.521	2
434.881	1.87
435.24	1.85
435.6	1.9
435.959	1.84
436.319	1.91
436.678	2.01
437.037	1.9
437.396	1.78
437.756	2.04
438.115	1.94
438.474	1.86
438.833	2.13
439.192	2.06
439.551	1.91
439.91	1.9
440.269	1.91
440.628	1.85
440.987	1.8
441.345	1.96
441.704	1.85
442.063	1.79
442.421	1.96
442.78	1.89
443.138	1.88
443.497	1.86
443.855	1.94
444.214	1.94
444.572	2.09
444.93	1.89
445.288	1.72
445.647	2
446.005	1.89
446.363	1.68
446.721	1.79
447.079	1.86
447.437	1.87
447.795	1.92
448.153	1.96
448.51	1.92
448.868	1.94
449.226	1.99
449.584	1.92
449.941	1.89
450.299	2
450.656	1.9
451.014	2.03
451.371	1.97
451.729	2.16
452.086	1.82
452.443	2.19
452.801	1.93
453.158	1.85
453.515	2.06
453.872	2.01
454.229	2
454.586	1.74
454.943	1.9
455.3	1.94
455.657	2.02
456.014	2.18
456.371	2
456.727	2.12
457.084	1.92
457.441	1.95
457.797	1.95
458.154	1.89
458.51	1.91
458.867	2.01
459.223	2.04
459.58	1.99
459.936	1.75
460.292	1.95
460.648	1.86
461.005	1.92
461.361	1.93
461.717	2.04
462.073	1.92
462.429	1.99
462.785	2.03
463.141	2.04
463.496	1.93
463.852	2.12
464.208	2.11
464.564	2.02
464.919	2.29
465.275	2.03
465.631	2.01
465.986	2.1
466.342	1.96
466.697	2.15
467.052	2.18
467.408	2.08
467.763	2
468.118	1.96
468.473	2
468.829	2.06
469.184	1.89
469.539	2.16
469.894	2
470.249	1.99
470.603	2.01
470.958	2.12
471.313	2.17
471.668	2.18
472.023	1.99
472.377	1.91
472.732	1.92
473.086	2.36
473.441	2.09
473.795	1.99
474.15	2.19
474.504	1.95
474.859	2.07
475.213	1.96
475.567	2.02
475.921	2.2
476.275	1.99
476.63	1.9
476.984	2.11
477.338	2.05
477.692	2.09
478.045	2.21
478.399	2.03
478.753	2.09
479.107	2.14
479.461	2.09
479.814	2.15
480.168	1.98
480.521	1.99
480.875	2.07
481.228	2.3
481.582	2.23
481.935	2.09
482.289	2.21
482.642	2.14
482.995	2.17
483.348	2.22
483.701	2.32
484.055	2.11
484.408	2.09
484.761	2.1
485.114	2.06
485.466	1.99
485.819	1.98
486.172	1.99
486.525	2.01
486.878	2.03
487.23	2.02
487.583	1.99
487.936	2.05
488.288	2.05
488.641	2.06
488.993	2.06
489.345	2.07
489.698	2.04
490.05	2.09
490.402	2.08
490.754	2.04
491.107	2.11
491.459	2.17
491.811	2.22
492.163	2.14
492.515	2.19
492.866	2.11
493.218	2.07
493.57	2.05
493.922	2.02
494.274	2.08
494.625	2.13
494.977	2.25
495.328	2.33
495.68	2.16
496.031	2.26
496.383	2.17
496.734	2.15
497.086	2.23
497.437	2.22
497.788	2.22
498.139	2.31
498.49	2.28
498.842	2.19
499.193	2.33
499.544	2.33
499.894	2.22
500.245	2.35
500.596	2.26
500.947	2.13
501.298	2.33
501.648	2.37
501.999	2.33
502.35	2.28
502.7	2.22
503.051	2.24
503.401	2.22
503.752	2.35
504.102	2.29
504.452	2.27
504.803	2.33
505.153	2.38
505.503	2.38
505.853	2.43
506.203	2.37
506.553	2.17
506.903	2.35
507.253	2.27
507.603	2.38
507.953	2.37
508.303	2.35
508.652	2.33
509.002	2.4
509.352	2.38
509.701	2.38
510.051	2.42
510.4	2.45
510.75	2.27
511.099	2.31
511.449	2.52
511.798	2.2
512.147	2.36
512.496	2.49
512.846	2.29
513.195	2.34
513.544	2.44
513.893	2.41
514.242	2.27
514.591	2.35
514.939	2.38
515.288	2.47
515.637	2.25
515.986	2.41
516.334	2.43
516.683	2.38
517.032	2.44
517.38	2.39
517.729	2.35
518.077	2.38
518.426	2.66
518.774	2.43
519.122	2.47
519.47	2.48
519.819	2.43
520.167	2.34
520.515	2.4
520.863	2.41
521.211	2.31
521.559	2.43
521.907	2.4
522.255	2.39
522.602	2.57
522.95	2.55
523.298	2.47
523.645	2.59
523.993	2.6
524.341	2.6
524.688	2.46
525.036	2.7
525.383	2.54
525.73	2.39
526.078	2.46
526.425	2.4
526.772	2.3
527.119	2.4
527.466	2.54
527.814	2.42
528.161	2.47
528.508	2.53
528.854	2.46
529.201	2.42
529.548	2.49
529.895	2.41
530.242	2.39
530.588	2.37
530.935	2.45
531.282	2.46
531.628	2.5
531.975	2.45
532.321	2.47
532.667	2.47
533.014	2.55
533.36	2.54
533.706	2.58
534.052	2.54
534.399	2.66
534.745	2.54
535.091	2.47
535.437	2.53
535.783	2.53
536.129	2.65
536.474	2.57
536.82	2.63
537.166	2.72
537.512	2.63
537.857	2.72
538.203	2.72
538.549	2.67
538.894	2.6
539.239	2.58
539.585	2.74
539.93	2.73
540.276	2.69
540.621	2.71
540.966	2.64
541.311	2.66
541.656	2.75
542.001	2.77
542.346	2.74
542.691	2.69
543.036	2.64
543.381	2.56
543.726	2.66
544.071	2.69
544.415	2.66
544.76	2.69
545.105	2.74
545.449	2.73
545.794	2.83
546.138	2.69
546.483	2.8
546.827	2.86
547.171	2.84
547.516	2.81
547.86	2.8
548.204	2.91
548.548	2.8
548.892	2.9
549.236	2.82
549.58	2.9
549.924	2.95
550.268	2.96
550.612	2.92
550.956	2.96
551.3	3.14
551.643	3
551.987	3.02
552.33	2.82
552.674	3.13
553.017	3.16
553.361	3.14
553.704	3.03
554.048	2.93
554.391	3
554.734	2.98
555.077	3.18
555.42	2.83
555.764	3.16
556.107	3.21
556.45	2.98
556.793	2.96
557.135	3.15
557.478	3.09
557.821	3
558.164	3.15
558.507	3.26
558.849	3.19
559.192	3.04
559.534	3.27
559.877	3.1
560.219	3.28
560.562	3.33
560.904	3.36
561.246	3.28
561.589	3.24
561.931	3.38
562.273	3.28
562.615	3.27
562.957	3.35
563.299	3.27
563.641	3.4
563.983	3.37
564.325	3.38
564.667	3.52
565.008	3.34
565.35	3.23
565.692	3.46
566.033	3.42
566.375	3.43
566.716	3.34
567.058	3.54
567.399	3.41
567.741	3.5
568.082	3.29
568.423	3.41
568.764	3.55
569.105	3.47
569.447	3.63
569.788	3.54
570.129	3.49
570.47	3.47
570.811	3.5
571.151	3.6
571.492	3.57
571.833	3.76
572.174	3.43
572.514	3.68
572.855	3.48
573.195	3.61
573.536	3.4
573.876	3.67
574.217	3.62
574.557	3.67
574.898	3.71
575.238	3.79
575.578	3.71
575.918	3.83
576.258	3.68
576.598	3.65
576.938	3.84
577.278	3.79
577.618	3.74
577.958	3.64
578.298	4
578.638	3.74
578.977	3.84
579.317	3.92
579.657	3.88
579.996	3.85
580.336	3.86
580.675	3.89
581.014	3.99
581.354	3.95
581.693	3.97
582.032	3.85
582.372	3.99
582.711	4.05
583.05	4.13
583.389	4.09
583.728	4.07
584.067	4.2
584.406	4.3
584.745	4.29
585.083	4.04
585.422	4.31
585.761	4.51
586.1	4.08
586.438	4.22
586.777	4.19
587.115	4.37
587.454	4.33
587.792	3.79
588.13	4.27
588.469	4.16
588.807	4.04
589.145	4.09
589.483	4.16
589.821	4.21
590.159	4.39
590.497	4.32
590.835	4.42
591.173	4.27
591.511	4.58
591.849	4.38
592.187	4.56
592.524	4.17
592.862	4.14
593.2	4.07
593.537	4.19
593.875	4.66
594.212	4.44
594.55	4.61
594.887	4.71
595.224	4.58
595.561	4.81
595.899	4.42
596.236	4.73
596.573	4.59
596.91	4.77
597.247	4.59
597.584	4.63
597.921	4.76
598.258	4.99
598.594	4.79
598.931	4.65
599.268	4.62
599.604	4.75
599.941	4.82
600.277	4.7
600.614	4.91
600.95	4.97
601.287	4.97
601.623	4.87
601.959	4.65
602.296	5.12
602.632	4.85
602.968	4.9
603.304	4.9
603.64	5.18
603.976	4.7
604.312	4.9
604.648	5.15
604.984	4.91
605.319	4.94
605.655	4.89
605.991	5.18
606.326	4.95
606.662	5.05
606.998	4.87
607.333	5
607.668	5.15
608.004	5.22
608.339	5.12
608.674	5.16
609.01	5.12
609.345	5.46
609.68	5.5
610.015	5.15
610.35	5.24
610.685	5.43
611.02	5.24
611.355	5.34
611.689	5.32
612.024	5.36
612.359	5.38
612.694	5.3
613.028	5.12
613.363	5.27
613.697	5.57
614.032	5.45
614.366	5.64
614.7	5.41
615.035	5.71
615.369	5.32
615.703	5.66
616.037	5.62
616.371	5.47
616.705	5.65
617.039	5.56
617.373	5.51
617.707	5.23
618.041	5.67
618.375	5.46
618.709	5.75
619.042	5.59
619.376	5.73
619.71	5.87
620.043	5.56
620.377	5.5
620.71	5.46
621.043	5.44
621.377	5.33
621.71	5.85
622.043	5.93
622.376	6.26
622.709	6.2
623.043	6.02
623.376	6.65
623.709	6.32
624.041	6.02
624.374	6.1
624.707	6.11
625.04	5.96
625.373	6.26
625.705	6.28
626.038	6.41
626.37	6.18
626.703	6.42
627.035	5.98
627.368	6.61
627.7	5.89
628.032	5.93
628.365	6.11
628.697	6.14
629.029	6.22
629.361	6.21
629.693	6.13
630.025	6.12
630.357	6.51
630.689	6.29
631.021	6.54
631.353	6.8
631.684	6.24
632.016	6.69
632.348	6.66
632.679	6.26
633.011	6.93
633.342	7.04
633.674	6.91
634.005	6.64
634.336	6.96
634.668	6.92
634.999	6.86
635.33	6.67
635.661	6.69
635.992	6.8
636.323	6.43
636.654	6.81
636.985	7.02
637.316	7.08
637.647	6.69
637.977	6.73
638.308	6.91
638.639	6.81
638.969	6.87
639.3	6.74
639.63	7.27
639.961	6.77
640.291	6.93
640.622	7.03
640.952	7.28
641.282	7.13
641.612	7
641.943	7.54
642.273	7.24
642.603	7.59
642.933	7.24
643.263	6.98
643.592	7.54
643.922	7.84
644.252	7.49
644.582	7.02
644.911	7.55
645.241	6.82
645.571	7.98
645.9	7.42
646.23	7.38
646.559	7.48
646.888	7.71
647.218	7.76
647.547	7.69
647.876	7.48
648.205	7.78
648.534	8.04
648.863	7.92
649.192	8.16
649.521	8.4
649.85	7.53
650.179	8.1
650.508	8.15
650.837	8.15
651.165	7.52
651.494	7.96
651.822	7.9
652.151	8.02
652.479	8.03
652.808	7.76
653.136	7.73
653.465	8.37
653.793	8.06
654.121	8.68
654.449	7.92
654.777	7.72
655.105	8.42
655.433	8.12
655.761	8.37
656.089	8.12
656.417	8.3
656.745	8.13
657.073	7.82
657.4	8.32
657.728	8.43
658.056	8.35
658.383	7.78
658.711	8.64
659.038	8.09
659.365	8.18
659.693	8.46
660.02	8.49
660.347	8.81
660.674	8.75
661.001	8.93
661.329	8.55
661.656	8.5
661.982	8.31
662.309	8.79
662.636	8.64
662.963	8.67
663.29	9.22
663.616	8.7
663.943	9.18
664.27	9.41
664.596	8.52
664.923	9.22
665.249	8.74
665.576	9.12
665.902	8.78
666.228	8.75
666.554	8.78
666.881	9.27
667.207	9.38
667.533	8.67
667.859	8.95
668.185	9.33
668.511	9.19
668.837	8.95
669.162	9.41
669.488	8.98
669.814	9.56
670.139	9.49
670.465	8.84
670.791	9.08
671.116	9.26
671.442	9.59
671.767	9.56
672.092	10.34
672.418	8.72
672.743	9.54
673.068	8.38
673.393	9.57
673.718	9.5
674.043	9.68
674.368	9.23
674.693	9.06
675.018	9.08
675.343	9.56
675.667	9.74
675.992	9.71
676.317	9.06
676.641	9.84
676.966	9.77
677.29	9.84
677.615	9.38
677.939	9.88
678.264	10.39
678.588	9.57
678.912	10.82
679.236	9.36
679.56	10.47
679.885	9.99
680.209	10.36
680.532	10.5
680.856	10.05
681.18	10.41
681.504	10.16
681.828	10.63
682.152	9.95
682.475	10.28
682.799	10.06
683.122	10.64
683.446	10.49
683.769	10.76
684.093	10.12
684.416	10.15
684.739	10.52
685.062	10.44
685.386	10.73
685.709	10.55
686.032	11.01
686.355	10.28
686.678	10.52
687.001	10.81
687.324	11.01
687.646	10.91
687.969	10.03
688.292	10.89
688.614	11.73
688.937	10.33
689.26	10.47
689.582	10.74
689.904	10
690.227	11.16
690.549	11.25
690.871	10.77
