Data from 0410_forehead_Reflection__0__192.txt Node

Date: Tue Dec 12 19:56:21 CST 2023
User: ToomeyLab
Spectrometer: FLMS14357
Trigger mode: 0
Integration Time (sec): 1.000000E-2
Scans to average: 100
Electric dark correction enabled: true
Nonlinearity correction enabled: false
Boxcar width: 0
XAxis mode: Wavelengths
Number of Pixels in Spectrum: 2048
>>>>>Begin Spectral Data<<<<<
189.047	274.86
189.435	274.86
189.823	274.86
190.211	878.53
190.599	107.44
190.987	26.3
191.375	341.6
191.763	-226.16
192.151	126.01
192.538	404.28
192.926	-12.21
193.314	-19.11
193.702	170.82
194.089	-93.89
194.477	506.65
194.864	-164.82
195.252	147.32
195.639	-67.59
196.027	140.7
196.414	-729.69
196.801	5.5
197.189	-47.24
197.576	217.86
197.963	126.28
198.351	-11.27
198.738	43.91
199.125	199.71
199.512	-17.37
199.899	98.95
200.286	134.38
200.673	-27.62
201.06	12.85
201.447	-192.64
201.833	24.18
202.22	12.12
202.607	-136.35
202.994	37.83
203.38	17.66
203.767	15.77
204.154	44.63
204.54	68.63
204.927	-9.2
205.313	37.82
205.699	-26.86
206.086	49.1
206.472	42.22
206.858	47.52
207.245	36.45
207.631	24.29
208.017	20.23
208.403	-34.07
208.789	-8.25
209.175	-47.42
209.561	41.96
209.947	7.48
210.333	4.9
210.719	69.32
211.105	25.03
211.491	50.85
211.876	33.45
212.262	87.43
212.648	-52.77
213.034	-99.56
213.419	17.04
213.805	11.31
214.19	35.99
214.576	44.27
214.961	24.13
215.346	33.85
215.732	27.45
216.117	23.79
216.502	7.13
216.888	-11.69
217.273	-24.01
217.658	-48.16
218.043	20.33
218.428	47.59
218.813	12.86
219.198	-17.9
219.583	-7.34
219.968	38.14
220.353	-8.77
220.738	10.18
221.122	-3.98
221.507	-1.67
221.892	-14.78
222.276	10.4
222.661	37.38
223.046	-3.24
223.43	-2.86
223.815	3.43
224.199	6.13
224.583	5.58
224.968	9.04
225.352	-6.18
225.736	0.83
226.121	2.36
226.505	6.06
226.889	-14.37
227.273	6.24
227.657	8.91
228.041	-0.06
228.425	1.58
228.809	5.22
229.193	2.83
229.577	5.71
229.961	0.9
230.344	2.71
230.728	4.22
231.112	3.03
231.495	2.24
231.879	4.7
232.263	0.83
232.646	4.1
233.03	3.58
233.413	2.61
233.797	3.75
234.18	-1.73
234.563	-1.67
234.946	2.14
235.33	3.12
235.713	4.33
236.096	1.5
236.479	2.38
236.862	3.59
237.245	1.29
237.628	2.25
238.011	2.14
238.394	1.46
238.777	2.03
239.16	3.61
239.543	3.63
239.925	4.07
240.308	3.78
240.691	2.55
241.073	1.49
241.456	2.81
241.838	1.51
242.221	3.81
242.603	2.16
242.986	2.17
243.368	2.47
243.75	1.95
244.133	2.06
244.515	3.06
244.897	2.53
245.279	3.39
245.661	1.16
246.043	2.5
246.425	2.96
246.807	2.4
247.189	2.31
247.571	2.08
247.953	2.25
248.335	2.38
248.717	2.24
249.098	2.16
249.48	1.98
249.862	2.03
250.243	2.11
250.625	2.47
251.006	2.2
251.388	2.28
251.769	2.28
252.151	2.19
252.532	3.74
252.913	2.42
253.295	2.92
253.676	1.79
254.057	2.22
254.438	2.31
254.819	1.87
255.2	2.61
255.581	1.2
255.962	1.5
256.343	2.75
256.724	2.3
257.105	3.11
257.486	1.82
257.867	2.89
258.247	2.49
258.628	2.29
259.009	2.3
259.389	2.74
259.77	1.87
260.15	2.41
260.531	2.81
260.911	2.92
261.292	2.32
261.672	2.04
262.052	2.03
262.432	2.3
262.813	2.39
263.193	2.31
263.573	1.97
263.953	2.78
264.333	3.23
264.713	2.73
265.093	2.17
265.473	2.89
265.853	1.4
266.233	2.02
266.612	2.53
266.992	2.82
267.372	2.65
267.752	2.84
268.131	1.34
268.511	1.91
268.89	1.46
269.27	1.25
269.649	2.42
270.029	2.3
270.408	3
270.787	2.42
271.167	2.37
271.546	2.64
271.925	2.23
272.304	2.29
272.683	1.7
273.062	2.4
273.441	2.17
273.82	1.63
274.199	2.31
274.578	2.27
274.957	2.18
275.336	2.04
275.715	2.64
276.093	1.8
276.472	2.32
276.851	2.27
277.229	1.84
277.608	2.01
277.986	1.95
278.365	1.86
278.743	1.62
279.122	2.62
279.5	1.78
279.878	1.4
280.257	1.81
280.635	1.84
281.013	2.26
281.391	2.06
281.769	2.78
282.147	2.48
282.525	1.32
282.903	1.84
283.281	2.14
283.659	2.24
284.037	2.69
284.415	1.82
284.792	2.32
285.17	2.12
285.548	2.51
285.925	1.97
286.303	1.85
286.68	2.18
287.058	2.39
287.435	2.03
287.813	1.54
288.19	2.11
288.567	1.94
288.945	2.08
289.322	1.85
289.699	1.82
290.076	2.22
290.453	2.86
290.83	2.08
291.207	2.53
291.584	2.2
291.961	2.34
292.338	2.41
292.715	2.33
293.092	1.64
293.469	2.43
293.845	2.38
294.222	2.17
294.599	1.82
294.975	2.47
295.352	2.53
295.728	2.16
296.105	2.34
296.481	2.74
296.858	2.16
297.234	2.77
297.61	2.17
297.986	2.94
298.363	2.77
298.739	2.2
299.115	2.38
299.491	2.16
299.867	2.42
300.243	2.47
300.619	2.76
300.995	2.33
301.371	2.98
301.746	2.43
302.122	3.16
302.498	3.06
302.874	2.78
303.249	3.26
303.625	2.32
304	2.63
304.376	2.79
304.751	3.38
305.127	2.81
305.502	3.3
305.878	2.79
306.253	2.92
306.628	2.63
307.003	3.02
307.378	3.41
307.754	3.19
308.129	2.68
308.504	4.05
308.879	2.46
309.254	3.29
309.629	2.87
310.003	3.06
310.378	3.73
310.753	3.75
311.128	3.46
311.502	3.18
311.877	3.32
312.252	2.91
312.626	3.64
313.001	3.15
313.375	3.06
313.75	3.55
314.124	3.62
314.498	3.36
314.873	3.86
315.247	4.55
315.621	3.38
315.995	4.85
316.369	4.18
316.743	3.57
317.117	3.8
317.491	4.24
317.865	4.22
318.239	4.31
318.613	4.65
318.987	3.86
319.361	3.83
319.734	4.46
320.108	4.19
320.482	4.25
320.855	4.12
321.229	4.94
321.602	4.53
321.976	4.94
322.349	4.4
322.723	4.42
323.096	4.44
323.469	4.94
323.843	5.66
324.216	5.25
324.589	4.98
324.962	5.2
325.335	5.42
325.708	5.18
326.081	5.34
326.454	4.98
326.827	5.23
327.2	5.16
327.573	5
327.945	4.96
328.318	5.42
328.691	4.77
329.063	5.45
329.436	5.91
329.809	4.99
330.181	4.54
330.553	5.05
330.926	6.12
331.298	4.8
331.671	5.91
332.043	6.21
332.415	5.55
332.787	5.4
333.159	5.76
333.532	5.61
333.904	5.98
334.276	6.83
334.648	5.52
335.02	5.3
335.391	5.77
335.763	5.87
336.135	5.89
336.507	5.97
336.879	6.1
337.25	6.22
337.622	5.91
337.993	5.82
338.365	5.4
338.736	5.94
339.108	6.36
339.479	6.23
339.851	5.48
340.222	5.8
340.593	5.98
340.964	6.89
341.336	6.82
341.707	6.54
342.078	6.35
342.449	6.11
342.82	6.62
343.191	6.49
343.562	6.68
343.933	6.63
344.303	7.29
344.674	6.41
345.045	7.06
345.416	7.2
345.786	6.58
346.157	7.11
346.527	7.22
346.898	6.93
347.268	7.09
347.639	7.44
348.009	6.58
348.38	6.91
348.75	7.34
349.12	7
349.49	6.24
349.861	7.49
350.231	7.02
350.601	7.41
350.971	7.32
351.341	7.25
351.711	7.84
352.081	7.33
352.45	7.52
352.82	7.64
353.19	7.95
353.56	7.51
353.929	7.73
354.299	7.2
354.669	7.29
355.038	7.03
355.408	7.61
355.777	7.89
356.147	7.54
356.516	7.87
356.885	7.73
357.254	7.57
357.624	7.72
357.993	7.82
358.362	7.95
358.731	8.07
359.1	8.05
359.469	8.02
359.838	7.98
360.207	8.08
360.576	8.38
360.945	7.97
361.314	8.26
361.682	8.32
362.051	8.54
362.42	8.52
362.788	8.37
363.157	8.67
363.525	8.42
363.894	8.5
364.262	8.39
364.631	8.18
364.999	8.8
365.367	8.97
365.735	8.64
366.104	8.66
366.472	8.54
366.84	8.95
367.208	8.96
367.576	8.66
367.944	9.13
368.312	8.82
368.68	8.64
369.048	9
369.416	9.14
369.783	9.04
370.151	9.23
370.519	9.24
370.886	9.3
371.254	9.25
371.621	9.2
371.989	9.04
372.356	9.73
372.724	9.28
373.091	9.66
373.458	9.44
373.826	9.4
374.193	9.39
374.56	10.03
374.927	9.8
375.294	9.68
375.661	10.02
376.028	10.11
376.395	10.11
376.762	10.1
377.129	9.55
377.496	9.96
377.863	9.79
378.229	10.15
378.596	10.29
378.963	10.14
379.329	9.93
379.696	9.98
380.062	10.73
380.429	10.26
380.795	10.22
381.161	10.5
381.528	10.32
381.894	10.73
382.26	10.36
382.626	10.45
382.993	10.54
383.359	10.41
383.725	10.45
384.091	10.46
384.457	10.48
384.823	10.9
385.188	10.74
385.554	10.82
385.92	11.03
386.286	11.09
386.651	11
387.017	11.06
387.383	10.87
387.748	10.85
388.114	11.3
388.479	11.23
388.845	11.22
389.21	11.05
389.575	11.17
389.94	10.93
390.306	11.59
390.671	11.3
391.036	11.64
391.401	11.45
391.766	11.84
392.131	11.66
392.496	11.53
392.861	11.53
393.226	11.8
393.591	11.7
393.956	11.8
394.32	12.01
394.685	11.94
395.05	11.85
395.414	11.68
395.779	11.95
396.143	12.05
396.508	11.83
396.872	12.06
397.236	12.52
397.601	12.11
397.965	12.31
398.329	12.41
398.694	12.2
399.058	12.63
399.422	12.15
399.786	12.4
400.15	12.39
400.514	12.33
400.878	12.32
401.242	12.59
401.605	12.51
401.969	12.6
402.333	12.75
402.697	12.6
403.06	12.53
403.424	12.75
403.787	12.74
404.151	12.62
404.514	12.79
404.878	13.18
405.241	13
405.604	12.9
405.968	12.86
406.331	13.13
406.694	13.29
407.057	12.81
407.42	12.91
407.783	13.18
408.146	13.3
408.509	13.3
408.872	13.38
409.235	13.42
409.598	13.12
409.961	13.51
410.323	13.37
410.686	13.39
411.049	13.91
411.411	13.79
411.774	13.69
412.136	13.84
412.499	13.71
412.861	13.71
413.223	14
413.586	13.67
413.948	13.83
414.31	13.74
414.672	14.19
415.035	14.12
415.397	13.86
415.759	14.2
416.121	14.05
416.483	14.07
416.845	14.25
417.206	14.43
417.568	14.16
417.93	14.14
418.292	14.16
418.653	14.21
419.015	14.32
419.377	14.23
419.738	14.28
420.1	14.07
420.461	14.25
420.822	14.34
421.184	14.33
421.545	14.54
421.906	14.4
422.267	14.35
422.629	14.39
422.99	14.47
423.351	14.38
423.712	14.46
424.073	14.67
424.434	14.61
424.795	14.61
425.155	14.64
425.516	14.65
425.877	14.67
426.238	14.7
426.598	14.81
426.959	14.95
427.32	14.96
427.68	14.9
428.041	15.16
428.401	15.09
428.761	15.24
429.122	15.32
429.482	15.55
429.842	15.53
430.202	15.29
430.563	15.58
430.923	15.65
431.283	15.61
431.643	15.7
432.003	15.7
432.363	15.88
432.722	15.78
433.082	15.93
433.442	15.97
433.802	16.08
434.161	15.96
434.521	15.92
434.881	15.92
435.24	15.99
435.6	15.96
435.959	16.14
436.319	16.13
436.678	16.17
437.037	16.23
437.396	15.99
437.756	16.35
438.115	16.38
438.474	16.48
438.833	16.51
439.192	16.61
439.551	16.43
439.91	16.26
440.269	16.52
440.628	16.53
440.987	16.41
441.345	16.73
441.704	16.58
442.063	16.73
442.421	16.73
442.78	16.74
443.138	16.74
443.497	16.72
443.855	16.79
444.214	16.97
444.572	17.11
444.93	17.15
445.288	16.89
445.647	17.43
446.005	17.14
446.363	17.04
446.721	17.12
447.079	17.21
447.437	16.98
447.795	17.11
448.153	17.13
448.51	17.16
448.868	17.24
449.226	17.48
449.584	17.35
449.941	17.38
450.299	17.66
450.656	17.65
451.014	17.55
451.371	17.71
451.729	17.9
452.086	17.89
452.443	18.11
452.801	18.07
453.158	17.99
453.515	18.07
453.872	18.04
454.229	18.03
454.586	17.96
454.943	18.09
455.3	18.06
455.657	18.45
456.014	18.5
456.371	18.53
456.727	18.35
457.084	18.32
457.441	18.48
457.797	18.65
458.154	18.68
458.51	18.59
458.867	18.82
459.223	18.75
459.58	18.77
459.936	18.57
460.292	18.63
460.648	18.74
461.005	18.68
461.361	18.69
461.717	18.74
462.073	18.72
462.429	18.68
462.785	18.83
463.141	18.92
463.496	19.16
463.852	19.35
464.208	19.11
464.564	19.47
464.919	19.61
465.275	19.53
465.631	19.45
465.986	19.62
466.342	19.38
466.697	19.74
467.052	19.61
467.408	19.54
467.763	19.86
468.118	19.91
468.473	19.81
468.829	19.84
469.184	19.72
469.539	19.68
469.894	19.77
470.249	19.79
470.603	19.89
470.958	19.9
471.313	20.16
471.668	20.16
472.023	20.18
472.377	20.29
472.732	20.02
473.086	20.31
473.441	20.65
473.795	20.12
474.15	20.4
474.504	20.24
474.859	20.5
475.213	20.55
475.567	20.52
475.921	20.56
476.275	20.47
476.63	20.67
476.984	20.88
477.338	20.77
477.692	20.75
478.045	20.79
478.399	20.73
478.753	20.94
479.107	20.83
479.461	20.87
479.814	20.9
480.168	20.79
480.521	20.99
480.875	21.07
481.228	21.2
481.582	21.08
481.935	21.02
482.289	21.17
482.642	21.34
482.995	20.9
483.348	21.02
483.701	21.21
484.055	21.25
484.408	20.98
484.761	20.89
485.114	20.56
485.466	20.38
485.819	20.46
486.172	20.38
486.525	20.39
486.878	20.54
487.23	20.74
487.583	20.84
487.936	21.16
488.288	21.1
488.641	21.13
488.993	21.06
489.345	20.88
489.698	20.95
490.05	20.89
490.402	20.98
490.754	21.06
491.107	21.26
491.459	21.6
491.811	21.74
492.163	21.74
492.515	21.83
492.866	21.65
493.218	21.49
493.57	21.41
493.922	21.41
494.274	21.51
494.625	21.84
494.977	22.11
495.328	22.31
495.68	22.29
496.031	22.53
496.383	22.63
496.734	22.59
497.086	22.59
497.437	22.8
497.788	22.82
498.139	22.65
498.49	22.83
498.842	22.74
499.193	22.78
499.544	22.75
499.894	22.7
500.245	22.86
500.596	22.98
500.947	22.96
501.298	22.95
501.648	23.2
501.999	23.22
502.35	23.21
502.7	23.21
503.051	23.24
503.401	23.43
503.752	23.49
504.102	23.57
504.452	23.53
504.803	23.52
505.153	23.63
505.503	23.77
505.853	23.84
506.203	23.58
506.553	23.53
506.903	23.64
507.253	23.61
507.603	23.85
507.953	24.03
508.303	23.87
508.652	24.09
509.002	23.93
509.352	23.89
509.701	23.98
510.051	23.98
510.4	24.04
510.75	23.9
511.099	24.14
511.449	23.99
511.798	24.11
512.147	24.14
512.496	24.23
512.846	24.16
513.195	24.15
513.544	24.38
513.893	24.4
514.242	24.27
514.591	24.24
514.939	24.34
515.288	24.43
515.637	24.43
515.986	24.63
516.334	24.75
516.683	24.69
517.032	24.78
517.38	24.94
517.729	24.85
518.077	24.89
518.426	24.87
518.774	24.96
519.122	24.83
519.47	24.8
519.819	24.63
520.167	24.71
520.515	24.68
520.863	24.72
521.211	24.78
521.559	24.74
521.907	24.99
522.255	25.16
522.602	25.28
522.95	25.09
523.298	25.25
523.645	25.59
523.993	25.57
524.341	25.46
524.688	25.7
525.036	25.6
525.383	25.64
525.73	25.51
526.078	25.29
526.425	25.26
526.772	25.39
527.119	25.43
527.466	25.26
527.814	25.23
528.161	25.32
528.508	25.21
528.854	25.36
529.201	25.4
529.548	25.38
529.895	25.13
530.242	24.92
530.588	24.87
530.935	24.9
531.282	24.98
531.628	25.13
531.975	25.26
532.321	25.39
532.667	25.67
533.014	25.78
533.36	25.76
533.706	25.92
534.052	25.9
534.399	25.93
534.745	25.72
535.091	25.51
535.437	25.65
535.783	25.75
536.129	25.74
536.474	25.91
536.82	26.17
537.166	26.35
537.512	26.46
537.857	26.56
538.203	26.31
538.549	26.3
538.894	26.26
539.239	26.53
539.585	26.44
539.93	26.79
540.276	26.8
540.621	26.93
540.966	27.03
541.311	27.2
541.656	27.02
542.001	26.98
542.346	26.8
542.691	26.53
543.036	26.41
543.381	26.32
543.726	26.41
544.071	26.38
544.415	26.46
544.76	26.64
545.105	26.74
545.449	26.89
545.794	27.08
546.138	27.06
546.483	27.29
546.827	27.55
547.171	27.64
547.516	27.45
547.86	27.59
548.204	27.51
548.548	27.42
548.892	27.57
549.236	27.59
549.58	27.67
549.924	27.56
550.268	27.97
550.612	27.79
550.956	28.18
551.3	28.1
551.643	28.25
551.987	28.45
552.33	28.2
552.674	28.39
553.017	28.56
553.361	28.35
553.704	28.32
554.048	28.51
554.391	28.6
554.734	28.57
555.077	28.47
555.42	28.39
555.764	28.63
556.107	28.41
556.45	28.76
556.793	28.61
557.135	28.74
557.478	28.86
557.821	28.93
558.164	28.97
558.507	29.2
558.849	28.92
559.192	29.13
559.534	29.03
559.877	29.13
560.219	29.06
560.562	29.09
560.904	29.27
561.246	29.37
561.589	29.29
561.931	29.36
562.273	29.24
562.615	29.25
562.957	29.28
563.299	29.37
563.641	29.54
563.983	29.33
564.325	29.68
564.667	29.55
565.008	29.6
565.35	29.62
565.692	29.4
566.033	29.91
566.375	29.58
566.716	29.53
567.058	29.75
567.399	29.74
567.741	29.74
568.082	29.57
568.423	29.67
568.764	29.83
569.105	29.67
569.447	30.02
569.788	29.93
570.129	29.96
570.47	30.29
570.811	30.27
571.151	30.27
571.492	30.25
571.833	30.31
572.174	30.21
572.514	30.26
572.855	30.44
573.195	30.32
573.536	30.2
573.876	30.15
574.217	30.21
574.557	30.26
574.898	30.15
575.238	30.19
575.578	30.44
575.918	30.5
576.258	30.61
576.598	30.46
576.938	30.56
577.278	30.44
577.618	30.61
577.958	30.53
578.298	30.66
578.638	30.63
578.977	30.85
579.317	31.05
579.657	31.39
579.996	31.35
580.336	31.24
580.675	31.04
581.014	31.21
581.354	31.22
581.693	31
582.032	31.02
582.372	31.27
582.711	31.59
583.05	31.75
583.389	31.33
583.728	31.65
584.067	31.4
584.406	31.72
584.745	31.47
585.083	31.68
585.422	31.69
585.761	31.92
586.1	31.3
586.438	31.99
586.777	31.64
587.115	31.48
587.454	31.96
587.792	31.56
588.13	32.01
588.469	32.08
588.807	31.7
589.145	32.02
589.483	31.96
589.821	31.9
590.159	32.07
590.497	32.32
590.835	31.86
591.173	32.12
591.511	31.99
591.849	32.3
592.187	32.3
592.524	32.08
592.862	32.04
593.2	32.14
593.537	32.34
593.875	32.61
594.212	32.59
594.55	32.94
594.887	32.56
595.224	32.63
595.561	32.92
595.899	32.59
596.236	32.32
596.573	32.39
596.91	32.63
597.247	32.58
597.584	32.56
597.921	32.51
598.258	32.82
598.594	32.58
598.931	32.73
599.268	32.45
599.604	32.42
599.941	32.67
600.277	32.87
600.614	32.49
600.95	32.91
601.287	33.16
601.623	33.32
601.959	33.32
602.296	33.29
602.632	33.14
602.968	33.45
603.304	33.17
603.64	33.3
603.976	33.09
604.312	33.01
604.648	33.19
604.984	33.22
605.319	33.24
605.655	33.05
605.991	33.13
606.326	33.27
606.662	32.94
606.998	33.01
607.333	33.4
607.668	33.31
608.004	33.29
608.339	33.73
608.674	33.66
609.01	33.38
609.345	33.93
609.68	33.62
610.015	33.64
610.35	33.85
610.685	33.7
611.02	33.59
611.355	33.81
611.689	33.71
612.024	33.8
612.359	33.9
612.694	33.89
613.028	33.81
613.363	34.03
613.697	33.84
614.032	34.01
614.366	34.36
614.7	33.68
615.035	34.07
615.369	34.03
615.703	34.43
616.037	34.54
616.371	34.12
616.705	34.51
617.039	34.36
617.373	34.37
617.707	34.44
618.041	34.15
618.375	34.4
618.709	34.51
619.042	34.52
619.376	34.59
619.71	34.54
620.043	34.71
620.377	34.79
620.71	34.49
621.043	34.31
621.377	34.3
621.71	35.17
622.043	34.85
622.376	35.31
622.709	35
623.043	34.44
623.376	35.36
623.709	35.24
624.041	34.96
624.374	35.25
624.707	34.8
625.04	35.31
625.373	35.37
625.705	35.39
626.038	35.44
626.37	35.67
626.703	35.34
627.035	35.2
627.368	35.57
627.7	35.16
628.032	35
628.365	35.38
628.697	35.25
629.029	35.28
629.361	35.44
629.693	35.11
630.025	35.07
630.357	35.67
630.689	34.77
631.021	35.32
631.353	35.83
631.684	35.47
632.016	36.04
632.348	35.84
632.679	35.4
633.011	35.95
633.342	35.7
633.674	35.57
634.005	35.74
634.336	35.73
634.668	36.16
634.999	35.38
635.33	36.2
635.661	36.27
635.992	36.18
636.323	35.72
636.654	36.08
636.985	35.87
637.316	36.3
637.647	36.38
637.977	36.17
638.308	36.47
638.639	36.36
638.969	36.44
639.3	36.58
639.63	36.49
639.961	36.75
640.291	35.7
640.622	36.3
640.952	36.32
641.282	36.22
641.612	36.24
641.943	36.74
642.273	36.13
642.603	36.91
642.933	36.57
643.263	35.95
643.592	36.9
643.922	37.14
644.252	37.05
644.582	36.18
644.911	36.62
645.241	36.65
645.571	37.37
645.9	36.38
646.23	36.2
646.559	37.04
646.888	36.87
647.218	37.05
647.547	36.77
647.876	36.16
648.205	37.47
648.534	36.93
648.863	37.01
649.192	37.11
649.521	37.37
649.85	37.1
650.179	37.08
650.508	37.16
650.837	36.82
651.165	37.31
651.494	37.25
651.822	37.57
652.151	37.17
652.479	37.15
652.808	37.59
653.136	37.64
653.465	37.26
653.793	37.49
654.121	37.38
654.449	37.27
654.777	38.07
655.105	37.24
655.433	37.29
655.761	37.71
656.089	37.89
656.417	37.66
656.745	37.86
657.073	37.68
657.4	37.19
657.728	37.1
658.056	38.05
658.383	37.84
658.711	37.49
659.038	38.08
659.365	37.78
659.693	37.66
660.02	37.89
660.347	38.07
660.674	38.32
661.001	38.51
661.329	38.35
661.656	37.81
661.982	37.76
662.309	38.13
662.636	37.69
662.963	38.27
663.29	38.64
663.616	38.59
663.943	38.51
664.27	38.2
664.596	37.86
664.923	38.49
665.249	38.63
665.576	37.79
665.902	38.55
666.228	39.24
666.554	38.28
666.881	37.96
667.207	38.41
667.533	38.72
667.859	39.39
668.185	39.75
668.511	39.37
668.837	38.26
669.162	38.69
669.488	38.42
669.814	38.58
670.139	39.07
670.465	38.26
670.791	38.72
671.116	39.44
671.442	39.16
671.767	38.76
672.092	38.59
