Data from 0410_forehead_Reflection__2__194.txt Node

Date: Tue Dec 12 19:56:42 CST 2023
User: ToomeyLab
Spectrometer: FLMS14357
Trigger mode: 0
Integration Time (sec): 1.000000E-2
Scans to average: 100
Electric dark correction enabled: true
Nonlinearity correction enabled: false
Boxcar width: 0
XAxis mode: Wavelengths
Number of Pixels in Spectrum: 2048
>>>>>Begin Spectral Data<<<<<
189.047	-164.61
189.435	-164.61
189.823	-164.61
190.211	1171.16
190.599	81.65
190.987	108.95
191.375	149.37
191.763	-259.18
192.151	73.05
192.538	-153.79
192.926	-70.46
193.314	14.43
193.702	145.06
194.089	227.37
194.477	684.89
194.864	-4.07
195.252	441.04
195.639	-42.16
196.027	226.77
196.414	-885.99
196.801	-16.57
197.189	65.55
197.576	131.67
197.963	98.52
198.351	66.8
198.738	58.75
199.125	124.53
199.512	-22.3
199.899	7.2
200.286	60.36
200.673	-22.97
201.06	-4.63
201.447	-115.37
201.833	-16.24
202.22	19.86
202.607	-64.09
202.994	14.74
203.38	30.47
203.767	-25.35
204.154	47.26
204.54	47.29
204.927	26.99
205.313	45.12
205.699	-3.86
206.086	33.81
206.472	22.48
206.858	29.6
207.245	27.59
207.631	66.56
208.017	7.71
208.403	4.93
208.789	43.54
209.175	36.85
209.561	0.36
209.947	-2.45
210.333	72.18
210.719	51.74
211.105	-55.85
211.491	53.89
211.876	82.39
212.262	37.23
212.648	-67.52
213.034	-95.19
213.419	27.52
213.805	22.23
214.19	46.19
214.576	43.5
214.961	64.18
215.346	0.75
215.732	51.3
216.117	20.34
216.502	-9.14
216.888	-0.74
217.273	0.74
217.658	-20.66
218.043	-19.93
218.428	34.13
218.813	9.89
219.198	10.31
219.583	28.55
219.968	15.66
220.353	15.1
220.738	3.62
221.122	33.99
221.507	4.9
221.892	-3.75
222.276	15.26
222.661	2.1
223.046	2.66
223.43	9.35
223.815	6.15
224.199	26.56
224.583	9.19
224.968	10.83
225.352	6.06
225.736	21.83
226.121	-4.84
226.505	10.09
226.889	-3.86
227.273	5.92
227.657	13.16
228.041	10.72
228.425	5.73
228.809	6.26
229.193	9.49
229.577	6.59
229.961	3.02
230.344	5.75
230.728	6.6
231.112	6.3
231.495	5.87
231.879	6.77
232.263	5.66
232.646	3.76
233.03	5.1
233.413	4.49
233.797	4.54
234.18	3.74
234.563	5.62
234.946	7.53
235.33	7.23
235.713	7.42
236.096	5.6
236.479	5.01
236.862	6.08
237.245	7.15
237.628	5.82
238.011	6.9
238.394	4.41
238.777	6.73
239.16	4.43
239.543	7.81
239.925	7.4
240.308	6.29
240.691	6.19
241.073	7.44
241.456	7.93
241.838	6.18
242.221	5.87
242.603	6.1
242.986	5.2
243.368	6.33
243.75	4.81
244.133	5.72
244.515	5.95
244.897	6.12
245.279	6.16
245.661	5.26
246.043	5.19
246.425	6
246.807	4.87
247.189	7.45
247.571	6.31
247.953	5.77
248.335	5.31
248.717	5.64
249.098	5.53
249.48	5.08
249.862	5.1
250.243	5.12
250.625	6.14
251.006	5.83
251.388	5.91
251.769	5.48
252.151	5.56
252.532	5.94
252.913	5.38
253.295	6.35
253.676	5.01
254.057	5.11
254.438	5.56
254.819	4.91
255.2	4.94
255.581	5.42
255.962	5.34
256.343	4.59
256.724	6.11
257.105	6.72
257.486	5.22
257.867	5.62
258.247	5.68
258.628	5.82
259.009	4.96
259.389	5.82
259.77	5.53
260.15	5.27
260.531	5.65
260.911	5.91
261.292	5.23
261.672	4.93
262.052	5.15
262.432	5.31
262.813	5.4
263.193	5.03
263.573	6.21
263.953	6.22
264.333	6.21
264.713	6.15
265.093	5.36
265.473	6.16
265.853	4.07
266.233	4.88
266.612	4.43
266.992	5.24
267.372	5.77
267.752	6.62
268.131	5.01
268.511	5.3
268.89	4.64
269.27	5.19
269.649	4.97
270.029	5.43
270.408	5.82
270.787	5
271.167	5.59
271.546	5.52
271.925	6.06
272.304	6.01
272.683	4.41
273.062	5.53
273.441	5.06
273.82	4.66
274.199	4.97
274.578	5.31
274.957	5.09
275.336	5.56
275.715	5.31
276.093	4.71
276.472	5.76
276.851	5.57
277.229	4.77
277.608	5.03
277.986	4.48
278.365	4.77
278.743	5.3
279.122	5.65
279.5	4.6
279.878	4.44
280.257	5.27
280.635	5.39
281.013	5.43
281.391	4.88
281.769	5.09
282.147	5.14
282.525	5.04
282.903	4.96
283.281	5.19
283.659	5.46
284.037	5.34
284.415	4.91
284.792	5.35
285.17	4.78
285.548	5.51
285.925	4.63
286.303	4.85
286.68	5
287.058	5.03
287.435	4.56
287.813	4.72
288.19	5.14
288.567	5.04
288.945	5.49
289.322	4.64
289.699	5.06
290.076	4.98
290.453	5.65
290.83	5.21
291.207	5.91
291.584	5.25
291.961	5.41
292.338	5.29
292.715	5.35
293.092	5.25
293.469	5.21
293.845	5.94
294.222	5.54
294.599	5.31
294.975	5.64
295.352	5.28
295.728	5.6
296.105	5.57
296.481	5.76
296.858	5.53
297.234	6.04
297.61	5.96
297.986	5.98
298.363	5.95
298.739	5.51
299.115	5.66
299.491	5.8
299.867	5.95
300.243	5.41
300.619	6.03
300.995	6.66
301.371	6.1
301.746	5.79
302.122	7.24
302.498	6.31
302.874	5.96
303.249	6.94
303.625	6.19
304	6.12
304.376	6.41
304.751	6.7
305.127	6.54
305.502	6.53
305.878	6.82
306.253	6.57
306.628	6.32
307.003	6.45
307.378	6.39
307.754	6.59
308.129	6.26
308.504	6.96
308.879	6.11
309.254	7.31
309.629	6.52
310.003	6.93
310.378	6.81
310.753	7.11
311.128	7.29
311.502	6.72
311.877	6.79
312.252	6.8
312.626	7.03
313.001	6.86
313.375	6.63
313.75	7.29
314.124	7.25
314.498	7.26
314.873	7.34
315.247	7.49
315.621	7.46
315.995	8.01
316.369	7.72
316.743	7.03
317.117	7.16
317.491	7.92
317.865	7.82
318.239	7.7
318.613	8.51
318.987	8.48
319.361	7.68
319.734	7.9
320.108	8.45
320.482	8.19
320.855	7.71
321.229	8.48
321.602	8.04
321.976	7.83
322.349	8.73
322.723	8.41
323.096	8.24
323.469	8.44
323.843	9.28
324.216	8.29
324.589	8.59
324.962	9.18
325.335	8.83
325.708	8.68
326.081	8.98
326.454	8.82
326.827	8.89
327.2	8.24
327.573	8.68
327.945	9.33
328.318	9.28
328.691	8.36
329.063	9.2
329.436	8.72
329.809	9.24
330.181	8.77
330.553	8.95
330.926	9.64
331.298	8.97
331.671	9.99
332.043	8.61
332.415	9.55
332.787	9.53
333.159	9.66
333.532	9.54
333.904	9.31
334.276	9.99
334.648	9.16
335.02	9.24
335.391	9.26
335.763	9.8
336.135	9.97
336.507	9.92
336.879	10.05
337.25	10.06
337.622	10.05
337.993	9.22
338.365	9.73
338.736	9.39
339.108	10.03
339.479	10.35
339.851	9.75
340.222	9.2
340.593	9.98
340.964	9.93
341.336	10.25
341.707	9.77
342.078	9.54
342.449	9.87
342.82	10.04
343.191	10.01
343.562	9.82
343.933	10.85
344.303	10.12
344.674	10.64
345.045	10.45
345.416	10.61
345.786	10.31
346.157	10.27
346.527	10.48
346.898	10.3
347.268	10.12
347.639	10.77
348.009	10.66
348.38	10.21
348.75	10.97
349.12	10.88
349.49	10.27
349.861	10.55
350.231	10.67
350.601	11.44
350.971	10.92
351.341	10.96
351.711	11.38
352.081	10.81
352.45	11.03
352.82	11.11
353.19	11.06
353.56	10.36
353.929	10.91
354.299	10.57
354.669	11.08
355.038	10.29
355.408	11.15
355.777	11.4
356.147	11.38
356.516	11.37
356.885	11.26
357.254	11.14
357.624	11.12
357.993	11.29
358.362	11.6
358.731	11.7
359.1	11.13
359.469	11.16
359.838	11.2
360.207	11.53
360.576	11.62
360.945	11.37
361.314	11.57
361.682	11.91
362.051	11.52
362.42	11.79
362.788	11.59
363.157	12.18
363.525	11.84
363.894	11.47
364.262	11.77
364.631	11.36
364.999	11.64
365.367	11.94
365.735	11.85
366.104	11.92
366.472	12.01
366.84	12.25
367.208	12.13
367.576	12.19
367.944	12.21
368.312	12.24
368.68	12.33
369.048	12.37
369.416	12.47
369.783	12.53
370.151	12.47
370.519	12.25
370.886	12.64
371.254	12.42
371.621	12.77
371.989	12.55
372.356	12.28
372.724	12.67
373.091	12.44
373.458	13.13
373.826	12.48
374.193	12.34
374.56	13.02
374.927	12.84
375.294	13.2
375.661	12.91
376.028	13.02
376.395	13.41
376.762	13.58
377.129	13.08
377.496	13.14
377.863	13.32
378.229	12.98
378.596	12.91
378.963	13.45
379.329	12.91
379.696	13.17
380.062	13.5
380.429	13.37
380.795	13.71
381.161	13.65
381.528	13.8
381.894	13.44
382.26	13.58
382.626	13.62
382.993	13.69
383.359	13.64
383.725	13.46
384.091	13.78
384.457	13.82
384.823	14.09
385.188	13.86
385.554	14.06
385.92	13.89
386.286	14.02
386.651	14.25
387.017	14.32
387.383	14.06
387.748	14.03
388.114	14.43
388.479	14.22
388.845	14.25
389.21	14.43
389.575	14.37
389.94	14.12
390.306	14.35
390.671	14.35
391.036	14.64
391.401	14.44
391.766	14.47
392.131	14.6
392.496	14.55
392.861	14.42
393.226	14.84
393.591	14.67
393.956	14.39
394.32	14.73
394.685	14.96
395.05	14.74
395.414	14.63
395.779	14.73
396.143	14.92
396.508	14.63
396.872	14.99
397.236	15.02
397.601	14.94
397.965	15.09
398.329	15.21
398.694	15.21
399.058	15.34
399.422	14.89
399.786	15.4
400.15	15.24
400.514	15.37
400.878	15.31
401.242	15.28
401.605	15.37
401.969	15.31
402.333	15.24
402.697	15.23
403.06	15.41
403.424	15.66
403.787	15.38
404.151	15.58
404.514	15.29
404.878	15.68
405.241	15.74
405.604	15.51
405.968	15.54
406.331	15.75
406.694	15.84
407.057	15.64
407.42	15.64
407.783	15.79
408.146	16.07
408.509	15.8
408.872	16.1
409.235	16.11
409.598	16.07
409.961	16.08
410.323	16.06
410.686	16.23
411.049	16.37
411.411	16.35
411.774	16.29
412.136	16.74
412.499	16.29
412.861	16.53
413.223	16.53
413.586	16.5
413.948	16.39
414.31	16.51
414.672	16.93
415.035	16.68
415.397	16.71
415.759	16.61
416.121	16.57
416.483	16.71
416.845	16.71
417.206	16.91
417.568	16.53
417.93	16.78
418.292	16.82
418.653	16.88
419.015	16.61
419.377	16.86
419.738	16.94
420.1	16.65
420.461	16.76
420.822	16.7
421.184	16.78
421.545	16.91
421.906	16.92
422.267	16.74
422.629	16.9
422.99	16.88
423.351	16.79
423.712	16.87
424.073	17.05
424.434	17.17
424.795	17.14
425.155	17.06
425.516	17.04
425.877	17.02
426.238	17.11
426.598	17.28
426.959	17.24
427.32	17.48
427.68	17.37
428.041	17.53
428.401	17.54
428.761	17.75
429.122	17.66
429.482	17.96
429.842	17.89
430.202	17.9
430.563	17.85
430.923	17.82
431.283	17.88
431.643	18.28
432.003	17.92
432.363	18.32
432.722	18.05
433.082	18.26
433.442	18.19
433.802	18.22
434.161	18.32
434.521	18.13
434.881	18.16
435.24	18.29
435.6	18.19
435.959	18.29
436.319	18.53
436.678	18.49
437.037	18.44
437.396	18.53
437.756	18.67
438.115	18.85
438.474	18.68
438.833	18.74
439.192	18.92
439.551	18.69
439.91	18.49
440.269	18.86
440.628	18.66
440.987	18.65
441.345	18.76
441.704	18.87
442.063	18.82
442.421	18.97
442.78	18.82
443.138	18.73
443.497	18.88
443.855	19.06
444.214	19.1
444.572	19.13
444.93	19.16
445.288	18.97
445.647	19.39
446.005	19.24
446.363	19.14
446.721	19.15
447.079	19.39
447.437	19.13
447.795	19.19
448.153	19.2
448.51	19.29
448.868	19.15
449.226	19.29
449.584	19.26
449.941	19.58
450.299	19.71
450.656	19.53
451.014	19.74
451.371	19.9
451.729	19.79
452.086	19.77
452.443	20.11
452.801	20.09
453.158	20.06
453.515	20
453.872	19.98
454.229	20.14
454.586	19.99
454.943	20.18
455.3	20.15
455.657	20.13
456.014	20.09
456.371	20.48
456.727	20.27
457.084	20.44
457.441	20.45
457.797	20.51
458.154	20.45
458.51	20.29
458.867	20.64
459.223	20.73
459.58	20.73
459.936	20.48
460.292	20.65
460.648	20.69
461.005	20.5
461.361	20.4
461.717	20.49
462.073	20.38
462.429	20.56
462.785	20.56
463.141	20.88
463.496	20.84
463.852	21.11
464.208	20.95
464.564	21.08
464.919	21.07
465.275	21.26
465.631	21.28
465.986	21.35
466.342	21.08
466.697	21.47
467.052	21.42
467.408	21.43
467.763	21.59
468.118	21.53
468.473	21.53
468.829	21.42
469.184	21.22
469.539	21.6
469.894	21.58
470.249	21.69
470.603	21.72
470.958	21.7
471.313	21.74
471.668	21.85
472.023	21.85
472.377	21.7
472.732	22.06
473.086	21.85
473.441	22.16
473.795	21.87
474.15	21.92
474.504	21.87
474.859	22.27
475.213	22.13
475.567	22.09
475.921	22.28
476.275	22.24
476.63	22.25
476.984	22.33
477.338	22.43
477.692	22.51
478.045	22.32
478.399	22.3
478.753	22.52
479.107	22.63
479.461	22.6
479.814	22.28
480.168	22.28
480.521	22.5
480.875	22.69
481.228	22.74
481.582	22.63
481.935	22.62
482.289	22.73
482.642	22.71
482.995	22.62
483.348	22.69
483.701	22.84
484.055	22.53
484.408	22.39
484.761	22.47
485.114	21.94
485.466	21.74
485.819	21.66
486.172	21.8
486.525	22.01
486.878	22.12
487.23	22.24
487.583	22.26
487.936	22.59
488.288	22.48
488.641	22.44
488.993	22.41
489.345	22.29
489.698	22.29
490.05	22.32
490.402	22.41
490.754	22.54
491.107	22.75
491.459	23.01
491.811	23.12
492.163	23.16
492.515	23.22
492.866	23.22
493.218	22.73
493.57	22.67
493.922	22.76
494.274	22.96
494.625	23.18
494.977	23.55
495.328	23.71
495.68	23.76
496.031	23.96
496.383	23.98
496.734	24
497.086	23.87
497.437	24.13
497.788	24.15
498.139	23.98
498.49	24
498.842	23.86
499.193	24.06
499.544	24.13
499.894	24
500.245	24.26
500.596	24.29
500.947	24.19
501.298	24.4
501.648	24.65
501.999	24.52
502.35	24.51
502.7	24.6
503.051	24.62
503.401	24.68
503.752	24.88
504.102	24.82
504.452	24.78
504.803	24.83
505.153	24.98
505.503	24.96
505.853	24.88
506.203	24.88
506.553	24.94
506.903	25.21
507.253	25.01
507.603	25.06
507.953	25.15
508.303	25.12
508.652	25.2
509.002	25.36
509.352	25.21
509.701	25.22
510.051	25.2
510.4	25.23
510.75	25.06
511.099	25.04
511.449	25.05
511.798	25.19
512.147	25.2
512.496	25.48
512.846	25.48
513.195	25.37
513.544	25.63
513.893	25.65
514.242	25.4
514.591	25.53
514.939	25.52
515.288	25.68
515.637	25.81
515.986	25.7
516.334	25.83
516.683	25.78
517.032	26.01
517.38	26.13
517.729	26.09
518.077	25.97
518.426	26.13
518.774	26.08
519.122	26.02
519.47	25.96
519.819	25.91
520.167	25.9
520.515	25.64
520.863	25.76
521.211	25.84
521.559	25.92
521.907	26.15
522.255	26.08
522.602	26.52
522.95	26.46
523.298	26.43
523.645	26.46
523.993	26.54
524.341	26.69
524.688	26.72
525.036	26.48
525.383	26.53
525.73	26.62
526.078	26.58
526.425	26.56
526.772	26.58
527.119	26.39
527.466	26.44
527.814	26.32
528.161	26.39
528.508	26.41
528.854	26.54
529.201	26.53
529.548	26.36
529.895	26.23
530.242	25.93
530.588	25.83
530.935	26.05
531.282	26.19
531.628	26.3
531.975	26.38
532.321	26.39
532.667	26.48
533.014	26.78
533.36	26.77
533.706	26.85
534.052	26.98
534.399	26.87
534.745	26.72
535.091	26.51
535.437	26.61
535.783	26.74
536.129	26.98
536.474	27.07
536.82	27.26
537.166	27.47
537.512	27.51
537.857	27.45
538.203	27.44
538.549	27.34
538.894	27.35
539.239	27.48
539.585	27.54
539.93	27.69
540.276	27.81
540.621	27.97
540.966	27.86
541.311	27.66
541.656	28.14
542.001	28.04
542.346	27.83
542.691	27.51
543.036	27.2
543.381	27.06
543.726	27.41
544.071	27.51
544.415	27.66
544.76	27.74
545.105	27.73
545.449	27.84
545.794	28.04
546.138	28.03
546.483	28.32
546.827	28.47
547.171	28.41
547.516	28.38
547.86	28.5
548.204	28.72
548.548	28.37
548.892	28.42
549.236	28.63
549.58	28.73
549.924	28.56
550.268	28.75
550.612	28.96
550.956	29.19
551.3	29.16
551.643	29.18
551.987	29.41
552.33	29.39
552.674	29.36
553.017	29.42
553.361	29.35
553.704	29.34
554.048	29.41
554.391	29.43
554.734	29.31
555.077	29.38
555.42	29.4
555.764	29.59
556.107	29.62
556.45	29.45
556.793	29.71
557.135	29.78
557.478	29.89
557.821	29.9
558.164	29.78
558.507	30.1
558.849	29.9
559.192	29.93
559.534	30.31
559.877	30.2
560.219	30.04
560.562	30.36
560.904	30.33
561.246	30.04
561.589	30.4
561.931	30.31
562.273	30.01
562.615	30.28
562.957	30.37
563.299	30.3
563.641	30.45
563.983	30.26
564.325	30.48
564.667	30.52
565.008	30.32
565.35	30.55
565.692	30.8
566.033	30.77
566.375	30.67
566.716	30.81
567.058	30.7
567.399	30.59
567.741	30.61
568.082	30.66
568.423	30.71
568.764	30.65
569.105	30.46
569.447	30.63
569.788	30.51
570.129	30.73
570.47	30.82
570.811	30.93
571.151	31.1
571.492	31.07
571.833	30.95
572.174	31.23
572.514	31.26
572.855	31.24
573.195	30.95
573.536	31.15
573.876	31.09
574.217	30.98
574.557	31.08
574.898	31.22
575.238	31.38
575.578	31.08
575.918	31.18
576.258	31.4
576.598	31.1
576.938	31.28
577.278	31.32
577.618	31.41
577.958	31.22
578.298	31.33
578.638	31.37
578.977	31.48
579.317	31.84
579.657	31.94
579.996	31.77
580.336	31.65
580.675	31.9
581.014	31.78
581.354	31.88
581.693	32.01
582.032	31.95
582.372	32.26
582.711	32.23
583.05	32.25
583.389	32.36
583.728	32.1
584.067	32.17
584.406	32.16
584.745	32.39
585.083	32.35
585.422	32.58
585.761	32.71
586.1	32.33
586.438	32.49
586.777	32.2
587.115	32.48
587.454	32.51
587.792	32.36
588.13	32.61
588.469	32.77
588.807	32.67
589.145	32.86
589.483	33.11
589.821	32.52
590.159	33.08
590.497	32.85
590.835	32.87
591.173	33
591.511	32.83
591.849	33.1
592.187	33.11
592.524	32.81
592.862	32.48
593.2	32.94
593.537	32.67
593.875	33.53
594.212	32.98
594.55	33.18
594.887	33.09
595.224	33.19
595.561	33.26
595.899	33.1
596.236	33.32
596.573	33.32
596.91	33.07
597.247	33.01
597.584	33.16
597.921	33.26
598.258	33.17
598.594	33.16
598.931	33.25
599.268	33.21
599.604	33.3
599.941	33.39
600.277	33.51
600.614	33.45
600.95	34.08
601.287	33.7
601.623	33.88
601.959	33.63
602.296	33.9
602.632	33.78
602.968	34.11
603.304	33.67
603.64	34.01
603.976	33.57
604.312	33.62
604.648	33.9
604.984	34.17
605.319	34.19
605.655	33.87
605.991	34.06
606.326	33.91
606.662	33.79
606.998	33.63
607.333	34.13
607.668	34.04
608.004	34.18
608.339	34.29
608.674	34.41
609.01	34.28
609.345	34.51
609.68	34.63
610.015	34.12
610.35	34.72
610.685	34.41
611.02	34.43
611.355	34.4
611.689	34.32
612.024	34.3
612.359	34.69
612.694	34.97
613.028	34.75
613.363	34.69
613.697	34.7
614.032	34.95
614.366	35.12
614.7	34.49
615.035	35.1
615.369	34.81
615.703	34.87
616.037	35.07
616.371	34.88
616.705	35.17
617.039	34.98
617.373	35.46
617.707	35.34
618.041	35.04
618.375	34.94
618.709	34.84
619.042	35.03
619.376	35.25
619.71	35.41
620.043	35.49
620.377	35.58
620.71	35.39
621.043	35.23
621.377	35.25
621.71	35.75
622.043	35.68
622.376	36.16
622.709	35.55
623.043	35.62
623.376	36
623.709	35.64
624.041	35.22
624.374	35.88
624.707	35.52
625.04	35.83
625.373	35.78
625.705	35.68
626.038	35.98
626.37	36.22
626.703	36.01
627.035	36.16
627.368	35.91
627.7	35.49
628.032	35.47
628.365	35.88
628.697	35.74
629.029	35.77
629.361	35.69
629.693	35.83
630.025	35.88
630.357	36.07
630.689	35.87
631.021	35.87
631.353	36.18
631.684	35.84
632.016	36.23
632.348	36.53
632.679	36.22
633.011	36.49
633.342	36.72
633.674	36.57
634.005	36.06
634.336	36.67
634.668	36.97
634.999	36.69
635.33	36.76
635.661	36.73
635.992	36.79
636.323	36.71
636.654	36.47
636.985	36.81
637.316	37
637.647	37.02
637.977	36.63
638.308	37.53
638.639	37.79
638.969	37.25
639.3	37.49
639.63	37.3
639.961	36.96
640.291	36.5
640.622	37.42
640.952	37.51
641.282	37.38
641.612	37.04
641.943	37.54
642.273	37.06
642.603	37.69
642.933	37.3
643.263	37.04
643.592	37.25
643.922	37.96
644.252	37.64
644.582	37.34
644.911	37.83
645.241	37.4
645.571	38.03
645.9	37.69
646.23	36.93
646.559	38.08
646.888	37.54
647.218	37.97
647.547	37.59
647.876	37.87
648.205	37.69
648.534	38.49
648.863	38.12
649.192	38.46
649.521	38.04
649.85	37.68
650.179	37.81
650.508	38.8
650.837	38.25
651.165	37.86
651.494	38.2
651.822	37.84
652.151	38.2
652.479	38.21
652.808	38.15
653.136	37.37
653.465	38.49
653.793	38.15
654.121	38.09
654.449	37.97
654.777	38.65
655.105	38.31
655.433	38.2
655.761	38.51
656.089	38.52
656.417	39.06
656.745	38.81
657.073	38.32
657.4	39.32
657.728	38.55
658.056	38.4
658.383	38.17
658.711	38.35
659.038	38.54
659.365	38.85
659.693	38.66
660.02	38.33
660.347	39.04
660.674	38.81
661.001	38.81
661.329	38.62
661.656	38.63
661.982	38.59
662.309	39.03
662.636	38.94
662.963	39.72
663.29	39.42
663.616	39.33
663.943	39.56
664.27	39.41
664.596	39.3
664.923	39.72
665.249	39.35
665.576	38.66
665.902	39.03
666.228	39.43
666.554	39.09
666.881	38.71
667.207	38.41
667.533	39.58
667.859	39.59
668.185	39.25
668.511	39.58
668.837	39.62
669.162	39.51
669.488	39.14
669.814	39.44
