Data from 0410_crown_Reflection__2__189.txt Node

Date: Tue Dec 12 19:55:19 CST 2023
User: ToomeyLab
Spectrometer: FLMS14357
Trigger mode: 0
Integration Time (sec): 1.000000E-2
Scans to average: 100
Electric dark correction enabled: true
Nonlinearity correction enabled: false
Boxcar width: 0
XAxis mode: Wavelengths
Number of Pixels in Spectrum: 2048
>>>>>Begin Spectral Data<<<<<
189.047	300.55
189.435	300.55
189.823	300.55
190.211	65.26
190.599	26.84
190.987	49.1
191.375	92.11
191.763	300.93
192.151	77.16
192.538	259.59
192.926	57.37
193.314	86.66
193.702	478.97
194.089	468.7
194.477	-254.38
194.864	-137.77
195.252	307.63
195.639	3.3
196.027	127.08
196.414	-1019.05
196.801	93.76
197.189	174.88
197.576	319.54
197.963	107.27
198.351	-28.91
198.738	33.25
199.125	-58.06
199.512	-62.7
199.899	41.65
200.286	3.83
200.673	-12.86
201.06	-7.49
201.447	-183
201.833	-52.53
202.22	-38.24
202.607	-260.89
202.994	-29.12
203.38	-18.18
203.767	-87.34
204.154	-6.18
204.54	28.68
204.927	-34.66
205.313	-2.82
205.699	-44.94
206.086	-132.3
206.472	-9.94
206.858	31.26
207.245	-89.64
207.631	4.67
208.017	3.8
208.403	-28.89
208.789	-1.18
209.175	-102.51
209.561	-4.81
209.947	-45.72
210.333	6.25
210.719	-39.82
211.105	6.88
211.491	57.71
211.876	-2.06
212.262	27.14
212.648	-45.39
213.034	-119.06
213.419	11.95
213.805	-43.57
214.19	19.96
214.576	46.98
214.961	-7.91
215.346	-13.94
215.732	56.14
216.117	3.84
216.502	-57.5
216.888	-78.55
217.273	-17.18
217.658	-139.35
218.043	-5.51
218.428	4.97
218.813	-5.54
219.198	-69.97
219.583	-12.9
219.968	-1.57
220.353	-17.12
220.738	-15.31
221.122	-4.02
221.507	-15.53
221.892	-6.5
222.276	-2.45
222.661	-5.14
223.046	-18.41
223.43	-9.75
223.815	-13.98
224.199	13.87
224.583	-1.4
224.968	-8.28
225.352	-10.54
225.736	-2.39
226.121	-6.04
226.505	4.56
226.889	4.88
227.273	4.31
227.657	1.62
228.041	6.4
228.425	3.71
228.809	-1.75
229.193	-3.18
229.577	5.43
229.961	1.45
230.344	3.81
230.728	3.6
231.112	5.09
231.495	3.8
231.879	4.26
232.263	3.01
232.646	2.59
233.03	3.1
233.413	1.1
233.797	2.66
234.18	-0.3
234.563	3.15
234.946	3.28
235.33	5.39
235.713	4
236.096	2.71
236.479	1.9
236.862	5.21
237.245	2.69
237.628	2.83
238.011	2.91
238.394	3.64
238.777	0.89
239.16	1.72
239.543	4.05
239.925	6.34
240.308	3.76
240.691	1.75
241.073	4.92
241.456	3.96
241.838	3.66
242.221	3.44
242.603	3.87
242.986	2.48
243.368	4.07
243.75	3.47
244.133	3.8
244.515	4.01
244.897	3.75
245.279	4.02
245.661	3.26
246.043	3.61
246.425	3.93
246.807	2.27
247.189	4.03
247.571	3.6
247.953	3.23
248.335	3.62
248.717	3.69
249.098	3.86
249.48	3.26
249.862	3
250.243	3.32
250.625	4.22
251.006	3.33
251.388	3.88
251.769	3.15
252.151	2.24
252.532	4.36
252.913	3.64
253.295	4.38
253.676	3.16
254.057	3.43
254.438	4.07
254.819	2.83
255.2	2.67
255.581	2.9
255.962	2.01
256.343	3.27
256.724	4.66
257.105	3.8
257.486	1.49
257.867	2.81
258.247	2.48
258.628	3.31
259.009	3.13
259.389	3.06
259.77	3.26
260.15	3.13
260.531	4.02
260.911	3.77
261.292	3.26
261.672	3.45
262.052	3.64
262.432	3.56
262.813	3.1
263.193	2.83
263.573	3.31
263.953	4.43
264.333	4.76
264.713	3.42
265.093	3.33
265.473	3.68
265.853	2.89
266.233	2.29
266.612	2.85
266.992	2.65
267.372	3.44
267.752	4.07
268.131	2.8
268.511	3.6
268.89	2.19
269.27	2.63
269.649	3.16
270.029	3.73
270.408	3.7
270.787	2.79
271.167	2.68
271.546	3.4
271.925	4.04
272.304	3.13
272.683	2.52
273.062	3.33
273.441	3.47
273.82	2.81
274.199	3.2
274.578	3.2
274.957	3.2
275.336	3.08
275.715	3.37
276.093	2.82
276.472	3.29
276.851	2.99
277.229	2.99
277.608	2.75
277.986	2.73
278.365	2.77
278.743	3.08
279.122	3.74
279.5	2.93
279.878	2.49
280.257	2.34
280.635	2.6
281.013	2.43
281.391	3.2
281.769	2.72
282.147	3.05
282.525	2.43
282.903	2.25
283.281	2.83
283.659	3.04
284.037	3.57
284.415	2.87
284.792	3.32
285.17	2.7
285.548	3.18
285.925	2.76
286.303	3.13
286.68	3.37
287.058	3.33
287.435	3.21
287.813	2.93
288.19	2.84
288.567	3.07
288.945	2.86
289.322	2.69
289.699	2.97
290.076	3.25
290.453	3.13
290.83	3.4
291.207	3.64
291.584	3.33
291.961	3.1
292.338	3.29
292.715	2.71
293.092	3.19
293.469	2.61
293.845	3.29
294.222	3.11
294.599	3.16
294.975	2.89
295.352	3.49
295.728	2.94
296.105	3.36
296.481	3.47
296.858	3.18
297.234	3.27
297.61	3.72
297.986	3.65
298.363	3.39
298.739	3.08
299.115	3.19
299.491	3.31
299.867	3.39
300.243	3.19
300.619	3
300.995	3.35
301.371	3.64
301.746	3.16
302.122	3.77
302.498	3.51
302.874	3.89
303.249	3.64
303.625	2.77
304	3.65
304.376	3.58
304.751	3.37
305.127	2.71
305.502	3.41
305.878	3.16
306.253	3.7
306.628	3.16
307.003	3.05
307.378	3.44
307.754	3.34
308.129	2.91
308.504	4.69
308.879	2.97
309.254	3.55
309.629	3.21
310.003	3.27
310.378	4.09
310.753	3.83
311.128	3.92
311.502	2.8
311.877	3.27
312.252	2.83
312.626	3.15
313.001	3.32
313.375	3.52
313.75	3.76
314.124	3.63
314.498	3.07
314.873	3.15
315.247	3.53
315.621	2.65
315.995	4.04
316.369	3.21
316.743	3.09
317.117	2.79
317.491	2.66
317.865	3.13
318.239	3.53
318.613	3.27
318.987	3.76
319.361	2.75
319.734	2.55
320.108	3.12
320.482	3.95
320.855	2.57
321.229	3.39
321.602	3.66
321.976	3.89
322.349	3.46
322.723	3.02
323.096	3.78
323.469	3.41
323.843	3.93
324.216	3.35
324.589	3.51
324.962	3.47
325.335	3.91
325.708	3.21
326.081	3.17
326.454	3.26
326.827	4.28
327.2	3.05
327.573	3.36
327.945	3.22
328.318	3.72
328.691	2.82
329.063	3.31
329.436	3.5
329.809	3.19
330.181	2.47
330.553	3.08
330.926	3.72
331.298	3.25
331.671	3.57
332.043	3.18
332.415	3.63
332.787	3.44
333.159	2.97
333.532	3.59
333.904	3.34
334.276	3.88
334.648	3.07
335.02	3.15
335.391	3.26
335.763	3.33
336.135	3.78
336.507	3.41
336.879	2.98
337.25	2.98
337.622	3.04
337.993	3
338.365	2.95
338.736	3.66
339.108	2.77
339.479	3.22
339.851	2.85
340.222	3.33
340.593	3.42
340.964	3.65
341.336	3.68
341.707	3.35
342.078	3.15
342.449	3.26
342.82	3.43
343.191	3.58
343.562	3.5
343.933	3.52
344.303	3.28
344.674	3.21
345.045	3.49
345.416	3.87
345.786	2.75
346.157	2.95
346.527	3.22
346.898	3.16
347.268	3.29
347.639	3.55
348.009	3.6
348.38	3.77
348.75	3.45
349.12	3.71
349.49	3.03
349.861	3.59
350.231	3
350.601	3.35
350.971	3.33
351.341	3.21
351.711	3.35
352.081	3.38
352.45	3.13
352.82	3.31
353.19	3.04
353.56	3.43
353.929	2.62
354.299	3.28
354.669	3.17
355.038	3.4
355.408	2.98
355.777	3.43
356.147	3.05
356.516	3.49
356.885	3.2
357.254	3.31
357.624	2.99
357.993	3.22
358.362	3.62
358.731	3.59
359.1	3.25
359.469	3.21
359.838	3.35
360.207	3.07
360.576	3.43
360.945	3.2
361.314	3.39
361.682	3.6
362.051	3.53
362.42	3.69
362.788	3.82
363.157	3.76
363.525	3.74
363.894	3.25
364.262	3.53
364.631	3.05
364.999	3.26
365.367	3.6
365.735	3.28
366.104	3.52
366.472	3.25
366.84	3.32
367.208	3.46
367.576	3.62
367.944	3.6
368.312	3.3
368.68	3.37
369.048	3.77
369.416	3.38
369.783	3.37
370.151	3.5
370.519	3.17
370.886	3.31
371.254	3.77
371.621	3.79
371.989	3.21
372.356	3.37
372.724	3.55
373.091	3.37
373.458	3.43
373.826	3.68
374.193	3.12
374.56	3.57
374.927	3.51
375.294	3.43
375.661	3.74
376.028	3.53
376.395	3.82
376.762	3.6
377.129	3.73
377.496	3.64
377.863	3.67
378.229	3.38
378.596	3.39
378.963	3.42
379.329	3.21
379.696	3.4
380.062	3.87
380.429	3.54
380.795	3.64
381.161	3.62
381.528	3.85
381.894	3.61
382.26	3.31
382.626	3.36
382.993	3.38
383.359	3.43
383.725	3.53
384.091	3.63
384.457	3.26
384.823	3.79
385.188	3.46
385.554	3.77
385.92	3.51
386.286	3.69
386.651	3.43
387.017	3.72
387.383	3.63
387.748	3.52
388.114	3.55
388.479	3.94
388.845	3.71
389.21	3.69
389.575	3.36
389.94	3.81
390.306	3.45
390.671	3.46
391.036	3.86
391.401	3.45
391.766	3.69
392.131	3.63
392.496	3.44
392.861	3.36
393.226	3.76
393.591	3.41
393.956	3.46
394.32	3.68
394.685	3.43
395.05	3.33
395.414	3.43
395.779	3.53
396.143	3.83
396.508	3.62
396.872	3.62
397.236	3.71
397.601	3.69
397.965	3.68
398.329	3.61
398.694	3.54
399.058	4.29
399.422	3.68
399.786	3.53
400.15	3.46
400.514	3.76
400.878	3.64
401.242	3.48
401.605	3.9
401.969	3.55
402.333	3.79
402.697	3.72
403.06	3.86
403.424	3.82
403.787	3.34
404.151	3.92
404.514	3.54
404.878	3.7
405.241	3.88
405.604	3.38
405.968	3.73
406.331	3.84
406.694	3.89
407.057	3.39
407.42	3.76
407.783	3.78
408.146	3.69
408.509	3.55
408.872	3.52
409.235	3.47
409.598	3.88
409.961	4.01
410.323	3.54
410.686	3.75
411.049	3.85
411.411	4.03
411.774	3.71
412.136	3.7
412.499	3.77
412.861	3.74
413.223	4.03
413.586	3.74
413.948	3.6
414.31	3.78
414.672	3.79
415.035	3.8
415.397	3.62
415.759	3.93
416.121	3.6
416.483	3.82
416.845	3.73
417.206	3.86
417.568	3.64
417.93	3.87
418.292	3.61
418.653	3.82
419.015	3.72
419.377	3.87
419.738	3.78
420.1	3.71
420.461	3.84
420.822	3.77
421.184	3.81
421.545	3.96
421.906	3.77
422.267	3.75
422.629	3.69
422.99	3.74
423.351	3.72
423.712	3.66
424.073	3.71
424.434	3.79
424.795	3.72
425.155	3.66
425.516	3.77
425.877	3.81
426.238	3.79
426.598	3.58
426.959	3.75
427.32	3.92
427.68	3.68
428.041	3.92
428.401	3.79
428.761	3.77
429.122	3.87
429.482	3.88
429.842	3.93
430.202	3.71
430.563	3.71
430.923	3.98
431.283	3.75
431.643	3.93
432.003	3.65
432.363	3.77
432.722	3.96
433.082	3.92
433.442	4.04
433.802	3.94
434.161	3.85
434.521	3.88
434.881	3.83
435.24	4
435.6	3.89
435.959	3.93
436.319	3.83
436.678	3.79
437.037	3.9
437.396	3.76
437.756	3.82
438.115	3.94
438.474	3.84
438.833	3.98
439.192	4.1
439.551	3.97
439.91	3.79
440.269	3.76
440.628	3.96
440.987	3.76
441.345	3.93
441.704	3.94
442.063	3.93
442.421	3.92
442.78	4.05
443.138	3.85
443.497	3.76
443.855	3.92
444.214	3.95
444.572	4.07
444.93	4.17
445.288	3.69
445.647	4.01
446.005	3.76
446.363	3.79
446.721	3.8
447.079	3.89
447.437	3.81
447.795	3.91
448.153	3.88
448.51	3.87
448.868	3.83
449.226	4.08
449.584	3.93
449.941	4.01
450.299	4.02
450.656	3.93
451.014	4.02
451.371	3.93
451.729	3.94
452.086	3.95
452.443	4.05
452.801	3.94
453.158	3.9
453.515	4.08
453.872	4.11
454.229	4.1
454.586	3.84
454.943	3.92
455.3	3.97
455.657	4.03
456.014	4.21
456.371	4.04
456.727	4.13
457.084	3.98
457.441	3.98
457.797	3.87
458.154	3.92
458.51	3.93
458.867	4.13
459.223	4.13
459.58	3.96
459.936	4.04
460.292	4.01
460.648	4.09
461.005	4.02
461.361	3.92
461.717	4.04
462.073	4
462.429	3.98
462.785	4.02
463.141	4.01
463.496	3.93
463.852	4.2
464.208	4.14
464.564	4.02
464.919	4.2
465.275	4.15
465.631	4.27
465.986	4.06
466.342	4.08
466.697	4.26
467.052	4.18
467.408	4.31
467.763	4.01
468.118	4.15
468.473	4.16
468.829	4.25
469.184	4.03
469.539	4.18
469.894	4.17
470.249	4.1
470.603	4.19
470.958	4.22
471.313	4.34
471.668	4.3
472.023	4.11
472.377	3.97
472.732	4.19
473.086	4.3
473.441	4.22
473.795	4.29
474.15	4.21
474.504	3.99
474.859	4.26
475.213	4.15
475.567	4.33
475.921	4.05
476.275	3.97
476.63	4.24
476.984	4.2
477.338	4.02
477.692	4.18
478.045	4.36
478.399	4.18
478.753	4.31
479.107	4.27
479.461	4.19
479.814	4.28
480.168	4.13
480.521	4.13
480.875	4.17
481.228	4.28
481.582	4.17
481.935	4.32
482.289	4.34
482.642	4.31
482.995	4.15
483.348	4.12
483.701	4.41
484.055	4.3
484.408	4.15
484.761	4.23
485.114	4.06
485.466	4.04
485.819	4.05
486.172	3.98
486.525	4.01
486.878	4.11
487.23	4.08
487.583	4.14
487.936	4.19
488.288	4.16
488.641	4.19
488.993	4.13
489.345	4.11
489.698	4.14
490.05	4.15
490.402	4.14
490.754	4.07
491.107	4.12
491.459	4.14
491.811	4.33
492.163	4.23
492.515	4.26
492.866	4.24
493.218	4.15
493.57	4.15
493.922	4.06
494.274	4.25
494.625	4.26
494.977	4.36
495.328	4.44
495.68	4.34
496.031	4.37
496.383	4.24
496.734	4.39
497.086	4.2
497.437	4.39
497.788	4.4
498.139	4.28
498.49	4.43
498.842	4.29
499.193	4.39
499.544	4.47
499.894	4.42
500.245	4.48
500.596	4.44
500.947	4.36
501.298	4.42
501.648	4.42
501.999	4.37
502.35	4.34
502.7	4.58
503.051	4.32
503.401	4.34
503.752	4.67
504.102	4.44
504.452	4.42
504.803	4.5
505.153	4.48
505.503	4.57
505.853	4.49
506.203	4.5
506.553	4.36
506.903	4.49
507.253	4.59
507.603	4.49
507.953	4.49
508.303	4.46
508.652	4.49
509.002	4.59
509.352	4.43
509.701	4.55
510.051	4.47
510.4	4.37
510.75	4.33
511.099	4.33
511.449	4.48
511.798	4.42
512.147	4.46
512.496	4.55
512.846	4.44
513.195	4.49
513.544	4.62
513.893	4.53
514.242	4.46
514.591	4.4
514.939	4.53
515.288	4.41
515.637	4.5
515.986	4.58
516.334	4.58
516.683	4.49
517.032	4.61
517.38	4.54
517.729	4.67
518.077	4.48
518.426	4.62
518.774	4.6
519.122	4.5
519.47	4.46
519.819	4.36
520.167	4.47
520.515	4.5
520.863	4.54
521.211	4.43
521.559	4.56
521.907	4.54
522.255	4.59
522.602	4.62
522.95	4.59
523.298	4.63
523.645	4.85
523.993	4.7
524.341	4.69
524.688	4.54
525.036	4.67
525.383	4.56
525.73	4.61
526.078	4.63
526.425	4.54
526.772	4.59
527.119	4.5
527.466	4.61
527.814	4.5
528.161	4.51
528.508	4.62
528.854	4.55
529.201	4.58
529.548	4.64
529.895	4.51
530.242	4.44
530.588	4.4
530.935	4.44
531.282	4.51
531.628	4.52
531.975	4.5
532.321	4.53
532.667	4.55
533.014	4.55
533.36	4.64
533.706	4.52
534.052	4.6
534.399	4.59
534.745	4.67
535.091	4.52
535.437	4.55
535.783	4.55
536.129	4.61
536.474	4.67
536.82	4.6
537.166	4.76
537.512	4.72
537.857	4.63
538.203	4.7
538.549	4.71
538.894	4.8
539.239	4.65
539.585	4.7
539.93	4.78
540.276	4.75
540.621	4.73
540.966	4.69
541.311	4.75
541.656	4.88
542.001	4.85
542.346	4.67
542.691	4.65
543.036	4.64
543.381	4.51
543.726	4.61
544.071	4.62
544.415	4.59
544.76	4.66
545.105	4.75
545.449	4.78
545.794	4.76
546.138	4.65
546.483	4.76
546.827	4.8
547.171	4.82
547.516	4.73
547.86	4.88
548.204	4.78
548.548	4.74
548.892	4.77
549.236	4.77
549.58	4.83
549.924	4.82
550.268	4.85
550.612	4.82
550.956	4.91
551.3	4.95
551.643	5.05
551.987	4.97
552.33	4.99
552.674	4.97
553.017	4.96
553.361	5.04
553.704	4.85
554.048	5.04
554.391	4.95
554.734	4.88
555.077	4.98
555.42	4.81
555.764	4.91
556.107	5.11
556.45	4.89
556.793	5.01
557.135	4.9
557.478	5.05
557.821	4.98
558.164	5.02
558.507	5.08
558.849	4.94
559.192	4.94
559.534	5.22
559.877	4.94
560.219	4.8
560.562	5.15
560.904	5.13
561.246	5.01
561.589	4.93
561.931	4.93
562.273	4.99
562.615	4.85
562.957	5.09
563.299	4.99
563.641	5.14
563.983	5.14
564.325	5.11
564.667	5.1
565.008	4.83
565.35	5.05
565.692	5.03
566.033	5.15
566.375	5
566.716	4.92
567.058	5.03
567.399	5.18
567.741	5.3
568.082	4.91
568.423	5.17
568.764	5.13
569.105	5.06
569.447	5.1
569.788	5.11
570.129	4.97
570.47	5.01
570.811	5.09
571.151	5.19
571.492	5.12
571.833	5.11
572.174	5.02
572.514	4.88
572.855	5.18
573.195	5.06
573.536	4.92
573.876	5.15
574.217	5.22
574.557	5.02
574.898	5.2
575.238	5.26
575.578	5.09
575.918	5.13
576.258	5.04
576.598	4.91
576.938	4.97
577.278	5.18
577.618	5.16
577.958	5.02
578.298	5.13
578.638	4.92
578.977	5.14
579.317	5.23
579.657	5.11
579.996	5.14
580.336	5.09
580.675	5.07
581.014	5.15
581.354	5.22
581.693	5.41
582.032	5.05
582.372	5.42
582.711	5.46
583.05	5.25
583.389	5.45
583.728	5.4
584.067	5.4
584.406	5.46
584.745	5.54
585.083	5.11
585.422	5.2
585.761	5.49
586.1	5.44
586.438	5.43
586.777	5.34
587.115	5.06
587.454	5.43
587.792	5.18
588.13	5.3
588.469	5.25
588.807	5.25
589.145	5.12
589.483	5.28
589.821	5.44
590.159	5.33
590.497	5.5
590.835	5.53
591.173	5.45
591.511	5.29
591.849	5.34
592.187	5.34
592.524	5.1
592.862	5.21
593.2	5.22
593.537	5.36
593.875	5.6
594.212	5.53
594.55	5.36
594.887	5.8
595.224	5.36
595.561	5.67
595.899	5.31
596.236	5.5
596.573	5.29
596.91	5.46
597.247	5.28
597.584	5.36
597.921	5.48
598.258	5.6
598.594	5.39
598.931	5.39
599.268	5.3
599.604	5.31
599.941	5.28
600.277	5.45
600.614	5.54
600.95	5.53
601.287	5.5
601.623	5.4
601.959	5.22
602.296	5.61
602.632	5.46
602.968	5.43
603.304	5.34
603.64	5.46
603.976	5.23
604.312	5.23
604.648	5.41
604.984	5.35
605.319	5.48
605.655	5.28
605.991	5.39
606.326	5.24
606.662	5.6
606.998	5.27
607.333	5.56
607.668	5.67
608.004	5.4
608.339	5.44
608.674	5.48
609.01	5.5
609.345	5.89
609.68	5.4
610.015	5.18
610.35	5.7
610.685	5.64
611.02	5.49
611.355	5.51
611.689	5.48
612.024	5.63
612.359	5.56
612.694	5.54
613.028	5.71
613.363	5.57
613.697	5.58
614.032	5.64
614.366	5.75
614.7	5.6
615.035	5.45
615.369	5.54
615.703	5.46
616.037	5.43
616.371	5.37
616.705	5.27
617.039	5.88
617.373	5.18
617.707	5.58
618.041	5.55
618.375	5.35
618.709	5.91
619.042	5.65
619.376	5.68
619.71	5.4
620.043	5.67
620.377	5.31
620.71	5.16
621.043	5.49
621.377	5.37
621.71	5.56
622.043	5.49
622.376	6.1
622.709	5.79
623.043	5.52
623.376	5.73
623.709	5.94
624.041	6.03
624.374	5.69
624.707	5.7
625.04	5.47
625.373	5.85
625.705	5.58
626.038	5.7
626.37	5.73
626.703	5.55
627.035	5.91
627.368	5.71
627.7	5.52
628.032	5.7
628.365	5.96
628.697	5.75
629.029	5.59
629.361	5.59
629.693	5.63
630.025	5.58
630.357	5.71
630.689	5.35
631.021	5.88
631.353	5.97
631.684	5.67
632.016	5.77
632.348	5.89
632.679	5.64
633.011	6.38
633.342	5.96
633.674	5.68
634.005	6.41
634.336	6.39
634.668	6.01
634.999	6.03
635.33	6.06
635.661	5.88
635.992	6.05
636.323	5.63
636.654	6.03
636.985	5.98
637.316	5.95
637.647	5.84
637.977	5.74
638.308	6.22
638.639	6.01
638.969	5.89
639.3	5.78
639.63	6.13
639.961	5.89
640.291	5.49
640.622	5.83
640.952	6.39
641.282	6.09
641.612	5.9
641.943	5.78
642.273	6.25
642.603	6.25
642.933	5.67
643.263	5.41
643.592	6.45
643.922	6.11
644.252	5.74
644.582	6.02
644.911	5.81
645.241	5.84
645.571	6.93
645.9	5.68
646.23	5.62
646.559	6.05
646.888	5.59
647.218	6.11
647.547	5.92
647.876	5.7
648.205	5.99
648.534	6.19
648.863	6.23
649.192	6.54
649.521	6.79
649.85	5.67
650.179	6.11
650.508	5.96
650.837	6.55
651.165	5.4
651.494	5.9
651.822	6.53
652.151	6.58
652.479	6.07
652.808	6.08
653.136	6.17
653.465	6.15
653.793	6.29
654.121	6.31
654.449	6
654.777	6.17
655.105	5.96
655.433	6.63
655.761	6.64
656.089	6.18
656.417	6.85
656.745	6.04
657.073	5.61
657.4	6.34
657.728	5.92
658.056	6.09
658.383	5.33
658.711	6.09
659.038	6.05
659.365	6.3
659.693	6.45
660.02	6.11
660.347	6.5
660.674	6
661.001	6.25
661.329	6.25
661.656	6.16
661.982	6.17
662.309	6.46
662.636	6.12
662.963	6.49
663.29	6.46
663.616	6.42
663.943	6.35
664.27	6.48
664.596	6.33
664.923	6.97
665.249	5.9
665.576	6.35
665.902	6.32
666.228	6.59
666.554	5.89
666.881	6.13
667.207	5.78
667.533	6.48
667.859	5.91
668.185	6.29
668.511	6.73
668.837	5.9
669.162	7.05
669.488	5.67
669.814	6.52
670.139	6.49
670.465	5.8
670.791	6.11
671.116	6.71
671.442	6.41
671.767	6.42
672.092	6.98
672.418	6.43
672.743	6.62
673.068	5.71
673.393	6.61
673.718	6.82
674.043	6.88
674.368	5.38
674.693	5.94
675.018	5.9
675.343	5.92
675.667	6.14
675.992	6.53
676.317	6.72
676.641	6.32
676.966	6.38
677.29	5.96
677.615	6.48
677.939	6.31
678.264	6.47
678.588	6.68
678.912	6.95
679.236	6.14
679.56	6.68
679.885	6.74
680.209	6.6
680.532	5.88
680.856	6.27
681.18	6.77
681.504	6.45
681.828	6.57
682.152	6.46
682.475	6.6
682.799	6.74
683.122	6.68
683.446	6.28
683.769	7.47
684.093	6
684.416	5.99
684.739	6.91
685.062	6.39
685.386	6.88
685.709	6.94
686.032	6.42
686.355	7.06
686.678	6.62
687.001	7.17
687.324	6.92
687.646	7.13
687.969	6.56
688.292	6.52
688.614	6.51
688.937	6.9
689.26	6.9
689.582	6.53
689.904	5.56
690.227	6.8
690.549	6.87
690.871	7.02
691.194	6.41
691.516	7.34
691.838	5.87
692.16	6.86
