Data from 0410_crown_Reflection__0__187.txt Node

Date: Tue Dec 12 19:55:01 CST 2023
User: ToomeyLab
Spectrometer: FLMS14357
Trigger mode: 0
Integration Time (sec): 1.000000E-2
Scans to average: 100
Electric dark correction enabled: true
Nonlinearity correction enabled: false
Boxcar width: 0
XAxis mode: Wavelengths
Number of Pixels in Spectrum: 2048
>>>>>Begin Spectral Data<<<<<
189.047	154.13
189.435	154.13
189.823	154.13
190.211	321.26
190.599	42.93
190.987	44.32
191.375	181.71
191.763	-22.63
192.151	154.05
192.538	257.38
192.926	161.62
193.314	77.3
193.702	121.39
194.089	170.34
194.477	-520.24
194.864	-122.56
195.252	-82.99
195.639	-16.37
196.027	75.71
196.414	-445.38
196.801	87.37
197.189	-294.57
197.576	-181.59
197.963	68.11
198.351	-29.84
198.738	61.38
199.125	53.34
199.512	-21.73
199.899	-12.85
200.286	21
200.673	-123.42
201.06	-14.45
201.447	-205.84
201.833	-24.63
202.22	11.2
202.607	-109.91
202.994	-6.9
203.38	2.41
203.767	-65.95
204.154	-0.08
204.54	27.66
204.927	5.5
205.313	-11.5
205.699	16.51
206.086	-34.02
206.472	34.63
206.858	-7.78
207.245	-18.44
207.631	41.81
208.017	1.8
208.403	-32.16
208.789	-20.26
209.175	-23.88
209.561	-16.69
209.947	-5.05
210.333	9.24
210.719	6.76
211.105	-51
211.491	5.37
211.876	-42.12
212.262	27.46
212.648	2.78
213.034	-123.17
213.419	-15.2
213.805	6.99
214.19	42.22
214.576	23.7
214.961	-9.97
215.346	-3.6
215.732	1.11
216.117	-30.93
216.502	-16.05
216.888	6.52
217.273	-34.69
217.658	-152.21
218.043	-0.88
218.428	5.31
218.813	-9.32
219.198	-106.06
219.583	23
219.968	20.81
220.353	1.39
220.738	1.53
221.122	-22.47
221.507	-17.51
221.892	-0.67
222.276	22.3
222.661	11.81
223.046	-33.62
223.43	-3.49
223.815	-18.65
224.199	9.12
224.583	1.01
224.968	14.11
225.352	-3.25
225.736	5.78
226.121	-6.17
226.505	-3.4
226.889	-3.97
227.273	-0.27
227.657	6.03
228.041	-1.69
228.425	7.03
228.809	2.18
229.193	3.64
229.577	5.95
229.961	2.79
230.344	4.5
230.728	5.17
231.112	5.19
231.495	5.35
231.879	5.95
232.263	4.02
232.646	3.1
233.03	3.82
233.413	2.05
233.797	4.37
234.18	2.62
234.563	0.4
234.946	4.33
235.33	4.17
235.713	2.61
236.096	1.79
236.479	3.42
236.862	4.77
237.245	4.77
237.628	4.94
238.011	4.48
238.394	4.25
238.777	4.32
239.16	5.5
239.543	2.35
239.925	4.51
240.308	1.89
240.691	4.55
241.073	5.52
241.456	3.73
241.838	4.5
242.221	5.52
242.603	4.69
242.986	3.55
243.368	5.54
243.75	4.9
244.133	4.99
244.515	4.6
244.897	5.45
245.279	5.46
245.661	4
246.043	4.35
246.425	4.87
246.807	4.46
247.189	4.09
247.571	5.23
247.953	4.17
248.335	4.63
248.717	4.67
249.098	4.83
249.48	4.65
249.862	4.3
250.243	4.36
250.625	5.26
251.006	5.18
251.388	4.9
251.769	5.44
252.151	3.41
252.532	4.37
252.913	5.06
253.295	4.78
253.676	4.47
254.057	4.14
254.438	4.5
254.819	4
255.2	4.06
255.581	3.7
255.962	4.13
256.343	3.96
256.724	3.52
257.105	5.19
257.486	2.94
257.867	3.79
258.247	3.15
258.628	4.12
259.009	3.84
259.389	4.14
259.77	4.51
260.15	4.48
260.531	4.93
260.911	4.7
261.292	4.11
261.672	4.34
262.052	4.46
262.432	4.2
262.813	4.3
263.193	4.4
263.573	4.1
263.953	5.67
264.333	5.73
264.713	3.6
265.093	4.83
265.473	4.6
265.853	4.03
266.233	3.53
266.612	2.75
266.992	4.03
267.372	4.39
267.752	4.75
268.131	3.54
268.511	3.26
268.89	3.68
269.27	3.66
269.649	4.1
270.029	3.94
270.408	4.5
270.787	3.08
271.167	3.67
271.546	4.03
271.925	4.36
272.304	4.73
272.683	2.81
273.062	3.93
273.441	4.69
273.82	3.98
274.199	4.16
274.578	4.01
274.957	3.83
275.336	4.26
275.715	4.17
276.093	3.34
276.472	4.05
276.851	4.15
277.229	3.29
277.608	3.55
277.986	3.58
278.365	4.32
278.743	3.89
279.122	4.41
279.5	3.61
279.878	3.38
280.257	3.96
280.635	4.17
281.013	3.85
281.391	4.25
281.769	4.34
282.147	3.7
282.525	3.85
282.903	3.87
283.281	3.44
283.659	3.75
284.037	4.49
284.415	3.72
284.792	4.09
285.17	4.01
285.548	3.95
285.925	4.03
286.303	4.14
286.68	4
287.058	3.97
287.435	3.6
287.813	3.66
288.19	3.87
288.567	3.92
288.945	4.4
289.322	3.4
289.699	3.66
290.076	3.77
290.453	4.25
290.83	3.27
291.207	4.28
291.584	4.12
291.961	4.14
292.338	4.38
292.715	4.26
293.092	3.81
293.469	3.9
293.845	3.94
294.222	3.4
294.599	3.73
294.975	3.95
295.352	3.95
295.728	4.09
296.105	3.93
296.481	4.84
296.858	3.86
297.234	4.55
297.61	4.12
297.986	4.53
298.363	4.39
298.739	4
299.115	4.03
299.491	4.42
299.867	4.22
300.243	3.7
300.619	4.36
300.995	4.41
301.371	4.53
301.746	4.1
302.122	4.73
302.498	4.55
302.874	4.16
303.249	4.45
303.625	3.94
304	4.37
304.376	4.09
304.751	4.76
305.127	4.17
305.502	4.75
305.878	3.92
306.253	4
306.628	4.33
307.003	3.72
307.378	4.41
307.754	4.22
308.129	3.69
308.504	5.31
308.879	4.19
309.254	4.79
309.629	4.17
310.003	4.53
310.378	4.43
310.753	3.88
311.128	4.4
311.502	3.98
311.877	3.99
312.252	3.82
312.626	4.09
313.001	3.65
313.375	4.07
313.75	4.51
314.124	4.13
314.498	3.99
314.873	4.55
315.247	4.34
315.621	4.5
315.995	4.61
316.369	4.6
316.743	3.99
317.117	3.89
317.491	4.34
317.865	4.19
318.239	4.36
318.613	4.46
318.987	4.55
319.361	3.39
319.734	4.41
320.108	4.08
320.482	4.01
320.855	4.34
321.229	4.74
321.602	4.65
321.976	4.35
322.349	4.75
322.723	4.65
323.096	4.2
323.469	4.76
323.843	5.24
324.216	4.5
324.589	4.68
324.962	4.66
325.335	4.61
325.708	4.18
326.081	4.47
326.454	4.4
326.827	5.24
327.2	4.08
327.573	4.29
327.945	4.78
328.318	4.18
328.691	4.05
329.063	4.46
329.436	4.08
329.809	4.28
330.181	3.95
330.553	3.89
330.926	4.72
331.298	4.25
331.671	4.4
332.043	4.29
332.415	4.92
332.787	4.3
333.159	4.18
333.532	4.56
333.904	4.24
334.276	5.43
334.648	4
335.02	3.87
335.391	4.17
335.763	4.48
336.135	4.55
336.507	5
336.879	4.81
337.25	4.25
337.622	3.81
337.993	4.17
338.365	4.22
338.736	4.6
339.108	4.46
339.479	4.77
339.851	3.82
340.222	3.81
340.593	4.33
340.964	4.22
341.336	4.42
341.707	4.08
342.078	3.82
342.449	4.03
342.82	4.2
343.191	4.09
343.562	4.57
343.933	4.47
344.303	4.54
344.674	4.63
345.045	4.11
345.416	4.58
345.786	4.32
346.157	3.87
346.527	4.7
346.898	4.17
347.268	4.3
347.639	4.36
348.009	4.43
348.38	4.78
348.75	4.58
349.12	4.56
349.49	4.34
349.861	4.51
350.231	4.17
350.601	4.97
350.971	3.97
351.341	4.24
351.711	4.15
352.081	4.39
352.45	4.2
352.82	4.63
353.19	4.57
353.56	4.25
353.929	4.11
354.299	3.85
354.669	4
355.038	3.98
355.408	4.34
355.777	4.5
356.147	4.16
356.516	3.99
356.885	4
357.254	4.21
357.624	4.29
357.993	4.47
358.362	4.38
358.731	4.48
359.1	4.04
359.469	4.03
359.838	4.31
360.207	4.55
360.576	4.38
360.945	4.39
361.314	4.6
361.682	4.17
362.051	4.59
362.42	4.51
362.788	4.12
363.157	4.64
363.525	4.33
363.894	3.99
364.262	4.36
364.631	4.18
364.999	4.48
365.367	4.4
365.735	4.11
366.104	4.05
366.472	4.39
366.84	4.54
367.208	4.52
367.576	4.3
367.944	4.65
368.312	4.39
368.68	4.57
369.048	4.58
369.416	4.59
369.783	4.63
370.151	4.26
370.519	4.49
370.886	4.33
371.254	3.96
371.621	4.38
371.989	4.43
372.356	4.5
372.724	4.24
373.091	4.39
373.458	4.3
373.826	4.51
374.193	4.14
374.56	4.7
374.927	4.2
375.294	4.65
375.661	4.87
376.028	4.74
376.395	4.85
376.762	4.68
377.129	4.16
377.496	4.49
377.863	4.51
378.229	4.29
378.596	4.5
378.963	4.58
379.329	4.17
379.696	4.46
380.062	4.86
380.429	4.44
380.795	4.39
381.161	5.19
381.528	4.47
381.894	4.7
382.26	4.47
382.626	4.3
382.993	4.44
383.359	4.47
383.725	4.5
384.091	4.7
384.457	4.43
384.823	4.75
385.188	4.56
385.554	4.54
385.92	4.5
386.286	4.63
386.651	4.74
387.017	4.74
387.383	4.65
387.748	4.53
388.114	4.55
388.479	4.63
388.845	4.56
389.21	4.52
389.575	4.55
389.94	4.47
390.306	4.73
390.671	4.72
391.036	4.52
391.401	4.25
391.766	4.66
392.131	4.94
392.496	4.65
392.861	4.5
393.226	4.65
393.591	4.59
393.956	4.49
394.32	4.66
394.685	4.71
395.05	4.61
395.414	4.92
395.779	4.53
396.143	4.72
396.508	4.49
396.872	4.58
397.236	4.77
397.601	4.71
397.965	4.71
398.329	4.68
398.694	4.49
399.058	4.87
399.422	4.55
399.786	4.66
400.15	4.6
400.514	4.99
400.878	4.79
401.242	4.83
401.605	4.86
401.969	4.53
402.333	4.67
402.697	4.44
403.06	4.83
403.424	4.86
403.787	4.58
404.151	4.79
404.514	4.65
404.878	4.32
405.241	4.81
405.604	4.6
405.968	4.49
406.331	4.72
406.694	4.86
407.057	4.42
407.42	4.9
407.783	4.61
408.146	4.63
408.509	4.83
408.872	4.79
409.235	4.49
409.598	4.66
409.961	4.67
410.323	4.61
410.686	4.74
411.049	4.9
411.411	4.87
411.774	4.88
412.136	4.96
412.499	4.75
412.861	4.71
413.223	4.95
413.586	4.84
413.948	4.68
414.31	4.89
414.672	4.81
415.035	5.01
415.397	4.73
415.759	4.79
416.121	4.43
416.483	4.88
416.845	4.61
417.206	4.8
417.568	4.54
417.93	4.77
418.292	4.71
418.653	4.84
419.015	4.62
419.377	4.79
419.738	4.76
420.1	4.72
420.461	4.71
420.822	4.8
421.184	4.75
421.545	4.91
421.906	4.75
422.267	4.76
422.629	4.83
422.99	4.78
423.351	4.69
423.712	4.79
424.073	4.84
424.434	4.85
424.795	4.87
425.155	4.7
425.516	4.67
425.877	4.86
426.238	4.73
426.598	4.61
426.959	4.8
427.32	4.86
427.68	4.75
428.041	4.8
428.401	4.82
428.761	4.79
429.122	4.79
429.482	5.21
429.842	4.87
430.202	4.99
430.563	4.92
430.923	4.83
431.283	4.8
431.643	5.11
432.003	4.98
432.363	5.2
432.722	5.02
433.082	5.08
433.442	4.94
433.802	4.78
434.161	4.86
434.521	4.95
434.881	4.97
435.24	4.86
435.6	5.08
435.959	5.06
436.319	5
436.678	5.21
437.037	4.86
437.396	4.79
437.756	4.98
438.115	5.08
438.474	4.89
438.833	5.01
439.192	5.01
439.551	5.17
439.91	4.92
440.269	4.97
440.628	4.99
440.987	4.8
441.345	5.01
441.704	4.99
442.063	4.96
442.421	4.96
442.78	4.9
443.138	4.95
443.497	5.04
443.855	4.91
444.214	5.1
444.572	5.19
444.93	5.13
445.288	4.76
445.647	5.08
446.005	4.85
446.363	4.93
446.721	5.05
447.079	5.07
447.437	4.86
447.795	5.06
448.153	4.95
448.51	4.99
448.868	4.98
449.226	5.15
449.584	4.99
449.941	5.04
450.299	4.99
450.656	4.99
451.014	5.05
451.371	5.09
451.729	5.16
452.086	5.06
452.443	5.18
452.801	5.09
453.158	4.99
453.515	5.24
453.872	5.3
454.229	5.24
454.586	4.99
454.943	5.17
455.3	5.12
455.657	5.09
456.014	5.23
456.371	5.26
456.727	5.14
457.084	5.34
457.441	5.22
457.797	5.44
458.154	5.15
458.51	4.98
458.867	5.21
459.223	5.25
459.58	5.15
459.936	5.15
460.292	5.11
460.648	5.25
461.005	5.2
461.361	5.09
461.717	5.15
462.073	5.07
462.429	5.16
462.785	5.18
463.141	5.16
463.496	5.21
463.852	5.36
464.208	5.33
464.564	5.29
464.919	5.55
465.275	5.45
465.631	5.3
465.986	5.21
466.342	4.94
466.697	5.25
467.052	5.44
467.408	5.22
467.763	5.36
468.118	5.38
468.473	5.36
468.829	5.38
469.184	5.11
469.539	5.46
469.894	5.43
470.249	5.28
470.603	5.27
470.958	5.46
471.313	5.51
471.668	5.35
472.023	5.32
472.377	5.36
472.732	5.27
473.086	5.44
473.441	5.58
473.795	5.42
474.15	5.48
474.504	5.25
474.859	5.41
475.213	5.28
475.567	5.34
475.921	5.39
476.275	5.34
476.63	5.39
476.984	5.64
477.338	5.47
477.692	5.41
478.045	5.49
478.399	5.36
478.753	5.4
479.107	5.34
479.461	5.53
479.814	5.34
480.168	5.23
480.521	5.35
480.875	5.44
481.228	5.62
481.582	5.43
481.935	5.44
482.289	5.46
482.642	5.5
482.995	5.25
483.348	5.31
483.701	5.55
484.055	5.33
484.408	5.34
484.761	5.39
485.114	5.29
485.466	5.17
485.819	5.13
486.172	5.13
486.525	5.17
486.878	5.26
487.23	5.24
487.583	5.26
487.936	5.39
488.288	5.3
488.641	5.27
488.993	5.31
489.345	5.28
489.698	5.24
490.05	5.26
490.402	5.29
490.754	5.31
491.107	5.33
491.459	5.43
491.811	5.49
492.163	5.43
492.515	5.48
492.866	5.33
493.218	5.31
493.57	5.32
493.922	5.26
494.274	5.34
494.625	5.49
494.977	5.54
495.328	5.56
495.68	5.41
496.031	5.77
496.383	5.48
496.734	5.62
497.086	5.51
497.437	5.48
497.788	5.68
498.139	5.47
498.49	5.62
498.842	5.53
499.193	5.64
499.544	5.68
499.894	5.61
500.245	5.74
500.596	5.7
500.947	5.52
501.298	5.67
501.648	5.75
501.999	5.69
502.35	5.61
502.7	5.76
503.051	5.64
503.401	5.7
503.752	5.96
504.102	5.76
504.452	5.65
504.803	5.82
505.153	5.55
505.503	5.66
505.853	5.79
506.203	5.73
506.553	5.82
506.903	5.86
507.253	5.77
507.603	5.87
507.953	5.7
508.303	5.77
508.652	5.77
509.002	5.74
509.352	5.83
509.701	5.83
510.051	5.82
510.4	5.81
510.75	5.67
511.099	5.71
511.449	5.78
511.798	5.72
512.147	5.83
512.496	5.9
512.846	5.84
513.195	5.81
513.544	5.78
513.893	5.73
514.242	5.71
514.591	5.74
514.939	5.76
515.288	5.74
515.637	5.84
515.986	5.8
516.334	5.94
516.683	5.82
517.032	5.83
517.38	5.87
517.729	6.01
518.077	5.8
518.426	6.01
518.774	5.85
519.122	5.81
519.47	5.86
519.819	5.8
520.167	5.84
520.515	5.77
520.863	5.78
521.211	5.79
521.559	5.86
521.907	5.83
522.255	5.94
522.602	5.88
522.95	5.87
523.298	5.89
523.645	6.05
523.993	5.94
524.341	6
524.688	5.77
525.036	6.07
525.383	5.85
525.73	5.88
526.078	6.01
526.425	5.87
526.772	5.95
527.119	5.99
527.466	5.92
527.814	5.8
528.161	5.93
528.508	5.84
528.854	5.82
529.201	5.91
529.548	5.82
529.895	5.73
530.242	5.68
530.588	5.68
530.935	5.72
531.282	5.76
531.628	5.83
531.975	5.8
532.321	5.81
532.667	5.85
533.014	5.96
533.36	5.91
533.706	5.9
534.052	5.99
534.399	6.02
534.745	5.87
535.091	5.79
535.437	5.85
535.783	5.86
536.129	6.01
536.474	5.97
536.82	5.98
537.166	6.12
537.512	6.11
537.857	6.11
538.203	6.05
538.549	6.01
538.894	6.09
539.239	6.08
539.585	6
539.93	6.21
540.276	6.07
540.621	6.04
540.966	5.89
541.311	6.21
541.656	6.12
542.001	6.07
542.346	6.09
542.691	6.08
543.036	5.91
543.381	5.83
543.726	5.97
544.071	6
544.415	6.01
544.76	5.99
545.105	6.07
545.449	6.1
545.794	6.2
546.138	6.09
546.483	6.2
546.827	6.17
547.171	6.3
547.516	6.16
547.86	6.24
548.204	6.15
548.548	6.13
548.892	6.2
549.236	6.13
549.58	6.13
549.924	6.3
550.268	6.38
550.612	6.16
550.956	6.31
551.3	6.57
551.643	6.32
551.987	6.49
552.33	6.4
552.674	6.21
553.017	6.46
553.361	6.48
553.704	6.32
554.048	6.25
554.391	6.36
554.734	6.3
555.077	6.27
555.42	6.3
555.764	6.41
556.107	6.46
556.45	6.12
556.793	6.13
557.135	6.5
557.478	6.51
557.821	6.31
558.164	6.54
558.507	6.43
558.849	6.47
559.192	6.41
559.534	6.44
559.877	6.5
560.219	6.48
560.562	6.53
560.904	6.46
561.246	6.38
561.589	6.5
561.931	6.37
562.273	6.2
562.615	6.28
562.957	6.53
563.299	6.43
563.641	6.36
563.983	6.42
564.325	6.59
564.667	6.63
565.008	6.3
565.35	6.35
565.692	6.7
566.033	6.58
566.375	6.52
566.716	6.51
567.058	6.63
567.399	6.62
567.741	6.53
568.082	6.5
568.423	6.55
568.764	6.59
569.105	6.54
569.447	6.62
569.788	6.55
570.129	6.41
570.47	6.45
570.811	6.59
571.151	6.71
571.492	6.62
571.833	6.65
572.174	6.67
572.514	6.73
572.855	6.65
573.195	6.52
573.536	6.52
573.876	6.5
574.217	6.74
574.557	6.57
574.898	6.53
575.238	6.64
575.578	6.67
575.918	6.73
576.258	6.52
576.598	6.52
576.938	6.63
577.278	6.6
577.618	6.67
577.958	6.61
578.298	6.81
578.638	6.61
578.977	6.42
579.317	6.67
579.657	6.64
579.996	6.79
580.336	6.67
580.675	6.64
581.014	6.56
581.354	6.67
581.693	6.87
582.032	6.77
582.372	6.73
582.711	6.87
583.05	6.97
583.389	6.9
583.728	6.72
584.067	6.72
584.406	7.06
584.745	6.83
585.083	6.79
585.422	6.96
585.761	6.74
586.1	6.81
586.438	6.93
586.777	6.89
587.115	6.73
587.454	6.87
587.792	6.79
588.13	7.09
588.469	6.88
588.807	6.82
589.145	7.1
589.483	6.84
589.821	6.92
590.159	6.68
590.497	6.83
590.835	6.81
591.173	6.7
591.511	6.79
591.849	6.84
592.187	6.89
592.524	6.64
592.862	6.7
593.2	6.77
593.537	6.4
593.875	6.99
594.212	6.9
594.55	6.89
594.887	7.33
595.224	7
595.561	7.15
595.899	6.9
596.236	7.02
596.573	6.82
596.91	7.15
597.247	6.95
597.584	6.79
597.921	6.94
598.258	7.05
598.594	7.13
598.931	7
599.268	6.8
599.604	6.87
599.941	6.94
600.277	6.77
600.614	7.2
600.95	7.09
601.287	7.07
601.623	7.25
601.959	7.02
602.296	7.03
602.632	6.83
602.968	7.37
603.304	6.91
603.64	7.19
603.976	6.67
604.312	6.69
604.648	7.43
604.984	6.99
605.319	7.07
605.655	6.9
605.991	7.12
606.326	6.9
606.662	7.02
606.998	6.96
607.333	7.17
607.668	6.91
608.004	6.99
608.339	7.21
608.674	7.25
609.01	7.19
609.345	7.16
609.68	7.13
610.015	6.87
610.35	7.08
610.685	7.35
611.02	7.16
611.355	7.04
611.689	7.1
612.024	6.99
612.359	7.27
612.694	7.25
613.028	7.35
613.363	7.18
613.697	7.31
614.032	7.32
614.366	7.2
614.7	7.06
615.035	7.03
615.369	7.1
615.703	7.2
616.037	7.22
616.371	6.86
616.705	7.32
617.039	7.47
617.373	7.31
617.707	7.14
618.041	7.29
618.375	7.41
618.709	6.91
619.042	7.13
619.376	6.98
619.71	7.25
620.043	7.22
620.377	7.2
620.71	7.27
621.043	6.92
621.377	6.74
621.71	7.4
622.043	7.41
622.376	7.7
622.709	7.55
623.043	7.18
623.376	7.67
623.709	7.82
624.041	7.48
624.374	7.44
624.707	7.2
625.04	7
625.373	7.68
625.705	7.44
626.038	7.33
626.37	7.79
626.703	7.8
627.035	7.17
627.368	8.1
627.7	7.33
628.032	7.28
628.365	7.6
628.697	7.43
629.029	7.47
629.361	7.23
629.693	7.29
630.025	6.91
630.357	7.47
630.689	7.29
631.021	7.92
631.353	7.83
631.684	7.39
632.016	7.65
632.348	7.58
632.679	7.36
633.011	7.91
633.342	7.62
633.674	8.04
634.005	7.41
634.336	7.72
634.668	7.38
634.999	7.74
635.33	7.89
635.661	7.61
635.992	7.56
636.323	7.34
636.654	7.47
636.985	7.42
637.316	7.73
637.647	7.41
637.977	7.43
638.308	7.79
638.639	7.85
638.969	7.84
639.3	7.85
639.63	8.11
639.961	7.5
640.291	7.37
640.622	7.87
640.952	8.06
641.282	7.75
641.612	7.91
641.943	7.72
642.273	8.13
642.603	7.92
642.933	7.18
643.263	7.02
643.592	8.3
643.922	7.91
644.252	7.77
644.582	7.33
644.911	7.78
645.241	7.6
645.571	8.25
645.9	7.36
646.23	7.89
646.559	8.02
646.888	7.76
647.218	7.83
647.547	7.52
647.876	7.5
648.205	8.24
648.534	7.93
648.863	7.71
649.192	8.5
649.521	8.1
649.85	7.59
650.179	8.13
650.508	7.81
650.837	7.92
651.165	7.56
651.494	7.72
651.822	8
652.151	7.87
652.479	8.25
652.808	8.48
653.136	8.02
653.465	8.18
653.793	7.86
654.121	7.97
654.449	7.87
654.777	8.39
655.105	8.01
655.433	8.04
655.761	7.95
656.089	7.53
656.417	8.32
656.745	7.64
657.073	7.41
657.4	8.13
657.728	7.31
658.056	7.9
658.383	7.75
658.711	7.55
659.038	7.96
659.365	8.11
659.693	7.84
660.02	7.79
660.347	8.13
660.674	8.04
661.001	8.4
661.329	7.83
661.656	7.67
661.982	7.7
662.309	8.41
662.636	8.23
662.963	7.99
663.29	8.46
663.616	7.93
663.943	8.52
664.27	8.3
664.596	8.37
664.923	8.55
665.249	7.81
665.576	8.37
665.902	8.33
666.228	8.79
666.554	8.33
666.881	7.18
667.207	8.09
667.533	8.24
667.859	8.03
668.185	8.21
668.511	8.51
668.837	8.44
669.162	8.96
669.488	8.25
669.814	8.5
670.139	7.97
670.465	7.9
670.791	8.5
671.116	7.75
671.442	7.84
671.767	8.45
672.092	8.91
672.418	8.48
672.743	8.32
673.068	7.8
673.393	8.39
673.718	8.49
674.043	8.87
674.368	7.85
674.693	8.48
675.018	8.29
675.343	8.16
675.667	8.63
675.992	8.15
676.317	8.41
676.641	8.3
676.966	8.39
677.29	7.54
677.615	7.92
677.939	7.99
678.264	8.95
678.588	8.81
678.912	9.02
679.236	8.46
679.56	8.58
679.885	8.77
680.209	8.63
680.532	8.53
680.856	8.2
681.18	7.81
681.504	8.57
681.828	8.53
682.152	8.04
682.475	8.73
682.799	8.44
683.122	9.16
683.446	8.46
683.769	9.09
684.093	8.65
684.416	8.35
684.739	9.12
685.062	8.92
685.386	8.94
685.709	8.74
686.032	8.18
686.355	7.78
686.678	9.1
687.001	8.73
687.324	8.54
687.646	9.46
687.969	8.23
688.292	8.6
688.614	8.9
688.937	8.98
689.26	8.69
689.582	8.49
689.904	8.21
690.227	8.54
690.549	8.9
690.871	8.8
691.194	9.03
691.516	8.43
691.838	8.95
692.16	8.6
692.482	8.29
692.804	8.34
693.126	9.51
693.448	8.53
