Data from 1610-4_forehead_Reflection__4__60.txt Node

Date: Fri Nov 11 16:36:04 CST 2022
User: ToomeyLab
Spectrometer: FLMS14357
Trigger mode: 0
Integration Time (sec): 1.000000E-2
Scans to average: 100
Electric dark correction enabled: true
Nonlinearity correction enabled: false
Boxcar width: 0
XAxis mode: Wavelengths
Number of Pixels in Spectrum: 2048
>>>>>Begin Spectral Data<<<<<
189.047	62.69
189.435	62.69
189.823	62.69
190.211	-74.98
190.599	67.31
190.987	-3344.25
191.375	475.34
191.763	-241.49
192.151	116.55
192.538	237.27
192.926	-1223.08
193.314	345.03
193.702	182.17
194.089	-1214.29
194.477	725.24
194.864	-4.7
195.252	123.56
195.639	-163.54
196.027	-239.62
196.414	81.94
196.801	-40.49
197.189	142.98
197.576	-303.91
197.963	71.58
198.351	-2.31
198.738	10.53
199.125	30.74
199.512	41.86
199.899	21
200.286	35.57
200.673	41.39
201.06	-15.01
201.447	35.15
201.833	40.32
202.22	50.21
202.607	35.83
202.994	45.23
203.38	16.37
203.767	36.91
204.154	-35.31
204.54	57.95
204.927	37.11
205.313	37.21
205.699	40.86
206.086	39.36
206.472	-0.23
206.858	11.61
207.245	38.02
207.631	29.44
208.017	36.28
208.403	18.65
208.789	-18.4
209.175	30.37
209.561	34.73
209.947	16.04
210.333	35.96
210.719	41.58
211.105	33.39
211.491	-120.76
211.876	54.18
212.262	5.31
212.648	33.43
213.034	31.8
213.419	34.22
213.805	27.26
214.19	8.28
214.576	43.45
214.961	24.74
215.346	-15.42
215.732	-5.53
216.117	36.56
216.502	6.69
216.888	24.61
217.273	39.11
217.658	-0.64
218.043	10.87
218.428	-11.3
218.813	24.12
219.198	-13.18
219.583	40.03
219.968	10.45
220.353	21.64
220.738	16.71
221.122	10.38
221.507	24.6
221.892	10.67
222.276	23.5
222.661	16.92
223.046	19.36
223.43	2.7
223.815	6.2
224.199	10.68
224.583	8.38
224.968	14.89
225.352	5.33
225.736	15.35
226.121	7.67
226.505	5.61
226.889	13.82
227.273	9.35
227.657	5.65
228.041	2.62
228.425	2.3
228.809	10.1
229.193	3.65
229.577	6.35
229.961	4.06
230.344	5.28
230.728	4.55
231.112	4.96
231.495	5.37
231.879	5.89
232.263	4.17
232.646	4.78
233.03	4.47
233.413	4.58
233.797	6.48
234.18	6.45
234.563	6.48
234.946	5.43
235.33	6.05
235.713	5.43
236.096	3.48
236.479	4.34
236.862	5.93
237.245	3.72
237.628	5.7
238.011	6
238.394	4.39
238.777	6.09
239.16	3.74
239.543	6.34
239.925	6.97
240.308	3.14
240.691	4.26
241.073	4.55
241.456	5.43
241.838	5.32
242.221	4.36
242.603	4.75
242.986	4.78
243.368	4.61
243.75	4.56
244.133	4.42
244.515	4.58
244.897	4.54
245.279	4.18
245.661	4.42
246.043	5.65
246.425	5.49
246.807	5.36
247.189	5.14
247.571	3.59
247.953	4.91
248.335	4.8
248.717	4.6
249.098	4.46
249.48	4.34
249.862	4.6
250.243	4.75
250.625	4.51
251.006	5.03
251.388	5.09
251.769	4.71
252.151	4.69
252.532	5.45
252.913	4.49
253.295	4.5
253.676	4.5
254.057	4.34
254.438	4.77
254.819	4.57
255.2	4.89
255.581	4.88
255.962	4.6
256.343	5.9
256.724	4.07
257.105	5.49
257.486	5.08
257.867	4.91
258.247	4.67
258.628	4.08
259.009	5.16
259.389	4.65
259.77	5.31
260.15	5.23
260.531	4.74
260.911	4.82
261.292	4.78
261.672	4.43
262.052	4.38
262.432	4.65
262.813	4.64
263.193	4.59
263.573	5.09
263.953	4.81
264.333	4.86
264.713	4.59
265.093	4.78
265.473	5.61
265.853	4.68
266.233	4.78
266.612	4.55
266.992	4.78
267.372	4.66
267.752	4.45
268.131	4.57
268.511	4.89
268.89	5.07
269.27	4.43
269.649	4.18
270.029	3.8
270.408	4.41
270.787	4.93
271.167	4.76
271.546	5.08
271.925	4.88
272.304	4.94
272.683	4.69
273.062	4.67
273.441	4.6
273.82	4.16
274.199	4.7
274.578	4.84
274.957	4.29
275.336	4.77
275.715	4.67
276.093	4.64
276.472	5.15
276.851	4.49
277.229	4.42
277.608	4.44
277.986	4.45
278.365	4.71
278.743	4.5
279.122	4.46
279.5	4.26
279.878	4.14
280.257	4.63
280.635	4.49
281.013	4.55
281.391	4.01
281.769	4.86
282.147	4.87
282.525	4.34
282.903	4.68
283.281	4.67
283.659	4.18
284.037	4.49
284.415	4.74
284.792	4.48
285.17	4.72
285.548	4.39
285.925	4.71
286.303	4.53
286.68	4.23
287.058	4.87
287.435	4.53
287.813	4.5
288.19	4.45
288.567	4.9
288.945	4.22
289.322	4.6
289.699	4.54
290.076	4.42
290.453	4.52
290.83	5.52
291.207	5
291.584	4.39
291.961	4.72
292.338	5.02
292.715	4.71
293.092	4.85
293.469	5.06
293.845	5.18
294.222	5.48
294.599	5.18
294.975	4.73
295.352	4.82
295.728	5.11
296.105	5.3
296.481	4.88
296.858	5.09
297.234	5.4
297.61	5.21
297.986	4.92
298.363	5.31
298.739	5.07
299.115	5.02
299.491	5.26
299.867	5.12
300.243	4.99
300.619	5.45
300.995	5.37
301.371	5.21
301.746	5.65
302.122	5.6
302.498	5.52
302.874	5.51
303.249	5.6
303.625	5.59
304	5.47
304.376	5.89
304.751	6.37
305.127	5.8
305.502	6.47
305.878	6.34
306.253	6.12
306.628	6.34
307.003	5.62
307.378	6.54
307.754	6.27
308.129	6.4
308.504	6.16
308.879	6.25
309.254	5.65
309.629	5.97
310.003	6.08
310.378	5.69
310.753	6.12
311.128	6.33
311.502	6.22
311.877	6.83
312.252	6.38
312.626	6.5
313.001	6.96
313.375	6.8
313.75	7.03
314.124	6.93
314.498	7.04
314.873	6.74
315.247	7.16
315.621	7.21
315.995	7.08
316.369	7.32
316.743	7.32
317.117	7.6
317.491	7.63
317.865	7.37
318.239	7.88
318.613	7.43
318.987	7.53
319.361	7.78
319.734	7.48
320.108	7.76
320.482	7.38
320.855	7.6
321.229	8.05
321.602	7.62
321.976	7.41
322.349	8.39
322.723	8.09
323.096	8.67
323.469	8.15
323.843	9.13
324.216	7.93
324.589	8.43
324.962	8.14
325.335	8.65
325.708	8.01
326.081	8.32
326.454	8.76
326.827	8.42
327.2	7.93
327.573	9.01
327.945	8.91
328.318	9.3
328.691	8.96
329.063	8.97
329.436	8.97
329.809	8.69
330.181	9.57
330.553	9.16
330.926	8.77
331.298	9.03
331.671	9.68
332.043	9.4
332.415	9.1
332.787	9.01
333.159	9.9
333.532	8.78
333.904	9.66
334.276	9.26
334.648	9.59
335.02	9.78
335.391	10.01
335.763	9.38
336.135	9.22
336.507	9.69
336.879	9.5
337.25	9.55
337.622	10.28
337.993	9.9
338.365	9.71
338.736	9.91
339.108	9.72
339.479	10.18
339.851	9.66
340.222	9.83
340.593	10
340.964	10.54
341.336	9.95
341.707	10.29
342.078	10.4
342.449	10.79
342.82	10.32
343.191	10.51
343.562	10.34
343.933	10.32
344.303	11.13
344.674	10.99
345.045	10.37
345.416	10.38
345.786	10.47
346.157	10.84
346.527	10.79
346.898	10.96
347.268	10.67
347.639	11.08
348.009	11.03
348.38	10.58
348.75	11.57
349.12	11.29
349.49	11.57
349.861	11.01
350.231	11.15
350.601	12.02
350.971	11.44
351.341	11.3
351.711	11.05
352.081	10.96
352.45	11.15
352.82	11.42
353.19	11.6
353.56	11.41
353.929	11.73
354.299	11.76
354.669	11.74
355.038	11.91
355.408	11.74
355.777	12.22
356.147	11.61
356.516	12.12
356.885	12.01
357.254	11.85
357.624	12.24
357.993	12.05
358.362	12.25
358.731	11.84
359.1	12.21
359.469	12.36
359.838	12.08
360.207	12.14
360.576	12.49
360.945	12.84
361.314	12.58
361.682	12.55
362.051	12.75
362.42	12.5
362.788	12.37
363.157	12.41
363.525	12.82
363.894	12.26
364.262	12.52
364.631	12.65
364.999	12.91
365.367	13.14
365.735	13.34
366.104	12.7
366.472	13.04
366.84	13.14
367.208	13.05
367.576	13.32
367.944	13.43
368.312	13.3
368.68	13.26
369.048	13.19
369.416	13.21
369.783	13.43
370.151	13.68
370.519	13.94
370.886	13.72
371.254	13.67
371.621	14
371.989	13.35
372.356	13.61
372.724	13.86
373.091	13.79
373.458	13.6
373.826	13.9
374.193	13.91
374.56	14
374.927	14
375.294	14.07
375.661	14.36
376.028	14.45
376.395	14.24
376.762	14.32
377.129	14.47
377.496	14.57
377.863	14.55
378.229	14.86
378.596	14.38
378.963	14.63
379.329	14.39
379.696	14.52
380.062	14.71
380.429	14.48
380.795	14.7
381.161	15.25
381.528	15.1
381.894	15.12
382.26	15.13
382.626	14.94
382.993	14.93
383.359	14.93
383.725	15.09
384.091	15.36
384.457	15.46
384.823	15.4
385.188	15.31
385.554	15.47
385.92	15.13
386.286	15.35
386.651	15.41
387.017	15.17
387.383	15.49
387.748	15.47
388.114	15.74
388.479	15.45
388.845	15.69
389.21	15.93
389.575	15.86
389.94	15.97
390.306	15.63
390.671	15.63
391.036	15.9
391.401	16.17
391.766	16.25
392.131	15.91
392.496	16.18
392.861	16.21
393.226	16.25
393.591	16.23
393.956	16.21
394.32	16.38
394.685	16.31
395.05	16.54
395.414	16.63
395.779	16.55
396.143	16.21
396.508	16.55
396.872	16.31
397.236	16.48
397.601	16.72
397.965	16.95
398.329	16.81
398.694	16.76
399.058	16.8
399.422	17.15
399.786	17
400.15	17.07
400.514	17.25
400.878	17.05
401.242	17.16
401.605	17.14
401.969	17.17
402.333	17.1
402.697	17.17
403.06	17.5
403.424	17.3
403.787	17.65
404.151	17.53
404.514	17.42
404.878	17.72
405.241	17.73
405.604	17.47
405.968	17.8
406.331	17.67
406.694	17.7
407.057	17.72
407.42	17.6
407.783	17.74
408.146	17.99
408.509	17.86
408.872	18.14
409.235	18.32
409.598	18.28
409.961	18.2
410.323	18.3
410.686	18.53
411.049	18.4
411.411	18.19
411.774	18.43
412.136	18.4
412.499	18.51
412.861	18.32
413.223	18.42
413.586	18.41
413.948	18.55
414.31	18.94
414.672	18.77
415.035	18.78
415.397	18.96
415.759	18.66
416.121	18.85
416.483	19.03
416.845	18.86
417.206	19.16
417.568	18.87
417.93	18.91
418.292	18.83
418.653	19.02
419.015	19.1
419.377	19.09
419.738	18.99
420.1	18.97
420.461	19.04
420.822	19.08
421.184	19.05
421.545	19.04
421.906	19.07
422.267	19.05
422.629	19.23
422.99	19.13
423.351	19.02
423.712	19.1
424.073	19.16
424.434	19.26
424.795	19.42
425.155	19.45
425.516	19.47
425.877	19.48
426.238	19.52
426.598	19.45
426.959	19.47
427.32	19.67
427.68	19.73
428.041	19.88
428.401	19.74
428.761	19.9
429.122	20.08
429.482	20.31
429.842	20.27
430.202	20.32
430.563	20.27
430.923	20.46
431.283	20.54
431.643	20.41
432.003	20.64
432.363	20.79
432.722	20.57
433.082	20.75
433.442	20.66
433.802	20.74
434.161	20.85
434.521	20.89
434.881	20.99
435.24	20.93
435.6	20.75
435.959	20.84
436.319	20.92
436.678	20.95
437.037	21.13
437.396	20.89
437.756	21.03
438.115	21.14
438.474	21.3
438.833	21.45
439.192	21.53
439.551	21.27
439.91	21.53
440.269	21.51
440.628	21.44
440.987	21.7
441.345	21.48
441.704	21.52
442.063	21.69
442.421	21.35
442.78	21.41
443.138	21.42
443.497	21.54
443.855	21.71
444.214	21.78
444.572	21.9
444.93	21.89
445.288	22.07
445.647	21.95
446.005	22.14
446.363	22.22
446.721	22.1
447.079	21.99
447.437	21.93
447.795	22
448.153	22.09
448.51	21.85
448.868	21.9
449.226	22.05
449.584	22.05
449.941	22.01
450.299	22.25
450.656	22.35
451.014	22.4
451.371	22.49
451.729	22.55
452.086	22.84
452.443	22.8
452.801	22.9
453.158	23
453.515	23.17
453.872	23.06
454.229	22.9
454.586	23.05
454.943	23.08
455.3	22.97
455.657	23.21
456.014	23.23
456.371	23.27
456.727	23.4
457.084	23.5
457.441	23.56
457.797	23.66
458.154	23.61
458.51	23.59
458.867	23.8
459.223	23.88
459.58	23.76
459.936	23.88
460.292	23.83
460.648	23.74
461.005	23.78
461.361	23.68
461.717	23.65
462.073	23.65
462.429	23.38
462.785	23.77
463.141	23.73
463.496	23.89
463.852	24.05
464.208	24.14
464.564	24.22
464.919	24.36
465.275	24.34
465.631	24.46
465.986	24.55
466.342	24.62
466.697	24.77
467.052	24.66
467.408	24.55
467.763	24.8
468.118	24.73
468.473	24.77
468.829	24.92
469.184	24.88
469.539	24.83
469.894	24.78
470.249	24.98
470.603	25.12
470.958	25.15
471.313	25.04
471.668	25.29
472.023	25.39
472.377	25.38
472.732	25.33
473.086	25.28
473.441	25.42
473.795	25.24
474.15	25.33
474.504	25.61
474.859	25.65
475.213	25.44
475.567	25.49
475.921	25.6
476.275	25.58
476.63	25.78
476.984	25.84
477.338	25.92
477.692	25.86
478.045	25.9
478.399	25.95
478.753	25.82
479.107	25.86
479.461	25.82
479.814	25.97
480.168	26
480.521	26
480.875	25.9
481.228	26.1
481.582	26.09
481.935	26.2
482.289	26.18
482.642	26.28
482.995	26.23
483.348	26.14
483.701	26.1
484.055	26.04
484.408	26.05
484.761	25.92
485.114	25.79
485.466	25.82
485.819	25.75
486.172	25.45
486.525	25.27
486.878	25.34
487.23	25.46
487.583	25.81
487.936	25.88
488.288	26.07
488.641	26.27
488.993	26.06
489.345	26.03
489.698	26.05
490.05	25.99
490.402	25.89
490.754	26.05
491.107	26.06
491.459	26.25
491.811	26.55
492.163	26.64
492.515	26.83
492.866	26.85
493.218	26.74
493.57	26.66
493.922	26.57
494.274	26.44
494.625	26.41
494.977	26.74
495.328	26.95
495.68	27.29
496.031	27.33
496.383	27.6
496.734	27.71
497.086	27.86
497.437	27.84
497.788	27.99
498.139	27.77
498.49	27.76
498.842	27.83
499.193	27.59
499.544	27.71
499.894	27.97
500.245	27.91
500.596	28.06
500.947	27.99
501.298	28.03
501.648	28.34
501.999	28.27
502.35	28.36
502.7	28.44
503.051	28.45
503.401	28.59
503.752	28.57
504.102	28.75
504.452	28.68
504.803	28.7
505.153	28.83
505.503	28.81
505.853	28.91
506.203	29.02
506.553	29.07
506.903	28.87
507.253	29.06
507.603	29
507.953	29.15
508.303	29.18
508.652	28.88
509.002	29.13
509.352	29.36
509.701	29.31
510.051	29.07
510.4	29.2
510.75	29.11
511.099	29.12
511.449	29.15
511.798	29.25
512.147	29.33
512.496	29.31
512.846	29.33
513.195	29.31
513.544	29.47
513.893	29.5
514.242	29.51
514.591	29.36
514.939	29.56
515.288	29.76
515.637	29.56
515.986	29.84
516.334	29.91
516.683	29.98
517.032	29.84
517.38	29.9
517.729	30.15
518.077	30.03
518.426	30.19
518.774	30.12
519.122	30.07
519.47	29.99
519.819	30.05
520.167	29.87
520.515	29.87
520.863	29.89
521.211	29.74
521.559	30.01
521.907	30.13
522.255	30.15
522.602	30.25
522.95	30.37
523.298	30.48
523.645	30.69
523.993	30.76
524.341	30.7
524.688	30.81
525.036	30.87
525.383	30.88
525.73	30.81
526.078	30.79
526.425	30.8
526.772	30.82
527.119	30.64
527.466	30.65
527.814	30.42
528.161	30.46
528.508	30.52
528.854	30.48
529.201	30.6
529.548	30.68
529.895	30.61
530.242	30.84
530.588	30.63
530.935	30.39
531.282	30.25
531.628	30.12
531.975	30.24
532.321	30.56
532.667	30.74
533.014	30.84
533.36	31.08
533.706	31.25
534.052	31.2
534.399	31.21
534.745	31.22
535.091	31.22
535.437	31.11
535.783	30.93
536.129	30.9
536.474	31.06
536.82	31.31
537.166	31.47
537.512	31.69
537.857	31.81
538.203	31.75
538.549	31.78
538.894	31.64
539.239	31.57
539.585	31.69
539.93	31.83
540.276	32.22
540.621	32.11
540.966	32.29
541.311	32.36
541.656	32.24
542.001	32.22
542.346	32.22
542.691	32.22
543.036	32.04
543.381	31.91
543.726	31.81
544.071	31.78
544.415	31.89
544.76	31.96
545.105	32.15
545.449	32.15
545.794	32.32
546.138	32.58
546.483	32.48
546.827	32.61
547.171	32.85
547.516	32.89
547.86	32.96
548.204	32.9
548.548	32.95
548.892	32.98
549.236	32.96
549.58	32.93
549.924	33.06
550.268	33.33
550.612	33.37
550.956	33.59
551.3	33.68
551.643	33.68
551.987	33.83
552.33	33.85
552.674	33.92
553.017	33.83
553.361	34.05
553.704	34.06
554.048	34.02
554.391	34.21
554.734	34.03
555.077	34.03
555.42	33.99
555.764	34.01
556.107	34.04
556.45	34.22
556.793	34.45
557.135	34.23
557.478	34.51
557.821	34.42
558.164	34.58
558.507	34.62
558.849	34.46
559.192	34.69
559.534	34.69
559.877	34.72
560.219	34.74
560.562	34.67
560.904	34.7
561.246	34.79
561.589	34.93
561.931	34.9
562.273	34.95
562.615	35.01
562.957	34.83
563.299	34.99
563.641	35.06
563.983	35.18
564.325	35.01
564.667	35.13
565.008	35.38
565.35	35.36
565.692	35.32
566.033	35.51
566.375	35.42
566.716	35.42
567.058	35.47
567.399	35.52
567.741	35.43
568.082	35.54
568.423	35.45
568.764	35.54
569.105	35.34
569.447	35.16
569.788	35.44
570.129	35.5
570.47	35.58
570.811	36.08
571.151	35.93
571.492	35.92
571.833	35.84
572.174	35.84
572.514	36.11
572.855	35.82
573.195	36
573.536	35.98
573.876	35.89
574.217	35.73
574.557	35.73
574.898	36.08
575.238	36.03
575.578	36.03
575.918	36.17
576.258	36.17
576.598	36.24
576.938	36.13
577.278	36.28
577.618	36.39
577.958	36.36
578.298	36.34
578.638	36.46
578.977	36.54
579.317	36.38
579.657	36.53
579.996	36.68
580.336	36.79
580.675	36.69
581.014	36.95
581.354	36.9
581.693	36.85
582.032	37.03
582.372	36.84
582.711	37.18
583.05	37.05
583.389	37.36
583.728	37.33
584.067	37.2
584.406	37.16
584.745	37.17
585.083	37.5
585.422	37.16
585.761	37.63
586.1	37.51
586.438	37.53
586.777	37.93
587.115	37.52
587.454	37.65
587.792	37.79
588.13	37.65
588.469	37.76
588.807	37.86
589.145	37.92
589.483	37.85
589.821	37.88
590.159	37.9
590.497	37.98
590.835	37.93
591.173	37.68
591.511	38.11
591.849	37.7
592.187	38.1
592.524	37.85
592.862	38.01
593.2	38.37
593.537	37.95
593.875	38.26
594.212	38.2
594.55	38.43
594.887	38.73
595.224	38.64
595.561	38.36
595.899	38.34
596.236	38.41
596.573	38.59
596.91	38.28
597.247	38.36
597.584	38.34
597.921	38.36
598.258	38.7
598.594	38.44
598.931	38.74
599.268	38.22
599.604	38.5
599.941	38.52
600.277	38.17
600.614	38.58
600.95	38.72
601.287	39.15
601.623	38.93
601.959	38.8
602.296	38.88
602.632	39
602.968	39.13
603.304	38.97
603.64	39.2
603.976	39.58
604.312	38.82
604.648	39.08
604.984	39.25
605.319	39.45
605.655	39.16
605.991	39.07
606.326	38.9
606.662	39
606.998	38.93
607.333	39.12
607.668	38.96
608.004	38.87
608.339	39.33
608.674	39.22
609.01	39.55
609.345	39.68
609.68	39.95
610.015	39.64
610.35	39.9
610.685	39.48
611.02	39.85
611.355	39.5
611.689	39.68
612.024	39.64
612.359	39.62
612.694	39.71
613.028	39.74
613.363	39.66
613.697	40.15
614.032	40
614.366	39.88
614.7	39.86
615.035	40.11
615.369	40.62
615.703	40.29
616.037	40.34
616.371	40.38
616.705	40
617.039	40.28
617.373	40.52
617.707	40.17
618.041	40.58
618.375	40.77
618.709	40.9
619.042	40.77
619.376	40.44
619.71	40.43
620.043	40.55
620.377	40.6
620.71	41.06
621.043	41.03
621.377	41.13
621.71	40.71
622.043	40.98
622.376	41.07
622.709	41.06
623.043	40.95
623.376	40.67
623.709	40.93
624.041	41.3
624.374	41.18
624.707	40.93
625.04	41.12
625.373	41.01
625.705	41.27
626.038	41.51
626.37	41.63
626.703	41.42
627.035	41.57
627.368	41.46
627.7	41.63
628.032	41.68
628.365	41.8
628.697	41.2
629.029	41.8
629.361	41.55
629.693	41.49
630.025	41.27
630.357	41.42
630.689	41.46
631.021	41.72
631.353	41.78
631.684	42.27
632.016	41.89
632.348	41.54
632.679	41.8
633.011	41.7
633.342	41.9
633.674	42.06
634.005	42.34
634.336	41.96
634.668	41.59
634.999	42.04
635.33	42.43
635.661	42.59
635.992	42.14
636.323	42.37
636.654	42.28
636.985	42.12
637.316	41.92
637.647	42.31
637.977	42.65
638.308	42.3
638.639	42.15
638.969	42.6
639.3	42.11
639.63	42.62
639.961	42.47
640.291	42.52
640.622	43.02
640.952	42.22
641.282	42.85
641.612	42.81
641.943	42.65
642.273	43.22
642.603	42.67
642.933	42.65
643.263	42.8
643.592	43.23
643.922	42.82
644.252	43.29
644.582	43.01
644.911	43.12
645.241	43.17
645.571	42.97
645.9	42.88
646.23	43.16
646.559	43.14
646.888	43.19
647.218	42.63
647.547	43
647.876	42.76
648.205	43.49
648.534	43.18
648.863	43.7
649.192	43.58
649.521	43.34
649.85	43.44
650.179	43.4
650.508	43.3
650.837	43.32
651.165	43.32
651.494	43.75
651.822	43.27
652.151	43.44
652.479	43.83
652.808	43.69
653.136	43.5
653.465	43.93
653.793	43.33
654.121	43.3
654.449	43.99
654.777	42.99
655.105	43.59
655.433	43.58
655.761	43.79
656.089	43.73
656.417	44.19
656.745	43.88
657.073	43.98
657.4	43.99
657.728	44.47
658.056	43.65
658.383	44.29
658.711	44.27
659.038	43.42
659.365	43.78
659.693	44.01
660.02	44.17
660.347	44.15
660.674	43.92
661.001	44.39
661.329	44.21
661.656	44.11
661.982	44.06
662.309	44.04
662.636	43.68
662.963	44.11
663.29	44.47
663.616	44.62
663.943	44.31
664.27	44.7
664.596	45
664.923	44.62
665.249	44.48
665.576	44.14
665.902	44.51
666.228	44.3
666.554	45.4
666.881	44.74
667.207	44.79
667.533	44.65
667.859	44.68
668.185	44.37
668.511	44.44
668.837	44.85
669.162	45.09
669.488	44.5
669.814	44.81
670.139	44.77
670.465	44.66
670.791	44.97
671.116	45.29
