Data from 1610-4_crown_Reflection__0__50.txt Node

Date: Fri Nov 11 16:32:02 CST 2022
User: ToomeyLab
Spectrometer: FLMS14357
Trigger mode: 0
Integration Time (sec): 1.000000E-2
Scans to average: 100
Electric dark correction enabled: true
Nonlinearity correction enabled: false
Boxcar width: 0
XAxis mode: Wavelengths
Number of Pixels in Spectrum: 2048
>>>>>Begin Spectral Data<<<<<
189.047	15.5
189.435	15.5
189.823	15.5
190.211	-177.49
190.599	490.27
190.987	-1441.15
191.375	524.95
191.763	-80.38
192.151	115.12
192.538	67.57
192.926	-931.12
193.314	-140.05
193.702	123.39
194.089	19264.29
194.477	353.88
194.864	405.48
195.252	58.13
195.639	-298.51
196.027	-162.05
196.414	640.75
196.801	191.63
197.189	-27.49
197.576	-357.09
197.963	55.48
198.351	13.73
198.738	-32.51
199.125	-6.69
199.512	16.63
199.899	-17.46
200.286	23.33
200.673	13.95
201.06	-17.86
201.447	-0.47
201.833	12.72
202.22	14.4
202.607	45.91
202.994	27.97
203.38	3.31
203.767	19.31
204.154	-5.86
204.54	44.05
204.927	23.31
205.313	-3.09
205.699	17.64
206.086	-4.63
206.472	4.82
206.858	1
207.245	17.57
207.631	39.07
208.017	3.24
208.403	20.76
208.789	-37.95
209.175	26.08
209.561	18.39
209.947	19.62
210.333	-3.82
210.719	23.16
211.105	30.43
211.491	-196.02
211.876	31.66
212.262	1.79
212.648	25.51
213.034	0.54
213.419	1.83
213.805	8.59
214.19	-24.31
214.576	7.07
214.961	-13.64
215.346	-49.42
215.732	-8.54
216.117	33.42
216.502	18.17
216.888	-11.08
217.273	10.68
217.658	5.26
218.043	18.6
218.428	28.77
218.813	1.77
219.198	-34.52
219.583	-6.47
219.968	13.15
220.353	-16.57
220.738	-22.57
221.122	-13.82
221.507	15.9
221.892	3.5
222.276	7.99
222.661	5.79
223.046	10.92
223.43	2.95
223.815	6.34
224.199	0.41
224.583	-0.28
224.968	10.27
225.352	-2.7
225.736	3.32
226.121	12.94
226.505	3.2
226.889	0.22
227.273	1.74
227.657	-1.86
228.041	1.88
228.425	8.48
228.809	4.85
229.193	2.97
229.577	5.57
229.961	3.55
230.344	4.6
230.728	4.31
231.112	4.49
231.495	4.73
231.879	3.37
232.263	2.53
232.646	4.19
233.03	3.06
233.413	4.24
233.797	3.64
234.18	5.24
234.563	3.45
234.946	2.97
235.33	4.43
235.713	4.65
236.096	2.78
236.479	5.07
236.862	5.42
237.245	3.69
237.628	4.42
238.011	3.4
238.394	4.64
238.777	3.89
239.16	3.33
239.543	4.05
239.925	5.58
240.308	3.65
240.691	4.07
241.073	3.96
241.456	2.45
241.838	4.86
242.221	3.72
242.603	3.58
242.986	3.9
243.368	3.04
243.75	3.6
244.133	3.68
244.515	3.57
244.897	3.5
245.279	3.66
245.661	3.8
246.043	3.87
246.425	3.83
246.807	4.03
247.189	2.99
247.571	2.68
247.953	3.77
248.335	3.67
248.717	3.57
249.098	3.72
249.48	3.79
249.862	3.61
250.243	3.58
250.625	4
251.006	4.08
251.388	4.09
251.769	3.7
252.151	3.62
252.532	4.3
252.913	3.13
253.295	3.33
253.676	3.74
254.057	3.13
254.438	3.91
254.819	3.68
255.2	4.47
255.581	4.69
255.962	3.46
256.343	3.67
256.724	3.23
257.105	3.65
257.486	4.02
257.867	2.71
258.247	4.17
258.628	2.83
259.009	2.75
259.389	3.88
259.77	4.04
260.15	3.48
260.531	3.3
260.911	3.26
261.292	3.35
261.672	3.25
262.052	3.55
262.432	3.91
262.813	3.24
263.193	3.12
263.573	3.44
263.953	3.23
264.333	4
264.713	3.37
265.093	3.43
265.473	3.95
265.853	3.14
266.233	2.81
266.612	2.81
266.992	2.87
267.372	3.7
267.752	3.64
268.131	3.27
268.511	3.44
268.89	3.92
269.27	3.08
269.649	3.11
270.029	3
270.408	3.05
270.787	3.76
271.167	3.15
271.546	3.73
271.925	3.93
272.304	3.97
272.683	3.17
273.062	3.27
273.441	3.41
273.82	3.02
274.199	3.23
274.578	3.65
274.957	2.75
275.336	3.41
275.715	3.22
276.093	3.68
276.472	3.88
276.851	3.4
277.229	2.97
277.608	3.29
277.986	3.15
278.365	4.1
278.743	3.19
279.122	3.27
279.5	3.04
279.878	2.51
280.257	3.47
280.635	3.23
281.013	3.27
281.391	3.5
281.769	3.68
282.147	3.43
282.525	2.82
282.903	3.27
283.281	3.21
283.659	3.02
284.037	3.57
284.415	2.94
284.792	3.5
285.17	3.41
285.548	3.25
285.925	3.4
286.303	3.1
286.68	3.16
287.058	3.28
287.435	3.22
287.813	3.2
288.19	3.16
288.567	3.35
288.945	3.05
289.322	2.68
289.699	3.15
290.076	2.58
290.453	3
290.83	3.38
291.207	3.27
291.584	2.99
291.961	2.63
292.338	3.39
292.715	3.02
293.092	2.75
293.469	3.41
293.845	3.25
294.222	3.42
294.599	3.53
294.975	2.78
295.352	2.76
295.728	3.08
296.105	3.08
296.481	2.87
296.858	3.1
297.234	2.83
297.61	2.82
297.986	2.91
298.363	2.82
298.739	2.91
299.115	3.05
299.491	3.06
299.867	2.97
300.243	2.96
300.619	3.17
300.995	3.27
301.371	2.54
301.746	3.01
302.122	3
302.498	2.6
302.874	2.88
303.249	2.84
303.625	2.94
304	3.03
304.376	3.32
304.751	3.61
305.127	3.14
305.502	2.9
305.878	3.59
306.253	2.96
306.628	3.08
307.003	2.96
307.378	3.4
307.754	3.17
308.129	3.23
308.504	2.96
308.879	2.9
309.254	2.2
309.629	3.04
310.003	2.66
310.378	2.55
310.753	2.78
311.128	2.91
311.502	2.66
311.877	3.07
312.252	2.62
312.626	2.67
313.001	3.25
313.375	3.14
313.75	3.26
314.124	2.99
314.498	2.88
314.873	3.14
315.247	2.79
315.621	2.85
315.995	2.19
316.369	2.98
316.743	3.26
317.117	2.74
317.491	3.43
317.865	3.18
318.239	2.89
318.613	2.81
318.987	3.05
319.361	2.77
319.734	2.37
320.108	3.28
320.482	2.97
320.855	2.39
321.229	3.05
321.602	2.97
321.976	2.97
322.349	3.2
322.723	2.43
323.096	3.17
323.469	3.13
323.843	3.44
324.216	2.9
324.589	2.87
324.962	2.73
325.335	3.15
325.708	2.94
326.081	2.78
326.454	2.73
326.827	3.39
327.2	2.55
327.573	3.32
327.945	3.14
328.318	3.24
328.691	2.85
329.063	3.15
329.436	3.13
329.809	3.05
330.181	3.14
330.553	3.27
330.926	2.79
331.298	3.19
331.671	3.36
332.043	3.6
332.415	2.98
332.787	3.1
333.159	3.15
333.532	2.81
333.904	2.82
334.276	3.02
334.648	2.73
335.02	3.61
335.391	3.13
335.763	2.94
336.135	3.21
336.507	2.93
336.879	2.79
337.25	2.72
337.622	3.13
337.993	2.91
338.365	3.31
338.736	2.77
339.108	3.09
339.479	3.56
339.851	2.56
340.222	2.98
340.593	2.71
340.964	3.07
341.336	2.97
341.707	2.79
342.078	2.83
342.449	3.13
342.82	2.86
343.191	3.28
343.562	3.28
343.933	3.04
344.303	3.43
344.674	3.33
345.045	2.86
345.416	3.09
345.786	2.97
346.157	2.96
346.527	3.12
346.898	2.71
347.268	3.53
347.639	3.36
348.009	3.17
348.38	3.17
348.75	3.35
349.12	3.32
349.49	3.07
349.861	2.83
350.231	3.09
350.601	3.73
350.971	3.26
351.341	2.85
351.711	2.96
352.081	2.55
352.45	2.77
352.82	2.95
353.19	3.3
353.56	3.01
353.929	3.29
354.299	3.31
354.669	3.15
355.038	2.97
355.408	3.07
355.777	3.33
356.147	3.39
356.516	3.26
356.885	3.03
357.254	2.96
357.624	3.38
357.993	3.14
358.362	3.16
358.731	2.95
359.1	2.86
359.469	3.08
359.838	3.19
360.207	3.12
360.576	3.44
360.945	3.36
361.314	3.36
361.682	2.83
362.051	3.22
362.42	3.02
362.788	3.04
363.157	3.06
363.525	3.35
363.894	3.01
364.262	3.08
364.631	2.98
364.999	3.23
365.367	3.36
365.735	3.23
366.104	3.12
366.472	3.32
366.84	3.44
367.208	3.16
367.576	3.25
367.944	3.42
368.312	3.03
368.68	3.27
369.048	3.3
369.416	2.87
369.783	2.99
370.151	3.12
370.519	3.57
370.886	3.38
371.254	3.27
371.621	3.38
371.989	3.2
372.356	2.99
372.724	3.44
373.091	3.14
373.458	2.98
373.826	3.31
374.193	3.18
374.56	3.29
374.927	3.1
375.294	3.17
375.661	3.62
376.028	3.29
376.395	3.49
376.762	3.26
377.129	3.41
377.496	3.31
377.863	3.34
378.229	3.31
378.596	3.19
378.963	3.17
379.329	3.25
379.696	3.2
380.062	3.22
380.429	3.08
380.795	3.23
381.161	3.4
381.528	3.3
381.894	3.35
382.26	3.36
382.626	3.31
382.993	3.45
383.359	3.15
383.725	3.32
384.091	3.17
384.457	3.35
384.823	3.32
385.188	3.3
385.554	3.6
385.92	3.19
386.286	3.23
386.651	3.1
387.017	3.18
387.383	3.34
387.748	3.08
388.114	2.98
388.479	3.41
388.845	3.29
389.21	3.44
389.575	3.3
389.94	3.55
390.306	3.22
390.671	3.12
391.036	3.5
391.401	3.24
391.766	3.41
392.131	3.14
392.496	3.45
392.861	3.16
393.226	3.4
393.591	3.24
393.956	3.58
394.32	3.34
394.685	3.44
395.05	3.61
395.414	3.62
395.779	3.43
396.143	3.41
396.508	3.33
396.872	3.47
397.236	3.49
397.601	3.36
397.965	3.36
398.329	3.43
398.694	3.34
399.058	3.24
399.422	3.38
399.786	3.38
400.15	3.38
400.514	3.38
400.878	3.46
401.242	3.44
401.605	3.45
401.969	3.62
402.333	3.46
402.697	3.24
403.06	3.38
403.424	3.21
403.787	3.43
404.151	3.27
404.514	3.41
404.878	3.39
405.241	3.43
405.604	3.24
405.968	3.5
406.331	3.43
406.694	3.52
407.057	3.55
407.42	3.48
407.783	3.3
408.146	3.46
408.509	3.4
408.872	3.56
409.235	3.55
409.598	3.29
409.961	3.4
410.323	3.45
410.686	3.51
411.049	3.56
411.411	3.39
411.774	3.24
412.136	3.39
412.499	3.52
412.861	3.45
413.223	3.47
413.586	3.29
413.948	3.41
414.31	3.62
414.672	3.6
415.035	3.7
415.397	3.59
415.759	3.56
416.121	3.63
416.483	3.53
416.845	3.67
417.206	3.44
417.568	3.52
417.93	3.37
418.292	3.23
418.653	3.43
419.015	3.46
419.377	3.38
419.738	3.42
420.1	3.48
420.461	3.35
420.822	3.32
421.184	3.24
421.545	3.32
421.906	3.45
422.267	3.45
422.629	3.41
422.99	3.39
423.351	3.36
423.712	3.41
424.073	3.39
424.434	3.36
424.795	3.55
425.155	3.42
425.516	3.41
425.877	3.45
426.238	3.41
426.598	3.42
426.959	3.37
427.32	3.47
427.68	3.43
428.041	3.52
428.401	3.4
428.761	3.5
429.122	3.55
429.482	3.65
429.842	3.6
430.202	3.58
430.563	3.52
430.923	3.59
431.283	3.66
431.643	3.55
432.003	3.6
432.363	3.75
432.722	3.54
433.082	3.5
433.442	3.46
433.802	3.58
434.161	3.5
434.521	3.42
434.881	3.4
435.24	3.59
435.6	3.39
435.959	3.44
436.319	3.53
436.678	3.48
437.037	3.51
437.396	3.37
437.756	3.49
438.115	3.51
438.474	3.44
438.833	3.48
439.192	3.58
439.551	3.53
439.91	3.42
440.269	3.48
440.628	3.49
440.987	3.68
441.345	3.44
441.704	3.43
442.063	3.61
442.421	3.4
442.78	3.4
443.138	3.5
443.497	3.51
443.855	3.53
444.214	3.43
444.572	3.59
444.93	3.59
445.288	3.7
445.647	3.52
446.005	3.48
446.363	3.47
446.721	3.49
447.079	3.49
447.437	3.4
447.795	3.38
448.153	3.45
448.51	3.44
448.868	3.5
449.226	3.52
449.584	3.54
449.941	3.51
450.299	3.45
450.656	3.54
451.014	3.61
451.371	3.45
451.729	3.65
452.086	3.43
452.443	3.69
452.801	3.53
453.158	3.56
453.515	3.5
453.872	3.49
454.229	3.47
454.586	3.47
454.943	3.58
455.3	3.46
455.657	3.55
456.014	3.42
456.371	3.43
456.727	3.65
457.084	3.58
457.441	3.64
457.797	3.59
458.154	3.45
458.51	3.47
458.867	3.48
459.223	3.62
459.58	3.71
459.936	3.62
460.292	3.5
460.648	3.49
461.005	3.51
461.361	3.49
461.717	3.39
462.073	3.44
462.429	3.52
462.785	3.52
463.141	3.54
463.496	3.59
463.852	3.58
464.208	3.66
464.564	3.58
464.919	3.54
465.275	3.51
465.631	3.54
465.986	3.5
466.342	3.74
466.697	3.65
467.052	3.63
467.408	3.65
467.763	3.64
468.118	3.62
468.473	3.6
468.829	3.63
469.184	3.72
469.539	3.64
469.894	3.65
470.249	3.62
470.603	3.48
470.958	3.65
471.313	3.55
471.668	3.68
472.023	3.69
472.377	3.67
472.732	3.67
473.086	3.69
473.441	3.58
473.795	3.82
474.15	3.65
474.504	3.68
474.859	3.59
475.213	3.73
475.567	3.76
475.921	3.66
476.275	3.71
476.63	3.65
476.984	3.63
477.338	3.6
477.692	3.62
478.045	3.49
478.399	3.4
478.753	3.56
479.107	3.58
479.461	3.57
479.814	3.64
480.168	3.59
480.521	3.58
480.875	3.64
481.228	3.66
481.582	3.59
481.935	3.63
482.289	3.66
482.642	3.6
482.995	3.63
483.348	3.48
483.701	3.63
484.055	3.6
484.408	3.51
484.761	3.36
485.114	3.3
485.466	3.2
485.819	3.29
486.172	3.37
486.525	3.47
486.878	3.52
487.23	3.49
487.583	3.52
487.936	3.55
488.288	3.45
488.641	3.45
488.993	3.38
489.345	3.33
489.698	3.37
490.05	3.39
490.402	3.44
490.754	3.57
491.107	3.52
491.459	3.61
491.811	3.57
492.163	3.6
492.515	3.49
492.866	3.46
493.218	3.35
493.57	3.34
493.922	3.5
494.274	3.56
494.625	3.53
494.977	3.51
495.328	3.58
495.68	3.6
496.031	3.66
496.383	3.64
496.734	3.65
497.086	3.65
497.437	3.58
497.788	3.71
498.139	3.53
498.49	3.59
498.842	3.62
499.193	3.59
499.544	3.67
499.894	3.6
500.245	3.64
500.596	3.62
500.947	3.62
501.298	3.71
501.648	3.75
501.999	3.72
502.35	3.69
502.7	3.84
503.051	3.61
503.401	3.58
503.752	3.59
504.102	3.62
504.452	3.6
504.803	3.62
505.153	3.69
505.503	3.64
505.853	3.66
506.203	3.76
506.553	3.74
506.903	3.67
507.253	3.62
507.603	3.73
507.953	3.73
508.303	3.68
508.652	3.56
509.002	3.62
509.352	3.62
509.701	3.57
510.051	3.68
510.4	3.58
510.75	3.68
511.099	3.63
511.449	3.61
511.798	3.62
512.147	3.69
512.496	3.65
512.846	3.69
513.195	3.55
513.544	3.62
513.893	3.65
514.242	3.68
514.591	3.54
514.939	3.59
515.288	3.71
515.637	3.7
515.986	3.79
516.334	3.66
516.683	3.75
517.032	3.59
517.38	3.67
517.729	3.77
518.077	3.65
518.426	3.75
518.774	3.61
519.122	3.61
519.47	3.53
519.819	3.58
520.167	3.57
520.515	3.53
520.863	3.63
521.211	3.58
521.559	3.56
521.907	3.63
522.255	3.71
522.602	3.66
522.95	3.63
523.298	3.62
523.645	3.63
523.993	3.71
524.341	3.67
524.688	3.62
525.036	3.77
525.383	3.68
525.73	3.6
526.078	3.61
526.425	3.5
526.772	3.56
527.119	3.54
527.466	3.5
527.814	3.5
528.161	3.53
528.508	3.54
528.854	3.55
529.201	3.56
529.548	3.57
529.895	3.42
530.242	3.35
530.588	3.37
530.935	3.39
531.282	3.57
531.628	3.56
531.975	3.54
532.321	3.55
532.667	3.63
533.014	3.65
533.36	3.52
533.706	3.59
534.052	3.55
534.399	3.48
534.745	3.49
535.091	3.43
535.437	3.43
535.783	3.51
536.129	3.59
536.474	3.61
536.82	3.66
537.166	3.66
537.512	3.62
537.857	3.61
538.203	3.5
538.549	3.52
538.894	3.57
539.239	3.66
539.585	3.7
539.93	3.68
540.276	3.74
540.621	3.69
540.966	3.62
541.311	3.63
541.656	3.49
542.001	3.63
542.346	3.57
542.691	3.44
543.036	3.43
543.381	3.38
543.726	3.46
544.071	3.49
544.415	3.54
544.76	3.55
545.105	3.63
545.449	3.58
545.794	3.54
546.138	3.61
546.483	3.62
546.827	3.61
547.171	3.54
547.516	3.44
547.86	3.55
548.204	3.52
548.548	3.58
548.892	3.53
549.236	3.58
549.58	3.62
549.924	3.61
550.268	3.82
550.612	3.55
550.956	3.71
551.3	3.79
551.643	3.84
551.987	3.61
552.33	3.63
552.674	3.56
553.017	3.55
553.361	3.66
553.704	3.74
554.048	3.56
554.391	3.62
554.734	3.58
555.077	3.71
555.42	3.61
555.764	3.7
556.107	3.76
556.45	3.57
556.793	3.63
557.135	3.65
557.478	3.62
557.821	3.83
558.164	3.71
558.507	3.64
558.849	3.63
559.192	3.75
559.534	3.73
559.877	3.73
560.219	3.64
560.562	3.65
560.904	3.58
561.246	3.65
561.589	3.78
561.931	3.59
562.273	3.76
562.615	3.68
562.957	3.63
563.299	3.66
563.641	3.7
563.983	3.67
564.325	3.61
564.667	3.67
565.008	3.64
565.35	3.7
565.692	3.56
566.033	3.75
566.375	3.8
566.716	3.7
567.058	3.57
567.399	3.58
567.741	3.74
568.082	3.61
568.423	3.6
568.764	3.63
569.105	3.66
569.447	3.59
569.788	3.66
570.129	3.65
570.47	3.59
570.811	3.65
571.151	3.65
571.492	3.67
571.833	3.79
572.174	3.62
572.514	3.65
572.855	3.49
573.195	3.55
573.536	3.59
573.876	3.62
574.217	3.51
574.557	3.45
574.898	3.57
575.238	3.58
575.578	3.52
575.918	3.5
576.258	3.64
576.598	3.66
576.938	3.62
577.278	3.6
577.618	3.56
577.958	3.54
578.298	3.65
578.638	3.42
578.977	3.65
579.317	3.59
579.657	3.69
579.996	3.6
580.336	3.71
580.675	3.66
581.014	3.67
581.354	3.59
581.693	3.48
582.032	3.67
582.372	3.76
582.711	3.71
583.05	3.61
583.389	3.61
583.728	3.49
584.067	3.79
584.406	3.49
584.745	3.71
585.083	3.44
585.422	3.51
585.761	3.73
586.1	3.66
586.438	3.72
586.777	3.71
587.115	3.6
587.454	3.8
587.792	3.78
588.13	3.63
588.469	3.65
588.807	3.66
589.145	3.56
589.483	3.59
589.821	3.63
590.159	3.73
590.497	3.77
590.835	3.3
591.173	3.65
591.511	3.81
591.849	3.57
592.187	3.66
592.524	3.56
592.862	3.73
593.2	3.8
593.537	3.41
593.875	3.67
594.212	3.61
594.55	3.61
594.887	3.65
595.224	3.28
595.561	3.6
595.899	3.46
596.236	3.69
596.573	3.52
596.91	3.61
597.247	3.4
597.584	3.46
597.921	3.44
598.258	3.42
598.594	3.49
598.931	3.61
599.268	3.49
599.604	3.76
599.941	3.64
600.277	3.5
600.614	3.68
600.95	3.37
601.287	3.61
601.623	3.64
601.959	3.3
602.296	3.83
602.632	3.47
602.968	3.48
603.304	3.81
603.64	3.59
603.976	3.7
604.312	3.45
604.648	3.25
604.984	3.66
605.319	3.51
605.655	3.29
605.991	3.52
606.326	3.48
606.662	3.27
606.998	3.49
607.333	3.45
607.668	3.53
608.004	3.57
608.339	3.73
608.674	3.51
609.01	3.4
609.345	3.38
609.68	3.77
610.015	3.54
610.35	3.62
610.685	3.52
611.02	3.65
611.355	3.48
611.689	3.52
612.024	3.63
612.359	3.4
612.694	3.58
613.028	3.49
613.363	3.72
613.697	3.64
614.032	3.71
614.366	3.24
614.7	3.6
615.035	3.55
615.369	3.79
615.703	3.86
616.037	3.71
616.371	3.34
616.705	3.58
617.039	3.51
617.373	3.58
617.707	3.51
618.041	3.4
618.375	3.95
618.709	3.46
619.042	3.64
619.376	3.32
619.71	3.63
620.043	3.73
620.377	3.57
620.71	3.49
621.043	3.79
621.377	3.54
621.71	4.01
622.043	3.47
622.376	3.62
622.709	3.66
623.043	3.39
623.376	3.6
623.709	3.42
624.041	3.58
624.374	3.56
624.707	3.73
625.04	3.6
625.373	3.41
625.705	3.4
626.038	3.3
626.37	3.61
626.703	3.63
627.035	3.28
627.368	3.48
627.7	3.24
628.032	3.38
628.365	3.7
628.697	3.73
629.029	3.58
629.361	3.42
629.693	3.45
630.025	3.45
630.357	3.21
630.689	3.69
631.021	3.39
631.353	3.35
631.684	3.47
632.016	3.16
632.348	3.58
632.679	3.76
633.011	3.36
633.342	3.13
633.674	3.52
634.005	3.47
634.336	3.38
634.668	3.47
634.999	3.3
635.33	3.46
635.661	3.62
635.992	3.61
636.323	3.46
636.654	3.75
636.985	3.7
637.316	3.54
637.647	3.55
637.977	3.42
638.308	3.49
638.639	3.53
638.969	3.81
639.3	3.4
639.63	3.54
639.961	3.52
640.291	3.49
640.622	3.52
640.952	3.32
641.282	3.75
641.612	3.61
641.943	3.59
642.273	3.55
642.603	3.16
642.933	3.42
643.263	3.44
643.592	3.75
643.922	3.63
644.252	3.47
644.582	3.52
644.911	3.6
645.241	3.97
645.571	3.63
645.9	3.59
646.23	3.79
646.559	3.66
646.888	3.62
647.218	3.34
647.547	3.56
647.876	3.21
648.205	3.9
648.534	3.38
648.863	3.37
649.192	4.03
649.521	3.61
649.85	3.52
650.179	3.78
650.508	3.42
650.837	3.86
651.165	3.82
651.494	3.34
651.822	3.32
652.151	3.27
652.479	3.76
652.808	3.55
653.136	3.3
653.465	3.77
653.793	3.91
654.121	3.58
654.449	3.8
654.777	3.87
655.105	3.65
655.433	3.15
655.761	3.5
656.089	3.39
656.417	3.48
656.745	3.6
657.073	3.88
657.4	3.39
657.728	3.41
658.056	3.29
658.383	3.65
658.711	3.45
659.038	3.4
659.365	3.23
659.693	3.28
660.02	3.91
660.347	3.71
660.674	3.18
661.001	3.61
661.329	3.41
661.656	3.39
661.982	3.6
662.309	3.59
662.636	3.61
662.963	3.6
663.29	3.48
663.616	3.53
663.943	3.54
664.27	3.98
664.596	3.57
664.923	3.88
665.249	3.42
665.576	3.61
665.902	3.63
666.228	3.66
666.554	3.55
666.881	3.5
667.207	3.2
667.533	4.12
667.859	3.43
668.185	3.55
668.511	3.29
668.837	3.8
669.162	3.56
669.488	3.48
669.814	2.84
670.139	3.33
670.465	3.56
670.791	3.21
671.116	3.45
671.442	3.77
671.767	3.71
672.092	3.62
672.418	3.3
672.743	3.65
673.068	3.4
673.393	3.57
673.718	3.44
674.043	3.59
674.368	3.73
674.693	3.56
675.018	3.69
675.343	3.66
675.667	3.49
675.992	3.31
676.317	3.64
676.641	3.9
676.966	3.45
677.29	3.25
677.615	4.03
677.939	3.75
678.264	3.22
678.588	3.8
678.912	3.89
679.236	4.01
679.56	3.95
679.885	3.92
680.209	3.68
680.532	3.32
680.856	4.31
681.18	3.5
681.504	3.98
681.828	3.07
682.152	4
682.475	3.22
682.799	3.54
683.122	3.7
683.446	3.85
683.769	3.82
684.093	3.17
684.416	3.79
684.739	3.2
685.062	3.58
685.386	3.72
685.709	3.78
686.032	3.57
686.355	3.1
686.678	3.59
687.001	4.56
687.324	3.92
687.646	3.46
687.969	3.49
688.292	3.71
688.614	4.01
688.937	3.87
689.26	3.48
689.582	3.55
689.904	3.74
690.227	3.99
690.549	3.84
690.871	3.43
691.194	3.46
691.516	4.43
691.838	3.79
692.16	3.63
692.482	3.49
