Data from 1610-4_chest_Reflection__0__45.txt Node

Date: Fri Nov 11 16:30:21 CST 2022
User: ToomeyLab
Spectrometer: FLMS14357
Trigger mode: 0
Integration Time (sec): 1.000000E-2
Scans to average: 100
Electric dark correction enabled: true
Nonlinearity correction enabled: false
Boxcar width: 0
XAxis mode: Wavelengths
Number of Pixels in Spectrum: 2048
>>>>>Begin Spectral Data<<<<<
189.047	107.25
189.435	107.25
189.823	107.25
190.211	96.97
190.599	26
190.987	-319.47
191.375	259.15
191.763	26.02
192.151	99.23
192.538	317.73
192.926	448.25
193.314	-502.09
193.702	76.65
194.089	-1585.71
194.477	870.87
194.864	62.86
195.252	121.65
195.639	119.09
196.027	175.18
196.414	220
196.801	225.93
197.189	71.92
197.576	-571.39
197.963	46.11
198.351	0.13
198.738	-37.57
199.125	-5.36
199.512	5.41
199.899	33.51
200.286	17.79
200.673	-11.8
201.06	-40.58
201.447	-1.36
201.833	28.79
202.22	19.03
202.607	9.28
202.994	29.24
203.38	8.14
203.767	-9.87
204.154	-52.89
204.54	5.56
204.927	-8.01
205.313	-15.84
205.699	11.39
206.086	38.99
206.472	3.33
206.858	-1.36
207.245	6.25
207.631	12.36
208.017	-20.96
208.403	22.37
208.789	-51.45
209.175	-13.14
209.561	11.52
209.947	-11.97
210.333	13.76
210.719	19.74
211.105	0.2
211.491	-155.46
211.876	-8.08
212.262	-11.53
212.648	-7.48
213.034	5.36
213.419	-7.26
213.805	15.4
214.19	-40.06
214.576	16.51
214.961	-22.94
215.346	-31.57
215.732	-45
216.117	19.51
216.502	-8.75
216.888	-0.34
217.273	0.15
217.658	1.64
218.043	-5.72
218.428	-13.63
218.813	13.2
219.198	-13.35
219.583	11.32
219.968	3.48
220.353	-22.74
220.738	-15.61
221.122	-43.7
221.507	-0.05
221.892	1.32
222.276	4.77
222.661	-2.77
223.046	14.79
223.43	10.44
223.815	-8.16
224.199	7.54
224.583	0.39
224.968	19.68
225.352	-2.99
225.736	5.02
226.121	1.69
226.505	8.87
226.889	3.53
227.273	2.37
227.657	0.1
228.041	0.4
228.425	1.9
228.809	8.64
229.193	3.55
229.577	5.85
229.961	5.06
230.344	5.28
230.728	4.21
231.112	5.47
231.495	4.94
231.879	4.57
232.263	3.38
232.646	3.48
233.03	4.11
233.413	4.1
233.797	4.16
234.18	3.92
234.563	4.81
234.946	0.99
235.33	4.38
235.713	3.16
236.096	3.29
236.479	5.68
236.862	3.98
237.245	4.47
237.628	4.07
238.011	3.78
238.394	5.68
238.777	3.95
239.16	3.34
239.543	3.74
239.925	5.51
240.308	2.39
240.691	3.56
241.073	2.74
241.456	2.31
241.838	5.1
242.221	3.91
242.603	4.08
242.986	4.59
243.368	4.09
243.75	4.74
244.133	4.47
244.515	4.86
244.897	3.94
245.279	4.16
245.661	4.3
246.043	5.04
246.425	4.4
246.807	4.13
247.189	4.26
247.571	3.89
247.953	4.86
248.335	4.94
248.717	4.75
249.098	4.43
249.48	4.44
249.862	4.16
250.243	4.18
250.625	4.09
251.006	4.57
251.388	4.12
251.769	4.61
252.151	4.41
252.532	4.66
252.913	3.58
253.295	4.02
253.676	4.64
254.057	4.32
254.438	4.49
254.819	4.66
255.2	4.67
255.581	5.02
255.962	3.82
256.343	4.53
256.724	4.19
257.105	4.5
257.486	4.54
257.867	3.99
258.247	5.13
258.628	4.26
259.009	4.43
259.389	4.71
259.77	4.81
260.15	4.55
260.531	4.31
260.911	4.5
261.292	4.42
261.672	4.29
262.052	4.08
262.432	4.56
262.813	4.21
263.193	4.21
263.573	4.63
263.953	4.42
264.333	4.3
264.713	3.65
265.093	4.47
265.473	4.81
265.853	3.79
266.233	4.03
266.612	4.11
266.992	4.29
267.372	3.96
267.752	4.45
268.131	4.37
268.511	4.22
268.89	4.28
269.27	4.05
269.649	4.2
270.029	3.56
270.408	3.95
270.787	4.37
271.167	4
271.546	5.02
271.925	3.74
272.304	3.91
272.683	4.48
273.062	4.48
273.441	4.06
273.82	3.84
274.199	4.18
274.578	4.15
274.957	3.56
275.336	4.15
275.715	3.82
276.093	4.6
276.472	4.28
276.851	4.35
277.229	4.08
277.608	3.92
277.986	4.2
278.365	4.43
278.743	4.09
279.122	3.72
279.5	4.02
279.878	3.78
280.257	4.48
280.635	3.62
281.013	4.14
281.391	3.96
281.769	4.39
282.147	3.93
282.525	3.76
282.903	4.34
283.281	3.69
283.659	3.89
284.037	4.02
284.415	3.82
284.792	4.17
285.17	4.04
285.548	3.98
285.925	4.11
286.303	4.06
286.68	4.02
287.058	4.2
287.435	4.3
287.813	4.3
288.19	4.08
288.567	4.09
288.945	3.67
289.322	3.88
289.699	4.13
290.076	4
290.453	4.24
290.83	4.53
291.207	4.41
291.584	4.35
291.961	4.24
292.338	4.32
292.715	4.14
293.092	3.96
293.469	4.35
293.845	4.48
294.222	4.63
294.599	4.61
294.975	3.93
295.352	4.01
295.728	4.37
296.105	4.22
296.481	4.15
296.858	4.43
297.234	4.39
297.61	4.28
297.986	4.01
298.363	4.26
298.739	4.34
299.115	4.3
299.491	4.44
299.867	3.96
300.243	4
300.619	4.47
300.995	4.56
301.371	4.07
301.746	4.27
302.122	4.38
302.498	3.89
302.874	4.1
303.249	4.43
303.625	4.4
304	4.33
304.376	4.35
304.751	4.97
305.127	4.76
305.502	4.81
305.878	4.72
306.253	4.54
306.628	4.63
307.003	4.19
307.378	4.81
307.754	4.62
308.129	4.83
308.504	4.75
308.879	4.66
309.254	3.62
309.629	4.08
310.003	4.48
310.378	4.24
310.753	4.21
311.128	4.53
311.502	4.39
311.877	4.92
312.252	4.38
312.626	4.32
313.001	4.84
313.375	4.94
313.75	4.52
314.124	4.93
314.498	5.17
314.873	4.92
315.247	4.61
315.621	4.58
315.995	4.55
316.369	4.94
316.743	4.69
317.117	5.01
317.491	5
317.865	4.85
318.239	4.93
318.613	4.94
318.987	4.84
319.361	4.81
319.734	4.48
320.108	5.04
320.482	4.35
320.855	4.72
321.229	5.05
321.602	4.78
321.976	4.3
322.349	5
322.723	4.87
323.096	5.16
323.469	4.95
323.843	5.3
324.216	4.69
324.589	4.89
324.962	4.72
325.335	5.19
325.708	4.93
326.081	4.66
326.454	4.79
326.827	5.16
327.2	4.75
327.573	4.7
327.945	5.02
328.318	5.14
328.691	5.27
329.063	5.34
329.436	5.17
329.809	4.99
330.181	5.27
330.553	5.13
330.926	4.87
331.298	4.51
331.671	5.01
332.043	5.37
332.415	4.79
332.787	5.25
333.159	5
333.532	4.78
333.904	5.02
334.276	5.07
334.648	4.52
335.02	5.19
335.391	5.1
335.763	4.91
336.135	4.59
336.507	5.16
336.879	5.2
337.25	4.47
337.622	5.49
337.993	4.97
338.365	4.98
338.736	5.37
339.108	5.19
339.479	5.06
339.851	4.74
340.222	4.87
340.593	4.99
340.964	5.17
341.336	5.14
341.707	5.07
342.078	5.05
342.449	5.34
342.82	5.23
343.191	5.43
343.562	5.76
343.933	4.69
344.303	5.31
344.674	5.18
345.045	5.18
345.416	5.37
345.786	5.21
346.157	5.06
346.527	5.18
346.898	5.11
347.268	5.07
347.639	5.45
348.009	5.22
348.38	5.24
348.75	5.55
349.12	5.36
349.49	5.53
349.861	4.83
350.231	5.12
350.601	5.69
350.971	5.51
351.341	5.19
351.711	4.85
352.081	4.72
352.45	4.79
352.82	5.48
353.19	5.32
353.56	5.43
353.929	5.46
354.299	5.33
354.669	5.3
355.038	5.29
355.408	5.26
355.777	5.35
356.147	5.33
356.516	5.46
356.885	5.25
357.254	5.07
357.624	5.5
357.993	5.26
358.362	5.32
358.731	5.21
359.1	5.18
359.469	5.43
359.838	5.42
360.207	5.53
360.576	5.36
360.945	5.6
361.314	5.59
361.682	5.34
362.051	5.03
362.42	5.04
362.788	5.4
363.157	5.39
363.525	5.51
363.894	5.44
364.262	5.18
364.631	5.27
364.999	5.4
365.367	5.6
365.735	5.46
366.104	5.26
366.472	5.4
366.84	5.64
367.208	5.31
367.576	5.7
367.944	5.6
368.312	5.4
368.68	5.55
369.048	5.54
369.416	5.54
369.783	5.13
370.151	5.37
370.519	5.5
370.886	5.32
371.254	5.26
371.621	5.59
371.989	5.33
372.356	5.27
372.724	5.83
373.091	5.44
373.458	5.47
373.826	5.58
374.193	5.45
374.56	5.44
374.927	5.74
375.294	5.6
375.661	5.83
376.028	5.55
376.395	5.85
376.762	5.38
377.129	5.67
377.496	5.76
377.863	5.51
378.229	5.57
378.596	5.65
378.963	5.5
379.329	5.45
379.696	5.66
380.062	5.72
380.429	5.44
380.795	5.42
381.161	5.83
381.528	5.82
381.894	5.79
382.26	5.56
382.626	5.84
382.993	5.76
383.359	5.7
383.725	5.9
384.091	5.49
384.457	5.83
384.823	5.49
385.188	5.75
385.554	5.6
385.92	5.59
386.286	5.53
386.651	5.69
387.017	5.55
387.383	5.53
387.748	5.67
388.114	5.6
388.479	5.7
388.845	5.72
389.21	5.81
389.575	5.74
389.94	5.71
390.306	5.66
390.671	5.59
391.036	5.99
391.401	5.59
391.766	5.76
392.131	5.66
392.496	5.84
392.861	5.7
393.226	5.81
393.591	5.73
393.956	5.84
394.32	6
394.685	5.85
395.05	6.13
395.414	5.79
395.779	5.73
396.143	5.87
396.508	5.79
396.872	5.91
397.236	5.9
397.601	5.73
397.965	5.95
398.329	5.78
398.694	5.69
399.058	5.86
399.422	5.97
399.786	5.83
400.15	5.74
400.514	5.71
400.878	6.06
401.242	5.77
401.605	5.8
401.969	5.99
402.333	5.94
402.697	5.75
403.06	6.02
403.424	5.73
403.787	5.89
404.151	5.87
404.514	5.72
404.878	6.36
405.241	5.98
405.604	5.91
405.968	6.06
406.331	5.9
406.694	6
407.057	6.05
407.42	5.88
407.783	5.88
408.146	6.03
408.509	5.96
408.872	6.16
409.235	6.06
409.598	5.87
409.961	5.91
410.323	6
410.686	6.21
411.049	6.17
411.411	6.04
411.774	5.97
412.136	6.03
412.499	6.05
412.861	6.04
413.223	6.04
413.586	6.03
413.948	5.96
414.31	6.15
414.672	6.13
415.035	6.21
415.397	6.31
415.759	6.2
416.121	6.24
416.483	6.05
416.845	6.06
417.206	6.24
417.568	6.13
417.93	6.09
418.292	5.98
418.653	6.01
419.015	5.95
419.377	6.26
419.738	6.17
420.1	6.1
420.461	5.98
420.822	6.06
421.184	5.93
421.545	5.95
421.906	6.04
422.267	6
422.629	6.04
422.99	5.99
423.351	5.92
423.712	5.97
424.073	5.93
424.434	6.02
424.795	6.19
425.155	6.05
425.516	6.11
425.877	6.11
426.238	6.02
426.598	6.03
426.959	6
427.32	6.11
427.68	6.07
428.041	6.22
428.401	6.08
428.761	6.15
429.122	6.2
429.482	6.27
429.842	6.29
430.202	6.3
430.563	6.15
430.923	6.08
431.283	6.17
431.643	6.29
432.003	6.37
432.363	6.3
432.722	6.25
433.082	6.37
433.442	6.24
433.802	6.4
434.161	6.28
434.521	6.43
434.881	6.29
435.24	6.32
435.6	6.07
435.959	6.2
436.319	6.15
436.678	6.11
437.037	6.32
437.396	6.2
437.756	6.17
438.115	6.14
438.474	6.19
438.833	6.36
439.192	6.41
439.551	6.23
439.91	6.29
440.269	6.34
440.628	6.37
440.987	6.47
441.345	6.37
441.704	6.41
442.063	6.41
442.421	6.24
442.78	6.35
443.138	6.25
443.497	6.33
443.855	6.31
444.214	6.3
444.572	6.39
444.93	6.24
445.288	6.51
445.647	6.29
446.005	6.36
446.363	6.43
446.721	6.28
447.079	6.33
447.437	6.28
447.795	6.26
448.153	6.25
448.51	6.29
448.868	6.23
449.226	6.36
449.584	6.26
449.941	6.31
450.299	6.35
450.656	6.45
451.014	6.45
451.371	6.37
451.729	6.45
452.086	6.36
452.443	6.56
452.801	6.51
453.158	6.53
453.515	6.54
453.872	6.56
454.229	6.43
454.586	6.56
454.943	6.51
455.3	6.41
455.657	6.49
456.014	6.29
456.371	6.44
456.727	6.59
457.084	6.57
457.441	6.56
457.797	6.54
458.154	6.55
458.51	6.56
458.867	6.88
459.223	6.49
459.58	6.59
459.936	6.69
460.292	6.54
460.648	6.6
461.005	6.63
461.361	6.58
461.717	6.45
462.073	6.63
462.429	6.54
462.785	6.54
463.141	6.65
463.496	6.56
463.852	6.53
464.208	6.67
464.564	6.61
464.919	6.6
465.275	6.64
465.631	6.8
465.986	6.63
466.342	6.84
466.697	6.81
467.052	6.89
467.408	6.75
467.763	6.72
468.118	6.75
468.473	6.72
468.829	6.81
469.184	6.82
469.539	6.77
469.894	6.77
470.249	6.6
470.603	6.72
470.958	6.77
471.313	6.95
471.668	6.79
472.023	7.03
472.377	6.8
472.732	6.98
473.086	6.8
473.441	6.88
473.795	6.86
474.15	6.71
474.504	6.97
474.859	6.9
475.213	6.93
475.567	6.91
475.921	7.03
476.275	6.87
476.63	6.95
476.984	6.9
477.338	6.83
477.692	6.84
478.045	6.91
478.399	6.77
478.753	7.05
479.107	6.89
479.461	6.92
479.814	7.04
480.168	7.09
480.521	6.92
480.875	6.96
481.228	6.93
481.582	6.93
481.935	6.93
482.289	7.06
482.642	6.84
482.995	7.04
483.348	6.85
483.701	6.94
484.055	6.93
484.408	6.84
484.761	6.81
485.114	6.7
485.466	6.64
485.819	6.66
486.172	6.63
486.525	6.64
486.878	6.67
487.23	6.74
487.583	6.83
487.936	6.91
488.288	6.89
488.641	6.89
488.993	6.78
489.345	6.73
489.698	6.79
490.05	6.75
490.402	6.81
490.754	6.87
491.107	6.87
491.459	6.98
491.811	6.91
492.163	7.02
492.515	6.99
492.866	6.93
493.218	6.91
493.57	6.88
493.922	6.9
494.274	6.92
494.625	6.9
494.977	6.94
495.328	7.09
495.68	7.14
496.031	7.11
496.383	7.24
496.734	7.25
497.086	7.33
497.437	7.19
497.788	7.31
498.139	7.18
498.49	7.15
498.842	7.31
499.193	7.23
499.544	7.26
499.894	7.38
500.245	7.25
500.596	7.16
500.947	7.31
501.298	7.32
501.648	7.5
501.999	7.39
502.35	7.42
502.7	7.5
503.051	7.3
503.401	7.33
503.752	7.36
504.102	7.41
504.452	7.42
504.803	7.36
505.153	7.5
505.503	7.43
505.853	7.52
506.203	7.5
506.553	7.64
506.903	7.46
507.253	7.63
507.603	7.59
507.953	7.5
508.303	7.64
508.652	7.49
509.002	7.47
509.352	7.7
509.701	7.61
510.051	7.58
510.4	7.53
510.75	7.53
511.099	7.52
511.449	7.49
511.798	7.51
512.147	7.61
512.496	7.56
512.846	7.61
513.195	7.54
513.544	7.59
513.893	7.63
514.242	7.61
514.591	7.69
514.939	7.64
515.288	7.76
515.637	7.72
515.986	7.67
516.334	7.78
516.683	7.92
517.032	7.8
517.38	7.74
517.729	7.85
518.077	7.65
518.426	7.84
518.774	7.75
519.122	7.71
519.47	7.74
519.819	7.81
520.167	7.7
520.515	7.85
520.863	7.77
521.211	7.81
521.559	7.81
521.907	7.83
522.255	7.87
522.602	7.88
522.95	7.91
523.298	7.91
523.645	8.06
523.993	7.99
524.341	7.96
524.688	7.91
525.036	8.03
525.383	7.99
525.73	8.05
526.078	7.97
526.425	8.03
526.772	8.08
527.119	7.87
527.466	8
527.814	7.88
528.161	7.95
528.508	7.91
528.854	7.96
529.201	7.95
529.548	7.96
529.895	7.9
530.242	7.92
530.588	7.85
530.935	7.8
531.282	7.88
531.628	7.87
531.975	7.94
532.321	7.93
532.667	8.09
533.014	8.1
533.36	8.11
533.706	8.2
534.052	8.18
534.399	8.2
534.745	8.14
535.091	8.09
535.437	8.11
535.783	8.07
536.129	8.15
536.474	8.17
536.82	8.31
537.166	8.3
537.512	8.43
537.857	8.41
538.203	8.38
538.549	8.41
538.894	8.45
539.239	8.3
539.585	8.42
539.93	8.55
540.276	8.46
540.621	8.5
540.966	8.64
541.311	8.64
541.656	8.51
542.001	8.64
542.346	8.64
542.691	8.44
543.036	8.48
543.381	8.45
543.726	8.41
544.071	8.47
544.415	8.49
544.76	8.57
545.105	8.67
545.449	8.66
545.794	8.63
546.138	8.81
546.483	8.79
546.827	8.84
547.171	8.84
547.516	8.72
547.86	8.83
548.204	8.88
548.548	8.82
548.892	8.88
549.236	8.96
549.58	9.03
549.924	9.05
550.268	9.17
550.612	9.02
550.956	9.15
551.3	9.13
551.643	9.18
551.987	9.08
552.33	9.16
552.674	9.15
553.017	9.32
553.361	9.27
553.704	9.28
554.048	9.22
554.391	9.27
554.734	9.23
555.077	9.24
555.42	9.36
555.764	9.41
556.107	9.4
556.45	9.36
556.793	9.43
557.135	9.49
557.478	9.51
557.821	9.55
558.164	9.61
558.507	9.45
558.849	9.55
559.192	9.7
559.534	9.64
559.877	9.65
560.219	9.77
560.562	9.74
560.904	9.69
561.246	9.58
561.589	9.78
561.931	9.66
562.273	9.78
562.615	9.8
562.957	9.81
563.299	9.9
563.641	9.73
563.983	9.83
564.325	9.83
564.667	9.89
565.008	9.9
565.35	10.06
565.692	9.93
566.033	10.11
566.375	10.13
566.716	9.98
567.058	9.95
567.399	10.04
567.741	10.23
568.082	10.11
568.423	10.27
568.764	10.36
569.105	10.2
569.447	10.21
569.788	10.25
570.129	10.16
570.47	10.2
570.811	10.43
571.151	10.34
571.492	10.37
571.833	10.41
572.174	10.43
572.514	10.5
572.855	10.46
573.195	10.55
573.536	10.53
573.876	10.44
574.217	10.44
574.557	10.38
574.898	10.48
575.238	10.49
575.578	10.48
575.918	10.49
576.258	10.71
576.598	10.82
576.938	10.63
577.278	10.69
577.618	10.68
577.958	10.78
578.298	10.81
578.638	10.85
578.977	10.85
579.317	10.83
579.657	10.93
579.996	10.78
580.336	11.01
580.675	10.88
581.014	11.09
581.354	11.06
581.693	11.09
582.032	11.47
582.372	11.11
582.711	11.44
583.05	11.12
583.389	11.28
583.728	11.37
584.067	11.33
584.406	11.19
584.745	11.3
585.083	11.36
585.422	11.5
585.761	11.61
586.1	11.36
586.438	11.37
586.777	11.4
587.115	11.55
587.454	11.84
587.792	11.54
588.13	11.85
588.469	11.83
588.807	11.93
589.145	11.85
589.483	11.75
589.821	11.68
590.159	11.82
590.497	11.97
590.835	11.78
591.173	11.87
591.511	12.06
591.849	11.78
592.187	11.95
592.524	11.94
592.862	12.28
593.2	12.13
593.537	11.83
593.875	12.21
594.212	11.96
594.55	12.19
594.887	12.44
595.224	12.14
595.561	12.1
595.899	12.12
596.236	12.08
596.573	12.17
596.91	12.23
597.247	12.07
597.584	12.36
597.921	12.49
598.258	12.59
598.594	12.37
598.931	12.46
599.268	12.35
599.604	12.59
599.941	12.41
600.277	12.42
600.614	12.76
600.95	12.66
601.287	12.84
601.623	12.78
601.959	12.68
602.296	12.72
602.632	12.76
602.968	12.92
603.304	12.9
603.64	12.65
603.976	13.08
604.312	12.89
604.648	12.78
604.984	13.06
605.319	13.07
605.655	13.01
605.991	13.03
606.326	13.09
606.662	13.02
606.998	13.21
607.333	13.24
607.668	13.21
608.004	13.19
608.339	13.33
608.674	13.2
609.01	13.25
609.345	13.22
609.68	13.57
610.015	13.35
610.35	13.5
610.685	13.41
611.02	13.53
611.355	13.43
611.689	13.55
612.024	13.66
612.359	13.44
612.694	13.77
613.028	13.52
613.363	13.76
613.697	13.76
614.032	13.81
614.366	13.52
614.7	13.73
615.035	14.03
615.369	14.09
615.703	14.01
616.037	14.07
616.371	14.09
616.705	14.2
617.039	14.17
617.373	14.32
617.707	14.44
618.041	14.22
618.375	14.66
618.709	14.18
619.042	14.31
619.376	14.08
619.71	13.96
620.043	14.35
620.377	14.42
620.71	14.55
621.043	14.55
621.377	14.22
621.71	14.6
622.043	14.32
622.376	14.55
622.709	14.65
623.043	14.39
623.376	14.75
623.709	14.78
624.041	14.85
624.374	14.83
624.707	15.21
625.04	15
625.373	14.78
625.705	15.06
626.038	15.01
626.37	14.95
626.703	14.97
627.035	14.85
627.368	15.03
627.7	15.18
628.032	14.98
628.365	15.21
628.697	15.21
629.029	15.14
629.361	15.51
629.693	14.9
630.025	14.98
630.357	14.99
630.689	15.46
631.021	15.24
631.353	15.35
631.684	15.52
632.016	15.32
632.348	15.19
632.679	15.74
633.011	15.42
633.342	15.4
633.674	15.55
634.005	15.59
634.336	15.67
634.668	15.47
634.999	15.45
635.33	15.72
635.661	16.13
635.992	15.77
636.323	15.83
636.654	16.04
636.985	15.89
637.316	16.03
637.647	15.97
637.977	16.09
638.308	15.99
638.639	15.96
638.969	16.25
639.3	16.01
639.63	16.25
639.961	16.12
640.291	16.19
640.622	16.26
640.952	16.14
641.282	16.44
641.612	16.66
641.943	16.62
642.273	16.53
642.603	16.13
642.933	16.16
643.263	16.5
643.592	16.67
643.922	16.52
644.252	16.6
644.582	16.4
644.911	16.9
645.241	17.04
645.571	16.49
645.9	16.7
646.23	17.1
646.559	16.41
646.888	16.78
647.218	16.52
647.547	17.12
647.876	16.83
648.205	17.03
648.534	16.85
648.863	16.95
649.192	17.22
649.521	16.91
649.85	16.94
650.179	17.11
650.508	17.14
650.837	16.98
651.165	17.5
651.494	17.57
651.822	17.37
652.151	17.32
652.479	17.76
652.808	17.81
653.136	17.61
653.465	17.37
653.793	17.64
654.121	17.56
654.449	17.61
654.777	17.65
655.105	17.62
655.433	17.27
655.761	17.36
656.089	17.75
656.417	17.28
656.745	17.53
657.073	17.77
657.4	17.99
657.728	17.7
658.056	17.83
658.383	17.83
658.711	18.38
659.038	17.96
659.365	17.62
659.693	17.8
660.02	18.27
660.347	18.26
660.674	17.83
661.001	18.36
661.329	18.03
661.656	18.28
661.982	18.45
662.309	18.27
662.636	18.06
662.963	17.98
663.29	18.3
663.616	18.54
663.943	18.81
664.27	18.61
664.596	18.73
664.923	18.99
665.249	18.67
665.576	18.32
665.902	18.78
666.228	19.01
666.554	18.86
666.881	18.49
667.207	18.59
667.533	19.39
667.859	18.78
668.185	19.01
668.511	18.85
668.837	19.38
669.162	18.9
669.488	19.02
669.814	18.8
670.139	19.36
670.465	19.09
670.791	19.17
671.116	19.27
671.442	18.64
671.767	19.16
672.092	18.91
672.418	19.47
672.743	18.92
673.068	19.22
673.393	19.02
673.718	19.06
674.043	19.07
674.368	19.23
674.693	19.39
675.018	19.21
675.343	19.27
675.667	19.49
675.992	19.81
676.317	18.97
676.641	20.31
676.966	19.79
677.29	19.35
677.615	20.17
677.939	20.17
678.264	19.64
678.588	20.13
678.912	20.07
679.236	20.05
679.56	19.97
679.885	20.04
680.209	20.45
680.532	19.87
680.856	20.7
681.18	20.14
681.504	20.57
681.828	19.94
682.152	20.43
682.475	20.78
682.799	20.47
683.122	20.06
683.446	20.57
683.769	20.56
684.093	20.66
684.416	20.72
