Data from 1610-4_crown_Reflection__5__55.txt Node

Date: Fri Nov 11 16:33:23 CST 2022
User: ToomeyLab
Spectrometer: FLMS14357
Trigger mode: 0
Integration Time (sec): 1.000000E-2
Scans to average: 100
Electric dark correction enabled: true
Nonlinearity correction enabled: false
Boxcar width: 0
XAxis mode: Wavelengths
Number of Pixels in Spectrum: 2048
>>>>>Begin Spectral Data<<<<<
189.047	91.96
189.435	91.96
189.823	91.96
190.211	-107.61
190.599	256.54
190.987	-1742.92
191.375	-16.67
191.763	271.38
192.151	138.78
192.538	106.16
192.926	-950
193.314	666.75
193.702	122.94
194.089	-16092.86
194.477	1616.99
194.864	-60.51
195.252	53.48
195.639	-94.91
196.027	-190.64
196.414	605.27
196.801	308.75
197.189	113.33
197.576	-964.67
197.963	50.67
198.351	-18.19
198.738	-69.84
199.125	18.93
199.512	35.34
199.899	27.71
200.286	-0.59
200.673	21.93
201.06	-4.61
201.447	3.1
201.833	-3.47
202.22	8.41
202.607	19.77
202.994	13.02
203.38	4.26
203.767	-4.28
204.154	-39.12
204.54	27.19
204.927	27.03
205.313	11.17
205.699	1.65
206.086	8.44
206.472	3.32
206.858	8.84
207.245	10.88
207.631	24.37
208.017	-24.68
208.403	11.73
208.789	-19.72
209.175	-7.32
209.561	33.48
209.947	-3.19
210.333	30.19
210.719	10.48
211.105	2.08
211.491	-155.17
211.876	-6.17
212.262	-0.33
212.648	-24.72
213.034	-6.78
213.419	43.18
213.805	9.28
214.19	-15.34
214.576	-3.44
214.961	0.07
215.346	-20.02
215.732	-29.49
216.117	4.22
216.502	6.54
216.888	4.05
217.273	-16.72
217.658	0.33
218.043	-10.76
218.428	-27.81
218.813	13.62
219.198	-14.33
219.583	14.52
219.968	8.3
220.353	-47.74
220.738	-11.2
221.122	-13.43
221.507	14.4
221.892	2.24
222.276	-1.24
222.661	9.02
223.046	6.89
223.43	1.82
223.815	0.34
224.199	10.29
224.583	13.33
224.968	13.88
225.352	2.38
225.736	9.21
226.121	9.29
226.505	0.47
226.889	9.39
227.273	3.39
227.657	-0.3
228.041	6.11
228.425	8.58
228.809	9.45
229.193	4.23
229.577	6.56
229.961	6.44
230.344	6.63
230.728	5.84
231.112	5.9
231.495	5.61
231.879	5.33
232.263	2.79
232.646	4.81
233.03	5.62
233.413	6.55
233.797	5.49
234.18	5.75
234.563	5.23
234.946	3.88
235.33	3.6
235.713	4.96
236.096	3.11
236.479	4.75
236.862	5.73
237.245	5.65
237.628	5.07
238.011	6.62
238.394	5.58
238.777	5.11
239.16	6.29
239.543	4.71
239.925	6.7
240.308	4.25
240.691	5.58
241.073	4.05
241.456	4.56
241.838	5.1
242.221	5.96
242.603	5.25
242.986	5.22
243.368	4.92
243.75	5.33
244.133	5.07
244.515	5.57
244.897	5.59
245.279	5.33
245.661	5.76
246.043	5.57
246.425	6.39
246.807	5.25
247.189	4.58
247.571	3.88
247.953	4.86
248.335	5.45
248.717	5.23
249.098	5.24
249.48	5.45
249.862	4.99
250.243	5.13
250.625	5.02
251.006	5.3
251.388	5.14
251.769	5
252.151	5.5
252.532	4.91
252.913	4.26
253.295	4.94
253.676	5.02
254.057	4.79
254.438	5.26
254.819	4.57
255.2	5.99
255.581	4.24
255.962	5.14
256.343	5.61
256.724	3.88
257.105	4.7
257.486	5.74
257.867	5.3
258.247	6.09
258.628	4.5
259.009	4.75
259.389	5.44
259.77	5.57
260.15	5.2
260.531	4.53
260.911	4.6
261.292	4.86
261.672	4.56
262.052	4.67
262.432	5.25
262.813	4.66
263.193	4.64
263.573	5.52
263.953	5.01
264.333	4.93
264.713	4.46
265.093	4.9
265.473	4.76
265.853	4.78
266.233	5.1
266.612	4.25
266.992	4.27
267.372	4.42
267.752	5.05
268.131	4.67
268.511	4.64
268.89	4.73
269.27	4.02
269.649	4.45
270.029	4.36
270.408	4.32
270.787	4.66
271.167	4.33
271.546	4.62
271.925	4.54
272.304	4.82
272.683	4.33
273.062	4.63
273.441	4.37
273.82	4.13
274.199	4.6
274.578	5.01
274.957	3.94
275.336	4.36
275.715	4.49
276.093	4.51
276.472	4.29
276.851	4.66
277.229	4.43
277.608	4.24
277.986	4.78
278.365	4.88
278.743	3.85
279.122	4.11
279.5	4.38
279.878	3.82
280.257	4.33
280.635	4.33
281.013	4.3
281.391	4.19
281.769	4.37
282.147	4.64
282.525	4.09
282.903	4.47
283.281	3.87
283.659	3.98
284.037	4.45
284.415	4.59
284.792	4.25
285.17	3.97
285.548	4.34
285.925	4.35
286.303	4.12
286.68	4.15
287.058	4.27
287.435	4.16
287.813	4.19
288.19	4.29
288.567	4.14
288.945	3.82
289.322	4
289.699	4.19
290.076	4.01
290.453	4.12
290.83	4.23
291.207	4.33
291.584	4.06
291.961	3.93
292.338	4.15
292.715	4.14
293.092	3.91
293.469	4.27
293.845	4.34
294.222	4.26
294.599	4.42
294.975	3.67
295.352	3.59
295.728	4.2
296.105	3.86
296.481	3.7
296.858	4.07
297.234	3.8
297.61	3.73
297.986	3.7
298.363	4.22
298.739	4.24
299.115	3.95
299.491	4.13
299.867	3.86
300.243	3.81
300.619	3.84
300.995	4.27
301.371	4
301.746	4.02
302.122	3.61
302.498	3.57
302.874	3.78
303.249	3.73
303.625	3.71
304	4.13
304.376	3.94
304.751	3.99
305.127	4.13
305.502	4.2
305.878	4.43
306.253	4.19
306.628	4.01
307.003	3.88
307.378	4.06
307.754	4.22
308.129	4.03
308.504	3.94
308.879	3.76
309.254	3.04
309.629	3.75
310.003	3.86
310.378	3.4
310.753	3.55
311.128	3.49
311.502	3.45
311.877	3.94
312.252	3.51
312.626	3.7
313.001	3.93
313.375	3.74
313.75	3.9
314.124	3.52
314.498	4.14
314.873	4.05
315.247	3.65
315.621	3.77
315.995	3.53
316.369	4.08
316.743	3.5
317.117	4.08
317.491	4.02
317.865	3.91
318.239	3.9
318.613	3.72
318.987	3.94
319.361	3.7
319.734	3.47
320.108	3.63
320.482	3.71
320.855	3.75
321.229	4.03
321.602	3.9
321.976	3.14
322.349	3.88
322.723	3.42
323.096	3.88
323.469	4.35
323.843	3.77
324.216	3.42
324.589	3.43
324.962	3.68
325.335	4.13
325.708	4.04
326.081	3.81
326.454	3.92
326.827	4.14
327.2	3.63
327.573	4.01
327.945	4.08
328.318	4.28
328.691	4.12
329.063	4.24
329.436	3.89
329.809	3.54
330.181	4.28
330.553	4.07
330.926	3.54
331.298	3.3
331.671	3.84
332.043	4.2
332.415	3.95
332.787	3.96
333.159	4.01
333.532	3.25
333.904	3.82
334.276	3.82
334.648	3.35
335.02	4.35
335.391	4.11
335.763	4.07
336.135	4.15
336.507	3.96
336.879	3.7
337.25	3.78
337.622	4.19
337.993	3.88
338.365	4.26
338.736	4.16
339.108	3.98
339.479	4.06
339.851	3.64
340.222	3.65
340.593	3.89
340.964	3.58
341.336	3.96
341.707	3.76
342.078	3.79
342.449	3.85
342.82	4.15
343.191	4.33
343.562	3.77
343.933	3.62
344.303	4.35
344.674	4.22
345.045	3.72
345.416	4.09
345.786	3.79
346.157	3.71
346.527	3.97
346.898	3.92
347.268	4.12
347.639	4.26
348.009	3.99
348.38	4.22
348.75	4.51
349.12	3.77
349.49	4.27
349.861	3.94
350.231	4.34
350.601	4.5
350.971	4.15
351.341	4.4
351.711	3.81
352.081	3.6
352.45	4.13
352.82	4.35
353.19	4.17
353.56	4.23
353.929	4.26
354.299	4.6
354.669	4.13
355.038	4.39
355.408	3.93
355.777	4.54
356.147	4.38
356.516	4.2
356.885	3.68
357.254	3.96
357.624	4.02
357.993	4.38
358.362	4.12
358.731	4.01
359.1	4.05
359.469	3.97
359.838	4.51
360.207	4.3
360.576	4.3
360.945	4.19
361.314	4.19
361.682	4.31
362.051	4.06
362.42	3.93
362.788	4.04
363.157	4.2
363.525	4.31
363.894	4.22
364.262	4
364.631	4.07
364.999	4.07
365.367	4.27
365.735	4.39
366.104	3.94
366.472	4.36
366.84	4.36
367.208	4.34
367.576	4.44
367.944	4.47
368.312	4.59
368.68	4.4
369.048	3.87
369.416	4.24
369.783	4.46
370.151	3.96
370.519	4.34
370.886	4.7
371.254	4.28
371.621	4.27
371.989	3.95
372.356	3.97
372.724	4.67
373.091	4.3
373.458	4
373.826	4.52
374.193	4.46
374.56	4.01
374.927	4.32
375.294	4.56
375.661	4.86
376.028	4.28
376.395	4.63
376.762	4.33
377.129	4.58
377.496	4.61
377.863	4.36
378.229	4.57
378.596	4.4
378.963	4.28
379.329	4.39
379.696	4.27
380.062	4.5
380.429	4.15
380.795	4.44
381.161	4.73
381.528	4.34
381.894	4.63
382.26	4.28
382.626	4.33
382.993	4.62
383.359	4.45
383.725	4.64
384.091	4.34
384.457	4.67
384.823	4.44
385.188	4.51
385.554	4.72
385.92	4.29
386.286	4.52
386.651	4.34
387.017	4.36
387.383	4.44
387.748	4.49
388.114	4.33
388.479	4.58
388.845	4.48
389.21	4.56
389.575	4.36
389.94	4.74
390.306	4.37
390.671	4.51
391.036	4.3
391.401	4.53
391.766	4.46
392.131	4.32
392.496	4.64
392.861	4.43
393.226	4.67
393.591	4.73
393.956	4.64
394.32	4.76
394.685	4.54
395.05	4.86
395.414	4.76
395.779	4.46
396.143	4.64
396.508	4.5
396.872	4.85
397.236	4.75
397.601	4.61
397.965	4.76
398.329	4.57
398.694	4.68
399.058	4.71
399.422	4.55
399.786	4.69
400.15	4.44
400.514	4.55
400.878	4.62
401.242	4.63
401.605	4.81
401.969	4.78
402.333	4.63
402.697	4.7
403.06	4.62
403.424	4.53
403.787	4.65
404.151	4.65
404.514	4.45
404.878	4.81
405.241	4.58
405.604	4.59
405.968	4.87
406.331	4.56
406.694	4.74
407.057	4.73
407.42	4.75
407.783	4.75
408.146	4.9
408.509	4.59
408.872	4.97
409.235	4.96
409.598	4.62
409.961	4.85
410.323	4.81
410.686	4.95
411.049	4.84
411.411	4.7
411.774	4.68
412.136	4.68
412.499	4.94
412.861	4.61
413.223	4.69
413.586	4.66
413.948	4.71
414.31	4.73
414.672	4.95
415.035	4.96
415.397	4.95
415.759	4.87
416.121	5.02
416.483	4.7
416.845	4.92
417.206	4.86
417.568	4.72
417.93	4.82
418.292	4.64
418.653	4.7
419.015	4.53
419.377	4.83
419.738	4.96
420.1	4.63
420.461	4.72
420.822	4.62
421.184	4.71
421.545	4.7
421.906	4.72
422.267	4.71
422.629	4.66
422.99	4.62
423.351	4.73
423.712	4.76
424.073	4.74
424.434	4.77
424.795	4.83
425.155	4.76
425.516	4.7
425.877	4.67
426.238	4.67
426.598	4.75
426.959	4.74
427.32	4.74
427.68	4.81
428.041	4.84
428.401	4.75
428.761	4.86
429.122	5.01
429.482	4.89
429.842	4.78
430.202	4.87
430.563	4.83
430.923	4.71
431.283	4.85
431.643	4.85
432.003	4.98
432.363	4.81
432.722	4.96
433.082	4.71
433.442	4.83
433.802	4.94
434.161	4.92
434.521	4.88
434.881	4.75
435.24	4.9
435.6	4.71
435.959	4.89
436.319	4.71
436.678	4.85
437.037	4.92
437.396	4.62
437.756	4.76
438.115	4.71
438.474	4.78
438.833	4.75
439.192	4.92
439.551	4.64
439.91	4.86
440.269	4.86
440.628	4.96
440.987	4.82
441.345	4.82
441.704	4.89
442.063	4.9
442.421	4.8
442.78	4.73
443.138	4.77
443.497	4.75
443.855	4.81
444.214	4.91
444.572	4.83
444.93	4.85
445.288	5.02
445.647	4.69
446.005	4.88
446.363	4.86
446.721	4.68
447.079	4.79
447.437	4.78
447.795	4.72
448.153	4.69
448.51	4.7
448.868	4.78
449.226	4.85
449.584	4.79
449.941	4.82
450.299	4.88
450.656	4.89
451.014	4.89
451.371	4.76
451.729	4.86
452.086	4.9
452.443	5.04
452.801	4.86
453.158	4.87
453.515	4.89
453.872	4.92
454.229	4.83
454.586	4.85
454.943	4.87
455.3	4.8
455.657	5.03
456.014	4.94
456.371	4.83
456.727	4.98
457.084	4.87
457.441	4.93
457.797	4.86
458.154	4.93
458.51	4.88
458.867	4.87
459.223	4.86
459.58	4.96
459.936	5.05
460.292	4.91
460.648	4.93
461.005	4.8
461.361	4.79
461.717	4.74
462.073	4.89
462.429	4.95
462.785	4.8
463.141	4.87
463.496	4.94
463.852	4.85
464.208	5.05
464.564	4.97
464.919	4.94
465.275	4.96
465.631	5
465.986	4.92
466.342	5.04
466.697	4.97
467.052	4.92
467.408	4.93
467.763	4.97
468.118	4.97
468.473	4.89
468.829	5.02
469.184	5.13
469.539	4.94
469.894	4.91
470.249	4.93
470.603	4.96
470.958	4.97
471.313	5
471.668	5.04
472.023	5
472.377	5.15
472.732	4.94
473.086	4.93
473.441	4.91
473.795	4.93
474.15	4.97
474.504	5.03
474.859	4.92
475.213	5.03
475.567	5.01
475.921	5.02
476.275	4.94
476.63	4.94
476.984	4.87
477.338	4.95
477.692	5.02
478.045	4.83
478.399	4.93
478.753	5.08
479.107	4.91
479.461	5.06
479.814	4.91
480.168	5.01
480.521	4.99
480.875	5.01
481.228	4.95
481.582	4.99
481.935	4.93
482.289	5.05
482.642	5.04
482.995	4.96
483.348	4.79
483.701	4.83
484.055	4.84
484.408	4.82
484.761	4.73
485.114	4.65
485.466	4.54
485.819	4.57
486.172	4.65
486.525	4.71
486.878	4.79
487.23	4.81
487.583	4.82
487.936	4.9
488.288	4.76
488.641	4.76
488.993	4.74
489.345	4.62
489.698	4.67
490.05	4.68
490.402	4.76
490.754	4.84
491.107	4.85
491.459	4.93
491.811	4.89
492.163	4.82
492.515	4.84
492.866	4.74
493.218	4.66
493.57	4.68
493.922	4.78
494.274	4.82
494.625	4.81
494.977	4.89
495.328	4.87
495.68	4.92
496.031	4.88
496.383	5.1
496.734	4.91
497.086	4.91
497.437	4.9
497.788	4.98
498.139	4.8
498.49	4.88
498.842	4.88
499.193	4.9
499.544	4.98
499.894	5.01
500.245	4.95
500.596	4.94
500.947	4.91
501.298	5.04
501.648	5.09
501.999	4.98
502.35	5
502.7	5.07
503.051	4.94
503.401	4.9
503.752	4.98
504.102	5.02
504.452	4.92
504.803	5.04
505.153	4.99
505.503	4.9
505.853	4.95
506.203	5.01
506.553	5.06
506.903	4.87
507.253	4.93
507.603	5.11
507.953	5.05
508.303	4.91
508.652	4.87
509.002	4.88
509.352	5.04
509.701	4.98
510.051	4.9
510.4	4.89
510.75	4.85
511.099	4.92
511.449	4.95
511.798	4.82
512.147	4.95
512.496	4.87
512.846	4.94
513.195	4.83
513.544	5
513.893	4.92
514.242	4.96
514.591	4.92
514.939	4.95
515.288	5.03
515.637	4.92
515.986	5.03
516.334	5.04
516.683	5.09
517.032	5.06
517.38	5.02
517.729	4.96
518.077	4.94
518.426	4.98
518.774	4.87
519.122	4.9
519.47	4.8
519.819	4.88
520.167	4.85
520.515	4.84
520.863	4.93
521.211	4.87
521.559	4.87
521.907	4.97
522.255	5.03
522.602	4.98
522.95	5
523.298	4.91
523.645	4.9
523.993	4.99
524.341	5.02
524.688	4.94
525.036	4.95
525.383	4.97
525.73	4.87
526.078	5
526.425	4.86
526.772	4.88
527.119	4.88
527.466	4.8
527.814	4.82
528.161	4.78
528.508	4.88
528.854	4.79
529.201	4.84
529.548	4.78
529.895	4.67
530.242	4.66
530.588	4.64
530.935	4.66
531.282	4.8
531.628	4.74
531.975	4.79
532.321	4.85
532.667	4.84
533.014	4.84
533.36	4.84
533.706	4.97
534.052	4.84
534.399	4.78
534.745	4.74
535.091	4.69
535.437	4.7
535.783	4.74
536.129	4.83
536.474	4.86
536.82	4.88
537.166	4.87
537.512	4.92
537.857	4.94
538.203	4.83
538.549	4.78
538.894	4.84
539.239	4.87
539.585	4.86
539.93	4.9
540.276	4.86
540.621	4.95
540.966	4.95
541.311	4.84
541.656	4.86
542.001	4.79
542.346	4.82
542.691	4.7
543.036	4.64
543.381	4.65
543.726	4.73
544.071	4.74
544.415	4.81
544.76	4.78
545.105	4.8
545.449	4.81
545.794	4.79
546.138	4.93
546.483	4.89
546.827	4.93
547.171	4.95
547.516	4.76
547.86	4.81
548.204	4.84
548.548	4.81
548.892	4.83
549.236	4.93
549.58	4.88
549.924	4.85
550.268	5.04
550.612	4.87
550.956	4.96
551.3	5.04
551.643	4.96
551.987	4.85
552.33	4.96
552.674	4.81
553.017	4.83
553.361	4.89
553.704	4.94
554.048	4.93
554.391	4.92
554.734	4.83
555.077	4.92
555.42	4.92
555.764	4.9
556.107	4.89
556.45	4.85
556.793	4.94
557.135	4.98
557.478	4.94
557.821	4.78
558.164	4.96
558.507	5.01
558.849	4.93
559.192	5.01
559.534	4.94
559.877	4.96
560.219	5.06
560.562	4.86
560.904	4.75
561.246	4.88
561.589	4.84
561.931	4.85
562.273	4.78
562.615	4.87
562.957	4.8
563.299	4.98
563.641	4.76
563.983	4.83
564.325	4.91
564.667	4.82
565.008	4.84
565.35	4.86
565.692	4.81
566.033	4.92
566.375	4.74
566.716	4.85
567.058	4.59
567.399	4.68
567.741	4.95
568.082	4.81
568.423	4.84
568.764	4.82
569.105	4.85
569.447	4.74
569.788	4.79
570.129	4.74
570.47	4.74
570.811	4.93
571.151	4.86
571.492	4.8
571.833	4.82
572.174	4.99
572.514	4.87
572.855	4.83
573.195	4.81
573.536	4.82
573.876	4.83
574.217	4.55
574.557	4.76
574.898	4.78
575.238	4.75
575.578	4.78
575.918	4.68
576.258	4.84
576.598	4.85
576.938	4.72
577.278	4.95
577.618	4.8
577.958	4.76
578.298	4.82
578.638	4.76
578.977	4.62
579.317	4.75
579.657	4.9
579.996	4.79
580.336	4.78
580.675	4.61
581.014	4.84
581.354	4.69
581.693	4.69
582.032	4.82
582.372	4.9
582.711	4.69
583.05	4.62
583.389	4.92
583.728	4.77
584.067	4.89
584.406	4.65
584.745	4.82
585.083	4.82
585.422	4.66
585.761	4.76
586.1	4.7
586.438	4.77
586.777	4.95
587.115	4.66
587.454	4.9
587.792	4.89
588.13	4.86
588.469	4.79
588.807	4.71
589.145	4.76
589.483	4.52
589.821	4.73
590.159	4.71
590.497	4.81
590.835	4.55
591.173	4.56
591.511	4.78
591.849	4.53
592.187	4.58
592.524	4.63
592.862	4.99
593.2	4.74
593.537	4.34
593.875	4.62
594.212	4.52
594.55	4.51
594.887	4.78
595.224	4.58
595.561	4.76
595.899	4.47
596.236	4.79
596.573	4.44
596.91	4.55
597.247	4.46
597.584	4.76
597.921	4.55
598.258	4.67
598.594	4.53
598.931	4.68
599.268	4.51
599.604	4.59
599.941	4.61
600.277	4.44
600.614	4.6
600.95	4.61
601.287	4.67
601.623	4.54
601.959	4.29
602.296	4.7
602.632	4.65
602.968	4.59
603.304	4.5
603.64	4.64
603.976	4.79
604.312	4.43
604.648	4.48
604.984	4.75
605.319	4.47
605.655	4.4
605.991	4.48
606.326	4.57
606.662	4.23
606.998	4.61
607.333	4.42
607.668	4.47
608.004	4.57
608.339	4.61
608.674	4.51
609.01	4.31
609.345	4.47
609.68	4.64
610.015	4.65
610.35	4.59
610.685	4.57
611.02	4.63
611.355	4.39
611.689	4.57
612.024	4.54
612.359	4.33
612.694	4.57
613.028	4.44
613.363	4.66
613.697	4.49
614.032	4.38
614.366	4.12
614.7	4.45
615.035	4.56
615.369	4.45
615.703	4.55
616.037	4.5
616.371	4.51
616.705	4.38
617.039	4.52
617.373	4.77
617.707	4.67
618.041	4.48
618.375	4.52
618.709	4.44
619.042	4.7
619.376	4.55
619.71	4.12
620.043	4.48
620.377	4.29
620.71	4.42
621.043	4.47
621.377	4.21
621.71	4.65
622.043	4.21
622.376	4.73
622.709	4.47
623.043	4.27
623.376	4.66
623.709	4.21
624.041	4.63
624.374	4.68
624.707	4.39
625.04	4.72
625.373	4.48
625.705	4.6
626.038	4.28
626.37	4.53
626.703	4.64
627.035	4.17
627.368	4.4
627.7	4.29
628.032	4.29
628.365	4.71
628.697	4.5
629.029	4.44
629.361	4.37
629.693	4.33
630.025	4.39
630.357	4.23
630.689	4.48
631.021	4.48
631.353	4.27
631.684	4.65
632.016	4.49
632.348	4.56
632.679	4.53
633.011	4.07
633.342	4.27
633.674	4.38
634.005	4.74
634.336	4.13
634.668	4.02
634.999	4.1
635.33	4.26
635.661	4.45
635.992	4.35
636.323	4.38
636.654	4.52
636.985	4.47
637.316	4.46
637.647	4.4
637.977	4.15
638.308	4.28
638.639	4.23
638.969	4.48
639.3	4.09
639.63	4.36
639.961	4.27
640.291	4.4
640.622	4.43
640.952	4.32
641.282	4.32
641.612	4.51
641.943	4.35
642.273	4.38
642.603	4.32
642.933	4.26
643.263	4.37
643.592	4.4
643.922	4.5
644.252	4.52
644.582	3.99
644.911	4.29
645.241	4.52
645.571	4.29
645.9	4.11
646.23	4.16
646.559	4.21
646.888	4.39
647.218	3.9
647.547	4.27
647.876	4.29
648.205	4.29
648.534	4.42
648.863	4.33
649.192	4.67
649.521	4.29
649.85	4.18
650.179	4.08
650.508	4.59
650.837	4.46
651.165	4.56
651.494	4.44
651.822	4.52
652.151	4.52
652.479	4.62
652.808	4.32
653.136	4.21
653.465	4.47
653.793	4.41
654.121	4.49
654.449	3.99
654.777	4.44
655.105	4.54
655.433	4.32
655.761	3.93
656.089	4.51
656.417	4.39
656.745	3.91
657.073	4.22
657.4	4.25
657.728	4.31
658.056	3.98
658.383	4.26
658.711	4.54
659.038	4.06
659.365	4.02
659.693	4.31
660.02	4.71
660.347	4.44
660.674	4.19
661.001	4.26
661.329	4.18
661.656	4.1
661.982	4.46
662.309	4.22
662.636	4.22
662.963	4.31
663.29	4.43
663.616	4.67
663.943	4.47
664.27	4.67
664.596	4.23
664.923	4.36
665.249	4.16
665.576	4.48
665.902	4.17
666.228	4.41
666.554	4.39
666.881	4.12
667.207	3.79
667.533	4.41
667.859	3.84
668.185	4.34
668.511	4.39
668.837	4.32
669.162	4.24
669.488	4.3
669.814	3.79
670.139	4.39
670.465	4.33
670.791	4.2
671.116	4.08
671.442	4.31
671.767	4.45
672.092	4.06
672.418	4.56
672.743	4.18
673.068	4.39
673.393	3.97
673.718	3.85
674.043	4.2
674.368	4.23
674.693	4.43
675.018	4.45
675.343	4.18
675.667	4.48
675.992	4.79
676.317	4.25
676.641	4.65
676.966	3.5
677.29	4.14
677.615	4.35
677.939	4.59
678.264	4.45
678.588	5.17
678.912	4.82
679.236	4.3
679.56	4.68
679.885	4.52
680.209	3.9
680.532	3.91
680.856	4.85
681.18	4
681.504	4.06
681.828	3.63
682.152	4.63
682.475	3.83
682.799	4.03
683.122	4.31
683.446	4.26
683.769	4.29
684.093	4.16
684.416	4.5
684.739	4.39
685.062	4.19
685.386	4.04
685.709	4.4
686.032	3.78
686.355	3.68
686.678	4.07
687.001	4.89
687.324	3.52
687.646	4.36
687.969	4.42
688.292	4.54
688.614	4.13
688.937	4.37
689.26	4.12
689.582	4.3
689.904	4.11
690.227	4.85
690.549	4.27
690.871	4.95
691.194	4.16
691.516	5.02
691.838	3.96
692.16	4.27
692.482	4.11
