Data from 1610-4_forehead_Reflection__5__61.txt Node

Date: Fri Nov 11 16:36:20 CST 2022
User: ToomeyLab
Spectrometer: FLMS14357
Trigger mode: 0
Integration Time (sec): 1.000000E-2
Scans to average: 100
Electric dark correction enabled: true
Nonlinearity correction enabled: false
Boxcar width: 0
XAxis mode: Wavelengths
Number of Pixels in Spectrum: 2048
>>>>>Begin Spectral Data<<<<<
189.047	81.2
189.435	81.2
189.823	81.2
190.211	-121.63
190.599	212.56
190.987	-503.98
191.375	229.96
191.763	155.49
192.151	150.04
192.538	-213.05
192.926	-625.52
193.314	42.67
193.702	248.91
194.089	-2035.71
194.477	-37.38
194.864	454.92
195.252	98.35
195.639	-314.01
196.027	-187.16
196.414	256.02
196.801	155.49
197.189	144.71
197.576	-557.82
197.963	21.67
198.351	45.61
198.738	26.61
199.125	20.58
199.512	35.62
199.899	9.62
200.286	24.75
200.673	1.59
201.06	36.49
201.447	31.13
201.833	44.6
202.22	37.02
202.607	36.65
202.994	2.96
203.38	44.22
203.767	22.26
204.154	8.3
204.54	55.59
204.927	-4.44
205.313	37.99
205.699	11.88
206.086	46.67
206.472	28.15
206.858	11.53
207.245	16.24
207.631	44.65
208.017	21.24
208.403	27.18
208.789	50.38
209.175	-6.64
209.561	28.52
209.947	7.28
210.333	34.78
210.719	14.14
211.105	19.75
211.491	-196.53
211.876	14.56
212.262	-28.51
212.648	-1.45
213.034	32.32
213.419	-3.33
213.805	30.99
214.19	4.32
214.576	31.51
214.961	3.32
215.346	-22.56
215.732	-42.62
216.117	34.24
216.502	5
216.888	1.56
217.273	5.72
217.658	3.2
218.043	-6.4
218.428	-15.04
218.813	17
219.198	-15.99
219.583	17.31
219.968	22.15
220.353	-16.01
220.738	14.67
221.122	-4.43
221.507	13.52
221.892	15.74
222.276	11.11
222.661	10
223.046	14.9
223.43	9.76
223.815	5.14
224.199	7.69
224.583	3.51
224.968	15.54
225.352	-3.23
225.736	13.23
226.121	7.75
226.505	6.85
226.889	6.87
227.273	6.81
227.657	-1.08
228.041	3.24
228.425	6.79
228.809	9.43
229.193	2.57
229.577	3.89
229.961	4.12
230.344	3.77
230.728	3.87
231.112	3.66
231.495	3.47
231.879	2.56
232.263	4.07
232.646	2.98
233.03	3.54
233.413	3.27
233.797	4.32
234.18	4.89
234.563	5.44
234.946	1.71
235.33	4.19
235.713	3.22
236.096	3.67
236.479	3
236.862	4.94
237.245	3.2
237.628	2.94
238.011	3.25
238.394	4.25
238.777	3.78
239.16	3.5
239.543	3.15
239.925	5.3
240.308	2.56
240.691	3.38
241.073	3.88
241.456	2.7
241.838	5.33
242.221	3.24
242.603	3.19
242.986	3.85
243.368	3.61
243.75	3.51
244.133	3.29
244.515	3.67
244.897	3.6
245.279	3.32
245.661	3.06
246.043	3.36
246.425	3.64
246.807	4.16
247.189	3.29
247.571	2.88
247.953	3.29
248.335	3.7
248.717	3.49
249.098	3.5
249.48	3.46
249.862	3.32
250.243	3.67
250.625	3.41
251.006	4.2
251.388	3.61
251.769	3.67
252.151	3.83
252.532	4.21
252.913	2.9
253.295	3.43
253.676	3.64
254.057	3.5
254.438	3.44
254.819	3.03
255.2	4.21
255.581	3.35
255.962	3.97
256.343	4.75
256.724	3.76
257.105	4.16
257.486	3.82
257.867	3.48
258.247	3.24
258.628	3.57
259.009	3.82
259.389	3.77
259.77	4.11
260.15	3.78
260.531	3.28
260.911	3.42
261.292	3.63
261.672	3.27
262.052	3.45
262.432	3.7
262.813	3.56
263.193	3.44
263.573	3.9
263.953	3.97
264.333	4.09
264.713	3.42
265.093	3.58
265.473	4.2
265.853	2.99
266.233	3.41
266.612	3.67
266.992	3.3
267.372	2.95
267.752	3.66
268.131	3.68
268.511	3.69
268.89	3.97
269.27	3.26
269.649	2.92
270.029	3.46
270.408	3.46
270.787	3.72
271.167	3.25
271.546	3.57
271.925	3.45
272.304	3.87
272.683	3.38
273.062	3.53
273.441	3.39
273.82	3.37
274.199	3.9
274.578	3.66
274.957	3.14
275.336	3.57
275.715	3.27
276.093	3.67
276.472	3.47
276.851	3.25
277.229	3.13
277.608	3.63
277.986	3.33
278.365	3.91
278.743	3.21
279.122	3.33
279.5	3.61
279.878	3.02
280.257	3.87
280.635	3.23
281.013	3.84
281.391	3.45
281.769	4.26
282.147	3.59
282.525	3.32
282.903	3.72
283.281	3.32
283.659	3.11
284.037	3.25
284.415	3.23
284.792	3.82
285.17	3.61
285.548	4.09
285.925	3.65
286.303	3.19
286.68	3.32
287.058	3.48
287.435	3.84
287.813	3.44
288.19	3.66
288.567	3.76
288.945	3.21
289.322	3.79
289.699	4.04
290.076	3.45
290.453	3.6
290.83	3.88
291.207	3.79
291.584	3.56
291.961	3.51
292.338	3.64
292.715	3.93
293.092	3.66
293.469	3.84
293.845	4.56
294.222	4.23
294.599	4.15
294.975	3.82
295.352	3.55
295.728	4.33
296.105	3.81
296.481	3.83
296.858	4.32
297.234	4.27
297.61	3.82
297.986	3.81
298.363	4.02
298.739	4.23
299.115	3.87
299.491	4.26
299.867	3.97
300.243	4.12
300.619	4.38
300.995	4.11
301.371	4.17
301.746	4.17
302.122	4.68
302.498	3.95
302.874	4.5
303.249	4.2
303.625	4.47
304	4.27
304.376	4.61
304.751	4.91
305.127	5.29
305.502	4.86
305.878	5.13
306.253	4.62
306.628	4.63
307.003	5
307.378	5.03
307.754	5.25
308.129	5
308.504	5.1
308.879	4.63
309.254	4.59
309.629	5.12
310.003	5.41
310.378	4.4
310.753	4.86
311.128	5.15
311.502	4.94
311.877	5.33
312.252	4.93
312.626	5.02
313.001	5.13
313.375	5.48
313.75	5.4
314.124	5.59
314.498	5.59
314.873	5.43
315.247	5.7
315.621	5.35
315.995	5.47
316.369	5.87
316.743	5.5
317.117	5.51
317.491	5.85
317.865	5.96
318.239	5.83
318.613	6.03
318.987	6.03
319.361	5.83
319.734	5.74
320.108	6.05
320.482	5.73
320.855	5.91
321.229	6.15
321.602	6.26
321.976	5.82
322.349	6.01
322.723	6.33
323.096	6.3
323.469	6.47
323.843	6.67
324.216	6.46
324.589	6.79
324.962	6.68
325.335	6.59
325.708	6.85
326.081	6.52
326.454	6.44
326.827	6.43
327.2	6.08
327.573	7.3
327.945	6.86
328.318	6.8
328.691	6.79
329.063	7.05
329.436	6.31
329.809	6.5
330.181	6.95
330.553	7.03
330.926	6.96
331.298	7.22
331.671	7.31
332.043	7.26
332.415	7.4
332.787	7.01
333.159	7.29
333.532	7.04
333.904	7.45
334.276	6.83
334.648	6.92
335.02	7.44
335.391	7.63
335.763	7.65
336.135	7.37
336.507	7.43
336.879	7.01
337.25	6.89
337.622	7.41
337.993	7.31
338.365	7.8
338.736	7.5
339.108	7.25
339.479	7.45
339.851	7.19
340.222	7.54
340.593	7.49
340.964	7.6
341.336	7.7
341.707	7.58
342.078	7.72
342.449	7.94
342.82	7.92
343.191	8.05
343.562	7.81
343.933	7.88
344.303	8.4
344.674	7.98
345.045	7.78
345.416	7.65
345.786	7.92
346.157	7.91
346.527	8.06
346.898	8.17
347.268	8.31
347.639	8.13
348.009	8.11
348.38	8.23
348.75	8.34
349.12	8.21
349.49	8.1
349.861	8.07
350.231	8.37
350.601	8.53
350.971	8.58
351.341	8.03
351.711	7.91
352.081	7.75
352.45	8.25
352.82	8.43
353.19	8.2
353.56	8.57
353.929	8.65
354.299	8.54
354.669	8.88
355.038	8.82
355.408	8.15
355.777	8.81
356.147	8.77
356.516	8.81
356.885	8.94
357.254	8.73
357.624	8.75
357.993	9.11
358.362	8.8
358.731	8.66
359.1	8.72
359.469	8.87
359.838	8.98
360.207	8.91
360.576	9.26
360.945	9.19
361.314	9.05
361.682	9.1
362.051	8.93
362.42	9.15
362.788	9.02
363.157	8.87
363.525	9.29
363.894	8.92
364.262	9.16
364.631	9.08
364.999	9.16
365.367	9.43
365.735	9.58
366.104	9.29
366.472	9.3
366.84	9.52
367.208	9.43
367.576	9.67
367.944	9.7
368.312	9.65
368.68	9.79
369.048	9.42
369.416	9.6
369.783	9.45
370.151	9.48
370.519	10.15
370.886	9.58
371.254	9.92
371.621	9.98
371.989	9.73
372.356	9.66
372.724	10.17
373.091	9.82
373.458	9.92
373.826	10.02
374.193	9.84
374.56	10.12
374.927	9.89
375.294	10.38
375.661	10.57
376.028	10.36
376.395	10.31
376.762	10.11
377.129	10.27
377.496	10.45
377.863	10.18
378.229	10.5
378.596	10.25
378.963	10.29
379.329	10.43
379.696	10.63
380.062	10.65
380.429	10.52
380.795	10.5
381.161	10.9
381.528	10.49
381.894	10.57
382.26	10.53
382.626	10.61
382.993	10.85
383.359	10.69
383.725	11.1
384.091	10.56
384.457	10.74
384.823	10.88
385.188	10.73
385.554	10.84
385.92	10.65
386.286	10.85
386.651	10.77
387.017	10.82
387.383	11.28
387.748	10.93
388.114	11.04
388.479	11.2
388.845	11.04
389.21	11.12
389.575	11.39
389.94	11.14
390.306	11.1
390.671	11.29
391.036	11.32
391.401	11.31
391.766	11.31
392.131	11.12
392.496	11.43
392.861	11.28
393.226	11.27
393.591	11.59
393.956	11.58
394.32	11.56
394.685	11.77
395.05	11.9
395.414	11.46
395.779	11.48
396.143	11.77
396.508	11.6
396.872	11.7
397.236	11.64
397.601	11.65
397.965	11.82
398.329	11.8
398.694	11.78
399.058	11.75
399.422	12.04
399.786	11.98
400.15	11.89
400.514	12.19
400.878	12.16
401.242	12.04
401.605	12.06
401.969	12.32
402.333	12.21
402.697	12.09
403.06	12.05
403.424	12.24
403.787	12.3
404.151	12.42
404.514	12.27
404.878	12.57
405.241	12.27
405.604	12.33
405.968	12.37
406.331	12.28
406.694	12.44
407.057	12.56
407.42	12.55
407.783	12.47
408.146	12.68
408.509	12.81
408.872	12.74
409.235	12.72
409.598	12.53
409.961	12.51
410.323	12.86
410.686	12.9
411.049	12.92
411.411	12.68
411.774	12.81
412.136	12.84
412.499	12.99
412.861	12.89
413.223	12.87
413.586	12.98
413.948	13.19
414.31	13.22
414.672	13.06
415.035	13.17
415.397	13.05
415.759	13.23
416.121	13.33
416.483	13.06
416.845	13.31
417.206	13.41
417.568	13.14
417.93	13.29
418.292	13.1
418.653	13.24
419.015	13.16
419.377	13.34
419.738	13.38
420.1	13.11
420.461	13.45
420.822	13.22
421.184	13.17
421.545	13.18
421.906	13.17
422.267	13.27
422.629	13.24
422.99	13.33
423.351	13.29
423.712	13.36
424.073	13.28
424.434	13.32
424.795	13.54
425.155	13.53
425.516	13.53
425.877	13.66
426.238	13.61
426.598	13.54
426.959	13.66
427.32	13.78
427.68	13.74
428.041	13.89
428.401	13.86
428.761	13.97
429.122	14.17
429.482	14.11
429.842	14.03
430.202	14.13
430.563	14.16
430.923	14.17
431.283	14.31
431.643	14.4
432.003	14.5
432.363	14.59
432.722	14.38
433.082	14.5
433.442	14.57
433.802	14.51
434.161	14.39
434.521	14.61
434.881	14.57
435.24	14.62
435.6	14.55
435.959	14.53
436.319	14.65
436.678	14.56
437.037	14.81
437.396	14.63
437.756	14.71
438.115	14.58
438.474	14.83
438.833	14.95
439.192	14.96
439.551	14.74
439.91	14.98
440.269	14.96
440.628	14.78
440.987	15.09
441.345	15.04
441.704	15.05
442.063	15.07
442.421	14.79
442.78	14.87
443.138	14.85
443.497	15.02
443.855	15.08
444.214	15.23
444.572	15.3
444.93	15.36
445.288	15.52
445.647	15.25
446.005	15.46
446.363	15.48
446.721	15.36
447.079	15.41
447.437	15.29
447.795	15.27
448.153	15.35
448.51	15.3
448.868	15.34
449.226	15.43
449.584	15.48
449.941	15.43
450.299	15.61
450.656	15.71
451.014	15.89
451.371	15.73
451.729	15.98
452.086	15.88
452.443	16.06
452.801	16.12
453.158	15.92
453.515	16.03
453.872	16.05
454.229	16.05
454.586	15.96
454.943	16.19
455.3	16.27
455.657	16.16
456.014	16.34
456.371	16.3
456.727	16.28
457.084	16.21
457.441	16.41
457.797	16.38
458.154	16.43
458.51	16.44
458.867	16.54
459.223	16.54
459.58	16.51
459.936	16.56
460.292	16.5
460.648	16.56
461.005	16.42
461.361	16.43
461.717	16.26
462.073	16.41
462.429	16.5
462.785	16.6
463.141	16.75
463.496	16.69
463.852	16.71
464.208	16.85
464.564	16.91
464.919	16.97
465.275	16.94
465.631	17.22
465.986	17.2
466.342	17.2
466.697	17.21
467.052	17.09
467.408	17.31
467.763	17.34
468.118	17.3
468.473	17.25
468.829	17.38
469.184	17.63
469.539	17.47
469.894	17.55
470.249	17.35
470.603	17.64
470.958	17.64
471.313	17.72
471.668	17.69
472.023	17.79
472.377	17.63
472.732	17.86
473.086	17.84
473.441	17.69
473.795	17.72
474.15	17.85
474.504	18.03
474.859	17.92
475.213	17.97
475.567	18.2
475.921	18.09
476.275	18.02
476.63	18.15
476.984	18.29
477.338	18.17
477.692	18.3
478.045	18.06
478.399	18.06
478.753	18.07
479.107	18.22
479.461	18.23
479.814	18.35
480.168	18.31
480.521	18.31
480.875	18.33
481.228	18.34
481.582	18.39
481.935	18.37
482.289	18.4
482.642	18.54
482.995	18.36
483.348	18.29
483.701	18.37
484.055	18.28
484.408	18.18
484.761	18.04
485.114	17.85
485.466	17.85
485.819	17.84
486.172	17.8
486.525	17.8
486.878	17.98
487.23	18.08
487.583	18.27
487.936	18.33
488.288	18.32
488.641	18.35
488.993	18.18
489.345	18.14
489.698	18.26
490.05	18.21
490.402	18.3
490.754	18.52
491.107	18.51
491.459	18.77
491.811	18.76
492.163	19.03
492.515	18.93
492.866	18.79
493.218	18.58
493.57	18.61
493.922	18.65
494.274	18.74
494.625	18.83
494.977	19.09
495.328	19.2
495.68	19.37
496.031	19.48
496.383	19.53
496.734	19.67
497.086	19.58
497.437	19.79
497.788	19.71
498.139	19.65
498.49	19.64
498.842	19.71
499.193	19.73
499.544	19.7
499.894	19.91
500.245	19.85
500.596	19.84
500.947	19.83
501.298	19.96
501.648	20.16
501.999	20.13
502.35	20.08
502.7	20.25
503.051	20.18
503.401	20.47
503.752	20.49
504.102	20.53
504.452	20.52
504.803	20.53
505.153	20.54
505.503	20.56
505.853	20.7
506.203	20.68
506.553	20.74
506.903	20.55
507.253	20.96
507.603	20.76
507.953	21.06
508.303	20.91
508.652	20.77
509.002	20.74
509.352	20.98
509.701	20.83
510.051	20.88
510.4	20.84
510.75	20.79
511.099	20.86
511.449	20.84
511.798	20.92
512.147	20.96
512.496	20.96
512.846	21.06
513.195	20.9
513.544	21.05
513.893	21.18
514.242	21.22
514.591	21.11
514.939	21.26
515.288	21.24
515.637	21.1
515.986	21.46
516.334	21.57
516.683	21.67
517.032	21.62
517.38	21.64
517.729	21.59
518.077	21.63
518.426	21.63
518.774	21.58
519.122	21.54
519.47	21.47
519.819	21.6
520.167	21.43
520.515	21.38
520.863	21.55
521.211	21.55
521.559	21.56
521.907	21.69
522.255	21.74
522.602	21.92
522.95	21.96
523.298	22.03
523.645	22.25
523.993	22.26
524.341	22.08
524.688	22.1
525.036	22.3
525.383	22.31
525.73	22.37
526.078	22.39
526.425	22.17
526.772	22.22
527.119	22.2
527.466	22.08
527.814	22.09
528.161	22.04
528.508	22.14
528.854	22.26
529.201	22.29
529.548	22.05
529.895	22.03
530.242	21.98
530.588	21.97
530.935	21.88
531.282	22
531.628	21.98
531.975	22.04
532.321	22.14
532.667	22.37
533.014	22.52
533.36	22.57
533.706	22.79
534.052	22.66
534.399	22.65
534.745	22.53
535.091	22.49
535.437	22.49
535.783	22.53
536.129	22.64
536.474	22.83
536.82	22.94
537.166	22.94
537.512	23.23
537.857	23.27
538.203	23.14
538.549	23.19
538.894	23.13
539.239	23.1
539.585	23.24
539.93	23.45
540.276	23.53
540.621	23.63
540.966	23.57
541.311	23.63
541.656	23.7
542.001	23.61
542.346	23.52
542.691	23.46
543.036	23.27
543.381	23.24
543.726	23.17
544.071	23.16
544.415	23.35
544.76	23.47
545.105	23.6
545.449	23.65
545.794	23.75
546.138	23.99
546.483	24.02
546.827	23.99
547.171	24.13
547.516	24.08
547.86	24.3
548.204	24.23
548.548	24.15
548.892	24.17
549.236	24.29
549.58	24.51
549.924	24.71
550.268	24.78
550.612	24.81
550.956	24.87
551.3	24.99
551.643	24.98
551.987	24.9
552.33	24.98
552.674	25.17
553.017	25.19
553.361	25.25
553.704	25.36
554.048	25.13
554.391	25.27
554.734	25.11
555.077	25.35
555.42	25.27
555.764	25.37
556.107	25.43
556.45	25.65
556.793	25.48
557.135	25.64
557.478	25.75
557.821	25.8
558.164	25.76
558.507	25.87
558.849	25.74
559.192	25.72
559.534	26.11
559.877	26.07
560.219	25.88
560.562	25.92
560.904	25.91
561.246	26.26
561.589	26.29
561.931	26.24
562.273	26.19
562.615	25.9
562.957	26.17
563.299	26.27
563.641	26.21
563.983	26.13
564.325	26.36
564.667	26.48
565.008	26.46
565.35	26.31
565.692	26.54
566.033	26.64
566.375	26.51
566.716	26.7
567.058	26.56
567.399	26.56
567.741	26.47
568.082	26.49
568.423	26.67
568.764	26.49
569.105	26.63
569.447	26.54
569.788	26.72
570.129	26.8
570.47	26.84
570.811	27.1
571.151	26.98
571.492	27.12
571.833	27.19
572.174	27.26
572.514	27.09
572.855	27.17
573.195	27.21
573.536	27.19
573.876	27.12
574.217	27
574.557	26.96
574.898	27.14
575.238	27.37
575.578	27.11
575.918	27.27
576.258	27.33
576.598	27.37
576.938	27.41
577.278	27.46
577.618	27.48
577.958	27.62
578.298	27.74
578.638	27.64
578.977	27.65
579.317	27.82
579.657	28.02
579.996	28.14
580.336	28.09
580.675	28.08
581.014	28.13
581.354	28.19
581.693	28.18
582.032	28.22
582.372	28.31
582.711	28.19
583.05	28.29
583.389	28.3
583.728	28.46
584.067	28.34
584.406	28.44
584.745	28.51
585.083	28.51
585.422	28.59
585.761	28.61
586.1	28.64
586.438	28.72
586.777	28.83
587.115	29.04
587.454	29
587.792	28.83
588.13	28.97
588.469	28.7
588.807	29.35
589.145	28.99
589.483	28.93
589.821	29.13
590.159	29.33
590.497	29.22
590.835	28.96
591.173	28.92
591.511	29.14
591.849	28.79
592.187	29.32
592.524	29.02
592.862	29.38
593.2	29.37
593.537	28.9
593.875	29.28
594.212	29.22
594.55	29.55
594.887	29.65
595.224	29.92
595.561	29.73
595.899	29.4
596.236	29.61
596.573	29.34
596.91	29.5
597.247	29.83
597.584	29.49
597.921	29.67
598.258	29.48
598.594	29.71
598.931	29.77
599.268	29.65
599.604	29.81
599.941	29.77
600.277	29.59
600.614	29.99
600.95	29.7
601.287	30.19
601.623	30.36
601.959	29.99
602.296	30.08
602.632	30.3
602.968	30.32
603.304	30.22
603.64	30.42
603.976	30.54
604.312	30.2
604.648	30.45
604.984	30.49
605.319	30.51
605.655	30.34
605.991	30.25
606.326	30.35
606.662	30.26
606.998	30.36
607.333	30.34
607.668	30.45
608.004	30.3
608.339	30.74
608.674	30.68
609.01	30.61
609.345	30.56
609.68	31
610.015	30.89
610.35	30.93
610.685	30.93
611.02	30.8
611.355	30.69
611.689	30.88
612.024	30.77
612.359	30.85
612.694	30.94
613.028	31.09
613.363	31.05
613.697	31.13
614.032	31.4
614.366	31.13
614.7	31.26
615.035	31.5
615.369	31.5
615.703	31.41
616.037	31.74
616.371	31.61
616.705	31.6
617.039	31.6
617.373	31.46
617.707	32.03
618.041	31.44
618.375	32.22
618.709	31.96
619.042	31.85
619.376	31.5
619.71	31.58
620.043	31.91
620.377	31.83
620.71	31.99
621.043	32.33
621.377	31.93
621.71	32.22
622.043	31.89
622.376	32.03
622.709	32.23
623.043	32.26
623.376	32.04
623.709	32.35
624.041	32.14
624.374	32.73
624.707	32.34
625.04	32.57
625.373	32.7
625.705	32.5
626.038	32.84
626.37	32.74
626.703	32.36
627.035	32.55
627.368	32.57
627.7	32.43
628.032	32.28
628.365	32.95
628.697	32.5
629.029	32.69
629.361	33
629.693	32.85
630.025	32.83
630.357	32.57
630.689	33.01
631.021	33.07
631.353	32.91
631.684	33.27
632.016	32.93
632.348	32.99
632.679	33.04
633.011	33.05
633.342	33.18
633.674	33.03
634.005	33.18
634.336	32.92
634.668	33.36
634.999	33.02
635.33	33.19
635.661	33.34
635.992	33.62
636.323	33.62
636.654	33.8
636.985	33.26
637.316	33.69
637.647	33.73
637.977	33.69
638.308	33.51
638.639	33.34
638.969	33.93
639.3	33.62
639.63	34.07
639.961	33.84
640.291	33.84
640.622	33.78
640.952	33.62
641.282	34.05
641.612	34.01
641.943	34.02
642.273	33.99
642.603	33.82
642.933	34.14
643.263	33.99
643.592	33.91
643.922	34.34
644.252	34.23
644.582	34.24
644.911	34.45
645.241	34.28
645.571	34.31
645.9	34.28
646.23	34.57
646.559	33.94
646.888	34.65
647.218	34.14
647.547	34.7
647.876	34.23
648.205	34.67
648.534	34.64
648.863	34.81
649.192	34.68
649.521	34.79
649.85	34.48
650.179	34.77
650.508	34.86
650.837	35.27
651.165	34.77
651.494	35.2
651.822	34.53
652.151	35.12
652.479	35.24
652.808	35.16
653.136	34.78
653.465	35.12
653.793	35.12
654.121	34.79
654.449	34.8
654.777	35.14
655.105	35.26
655.433	34.88
655.761	35.41
656.089	35.31
656.417	34.73
656.745	34.92
657.073	35.11
657.4	35.7
657.728	35.56
658.056	35.49
658.383	35.59
658.711	35.37
659.038	35.55
659.365	35.16
659.693	35.44
660.02	35.79
660.347	35.9
660.674	35.52
661.001	35.69
661.329	35.11
661.656	35.6
661.982	35.72
662.309	35.97
662.636	35.54
662.963	35.91
663.29	35.97
663.616	35.62
663.943	35.87
664.27	35.84
664.596	35.83
664.923	35.97
665.249	36.22
665.576	36.07
665.902	35.72
666.228	35.84
666.554	36.56
666.881	36.29
667.207	35.89
667.533	36.33
667.859	35.7
668.185	36.35
668.511	36.17
668.837	36.49
669.162	36.46
669.488	36.9
669.814	36.52
670.139	36.45
670.465	35.81
670.791	35.75
671.116	36.75
671.442	36.39
671.767	37.07
672.092	36.28
672.418	37.2
