Data from 1610-4_crown_Reflection__2__52.txt Node

Date: Fri Nov 11 16:32:50 CST 2022
User: ToomeyLab
Spectrometer: FLMS14357
Trigger mode: 0
Integration Time (sec): 1.000000E-2
Scans to average: 100
Electric dark correction enabled: true
Nonlinearity correction enabled: false
Boxcar width: 0
XAxis mode: Wavelengths
Number of Pixels in Spectrum: 2048
>>>>>Begin Spectral Data<<<<<
189.047	27.78
189.435	27.78
189.823	27.78
190.211	-71.87
190.599	265.97
190.987	-830.09
191.375	119.08
191.763	45.29
192.151	112.84
192.538	67.98
192.926	398.6
193.314	-24.08
193.702	66.43
194.089	-19057.14
194.477	2487.38
194.864	197.32
195.252	62.48
195.639	60.41
196.027	-356.75
196.414	589.68
196.801	-247
197.189	237.98
197.576	-642.05
197.963	-56.18
198.351	-25.71
198.738	-70.81
199.125	14.72
199.512	42.58
199.899	-8.58
200.286	36.61
200.673	9.27
201.06	13.44
201.447	5.7
201.833	11.94
202.22	32.33
202.607	23
202.994	13.83
203.38	9.86
203.767	18.22
204.154	-1.48
204.54	31.94
204.927	19.44
205.313	8.22
205.699	25.44
206.086	13.98
206.472	15.45
206.858	7.19
207.245	-2.2
207.631	1.8
208.017	10.5
208.403	27.82
208.789	20.67
209.175	28.92
209.561	2.17
209.947	-4.26
210.333	5.67
210.719	42.36
211.105	-6.97
211.491	-44.58
211.876	12.93
212.262	-33.46
212.648	2.94
213.034	0.17
213.419	10.26
213.805	8.81
214.19	-30.91
214.576	34.73
214.961	-11.03
215.346	-13.78
215.732	-8.02
216.117	24.11
216.502	-12.65
216.888	6.45
217.273	-6.82
217.658	-13.16
218.043	10.81
218.428	-2.56
218.813	12.51
219.198	-29.72
219.583	18.66
219.968	12.56
220.353	-24.32
220.738	14.9
221.122	-1.08
221.507	9.17
221.892	19.47
222.276	18.54
222.661	9.34
223.046	5.38
223.43	6.64
223.815	-4.91
224.199	6.27
224.583	0.06
224.968	7.41
225.352	5.9
225.736	5.42
226.121	4.86
226.505	8.01
226.889	6.34
227.273	8.35
227.657	0.72
228.041	2.79
228.425	6.36
228.809	10.16
229.193	5.08
229.577	7.79
229.961	6.42
230.344	6.95
230.728	6.53
231.112	6.6
231.495	6.24
231.879	5.13
232.263	5.13
232.646	5.9
233.03	6.16
233.413	6.35
233.797	5.35
234.18	7.04
234.563	7.54
234.946	6.41
235.33	5.52
235.713	5.19
236.096	4.36
236.479	6.65
236.862	6.38
237.245	6.53
237.628	6.12
238.011	5.7
238.394	7.33
238.777	5.54
239.16	7.23
239.543	4.94
239.925	6.4
240.308	5.53
240.691	6
241.073	3.63
241.456	5.21
241.838	5.64
242.221	6.11
242.603	5.28
242.986	5.83
243.368	5.56
243.75	5.47
244.133	5.7
244.515	5.75
244.897	5.71
245.279	5.31
245.661	5.73
246.043	4.96
246.425	5.75
246.807	5.75
247.189	5.32
247.571	4.81
247.953	5.64
248.335	5.71
248.717	5.6
249.098	5.52
249.48	5.7
249.862	5.33
250.243	5.65
250.625	5.56
251.006	6.15
251.388	6.14
251.769	6.01
252.151	5.04
252.532	5.55
252.913	4.96
253.295	5.19
253.676	5.21
254.057	5.35
254.438	5.34
254.819	5.12
255.2	5.79
255.581	5.61
255.962	5.3
256.343	5.47
256.724	5.71
257.105	5.51
257.486	5.68
257.867	4.63
258.247	5.41
258.628	5.49
259.009	5.65
259.389	5.31
259.77	6.13
260.15	5.09
260.531	4.59
260.911	4.92
261.292	5.04
261.672	4.97
262.052	5.13
262.432	5.57
262.813	5.32
263.193	5.09
263.573	5.02
263.953	5.2
264.333	4.96
264.713	4.61
265.093	5.94
265.473	5.92
265.853	4.56
266.233	5.08
266.612	3.77
266.992	4.73
267.372	4.99
267.752	5.15
268.131	4.85
268.511	5.12
268.89	5.42
269.27	4.92
269.649	4.66
270.029	4.5
270.408	4.9
270.787	5.53
271.167	4.7
271.546	5.03
271.925	5.01
272.304	5.5
272.683	5.14
273.062	4.81
273.441	4.67
273.82	4.54
274.199	4.88
274.578	4.88
274.957	4.43
275.336	4.68
275.715	4.63
276.093	5.21
276.472	4.83
276.851	4.49
277.229	4.54
277.608	4.8
277.986	4.69
278.365	4.98
278.743	4.56
279.122	4.74
279.5	4.5
279.878	4.58
280.257	4.66
280.635	4.64
281.013	4.37
281.391	4.39
281.769	4.79
282.147	4.4
282.525	4.09
282.903	5.13
283.281	4.59
283.659	4.26
284.037	4.57
284.415	4.25
284.792	4.59
285.17	4.54
285.548	4.43
285.925	4.57
286.303	4.38
286.68	4.62
287.058	4.81
287.435	4.51
287.813	4.57
288.19	4.58
288.567	4.46
288.945	4.11
289.322	4.47
289.699	4.9
290.076	4.02
290.453	4
290.83	4.55
291.207	4.53
291.584	4.4
291.961	4.36
292.338	4.71
292.715	4.15
293.092	4.51
293.469	4.56
293.845	4.71
294.222	4.7
294.599	4.4
294.975	4.36
295.352	4.13
295.728	4.13
296.105	4.27
296.481	4.21
296.858	4.39
297.234	4.03
297.61	3.78
297.986	3.98
298.363	4.52
298.739	4.3
299.115	4.24
299.491	4.52
299.867	4.29
300.243	3.89
300.619	4.24
300.995	4.23
301.371	3.99
301.746	4.14
302.122	4.19
302.498	3.96
302.874	4.08
303.249	4.32
303.625	3.94
304	4.07
304.376	4.18
304.751	4.55
305.127	4.56
305.502	4.58
305.878	4.61
306.253	4.45
306.628	4.66
307.003	4.02
307.378	4.15
307.754	4.58
308.129	4.32
308.504	4.57
308.879	3.97
309.254	4.04
309.629	4.46
310.003	4.27
310.378	3.68
310.753	3.98
311.128	4.14
311.502	3.77
311.877	4.35
312.252	4.18
312.626	3.9
313.001	4.1
313.375	4.41
313.75	4.38
314.124	4.41
314.498	4.32
314.873	3.98
315.247	4.25
315.621	3.78
315.995	4.04
316.369	4.11
316.743	4.2
317.117	4.39
317.491	4.33
317.865	3.75
318.239	4.33
318.613	4.3
318.987	4.79
319.361	4.19
319.734	3.72
320.108	4.18
320.482	4.11
320.855	4.22
321.229	4.62
321.602	4.31
321.976	3.62
322.349	4.35
322.723	4.4
323.096	4.36
323.469	4.28
323.843	4.94
324.216	4.07
324.589	4.25
324.962	4.12
325.335	4.27
325.708	4.11
326.081	4.34
326.454	4.1
326.827	4.65
327.2	4.12
327.573	4.54
327.945	4.09
328.318	4.41
328.691	4.62
329.063	4.34
329.436	4.02
329.809	3.92
330.181	4.11
330.553	4.36
330.926	3.71
331.298	3.64
331.671	4.23
332.043	4.68
332.415	4.15
332.787	4.47
333.159	4.7
333.532	3.8
333.904	4.62
334.276	4.39
334.648	4.19
335.02	4.52
335.391	4.37
335.763	4.13
336.135	4.33
336.507	4.27
336.879	4.09
337.25	3.97
337.622	4.43
337.993	4.25
338.365	4.33
338.736	4.39
339.108	4.47
339.479	4.51
339.851	3.97
340.222	4.4
340.593	3.59
340.964	4.14
341.336	4.28
341.707	4.37
342.078	4.17
342.449	4.38
342.82	3.95
343.191	4.73
343.562	4.39
343.933	4.03
344.303	4.89
344.674	4.34
345.045	4.15
345.416	4.22
345.786	4.3
346.157	4.04
346.527	4.39
346.898	4.06
347.268	4.37
347.639	4.7
348.009	4.44
348.38	4.44
348.75	4.67
349.12	4.33
349.49	4.05
349.861	4.11
350.231	4.29
350.601	4.8
350.971	4.63
351.341	3.97
351.711	4.23
352.081	3.52
352.45	4.23
352.82	4.57
353.19	4.37
353.56	4.25
353.929	4.73
354.299	4.43
354.669	4.41
355.038	4.33
355.408	4.14
355.777	4.4
356.147	4.47
356.516	4.35
356.885	4.09
357.254	4.14
357.624	4.49
357.993	4.65
358.362	4.32
358.731	4.2
359.1	4.27
359.469	4.48
359.838	4.69
360.207	4.7
360.576	4.6
360.945	4.6
361.314	4.53
361.682	4.44
362.051	4.51
362.42	4.37
362.788	4.23
363.157	4.59
363.525	4.76
363.894	4.45
364.262	4.36
364.631	4.36
364.999	4.48
365.367	4.85
365.735	4.67
366.104	4.47
366.472	4.59
366.84	4.47
367.208	4.61
367.576	4.56
367.944	4.78
368.312	4.56
368.68	4.63
369.048	4.58
369.416	4.57
369.783	4.48
370.151	4.69
370.519	4.9
370.886	4.83
371.254	4.7
371.621	4.52
371.989	4.44
372.356	4.45
372.724	4.62
373.091	4.7
373.458	4.38
373.826	4.75
374.193	4.64
374.56	4.58
374.927	4.51
375.294	4.61
375.661	5.2
376.028	4.52
376.395	4.69
376.762	4.61
377.129	4.65
377.496	4.49
377.863	4.46
378.229	4.7
378.596	4.53
378.963	4.48
379.329	4.62
379.696	4.58
380.062	4.48
380.429	4.46
380.795	4.96
381.161	4.98
381.528	4.93
381.894	4.53
382.26	4.65
382.626	4.85
382.993	4.81
383.359	4.84
383.725	4.77
384.091	4.54
384.457	4.65
384.823	4.75
385.188	4.75
385.554	5.05
385.92	4.51
386.286	4.89
386.651	4.61
387.017	4.61
387.383	4.7
387.748	4.76
388.114	4.76
388.479	4.83
388.845	4.86
389.21	4.59
389.575	4.92
389.94	4.84
390.306	4.79
390.671	4.59
391.036	4.75
391.401	4.75
391.766	4.95
392.131	4.6
392.496	5.01
392.861	4.73
393.226	4.71
393.591	4.78
393.956	4.95
394.32	4.75
394.685	4.9
395.05	5.09
395.414	5.08
395.779	4.78
396.143	4.86
396.508	4.69
396.872	4.9
397.236	4.91
397.601	4.78
397.965	4.76
398.329	4.81
398.694	4.91
399.058	4.85
399.422	5.18
399.786	4.93
400.15	4.88
400.514	4.71
400.878	4.7
401.242	5.07
401.605	4.97
401.969	4.86
402.333	4.83
402.697	4.77
403.06	4.9
403.424	4.59
403.787	5.03
404.151	4.85
404.514	4.87
404.878	5.06
405.241	4.75
405.604	4.89
405.968	4.96
406.331	4.76
406.694	4.94
407.057	5.02
407.42	4.99
407.783	4.9
408.146	4.92
408.509	4.84
408.872	5.14
409.235	5.07
409.598	4.92
409.961	5.13
410.323	4.84
410.686	5.3
411.049	5.15
411.411	4.91
411.774	4.89
412.136	4.88
412.499	5.11
412.861	4.78
413.223	4.95
413.586	4.77
413.948	4.97
414.31	5.01
414.672	4.96
415.035	5.03
415.397	5.08
415.759	5.06
416.121	5.1
416.483	5.09
416.845	5.12
417.206	5.03
417.568	4.87
417.93	4.93
418.292	4.96
418.653	5
419.015	4.83
419.377	5.05
419.738	5.03
420.1	4.88
420.461	4.89
420.822	4.96
421.184	4.91
421.545	4.95
421.906	4.97
422.267	5.01
422.629	4.9
422.99	4.89
423.351	4.9
423.712	4.97
424.073	4.89
424.434	4.88
424.795	5
425.155	4.98
425.516	5
425.877	4.93
426.238	4.89
426.598	4.96
426.959	4.96
427.32	4.95
427.68	4.99
428.041	5.12
428.401	4.92
428.761	5.03
429.122	5.15
429.482	4.97
429.842	5.15
430.202	5.08
430.563	4.98
430.923	5.1
431.283	5.07
431.643	5.11
432.003	5.27
432.363	5.17
432.722	5.04
433.082	5.05
433.442	5.06
433.802	5.16
434.161	5.1
434.521	5.19
434.881	4.87
435.24	5.09
435.6	4.99
435.959	5.06
436.319	5
436.678	5.04
437.037	5.17
437.396	5.01
437.756	5.05
438.115	4.86
438.474	5
438.833	5.08
439.192	5.02
439.551	5.1
439.91	5.15
440.269	4.96
440.628	5.05
440.987	5.13
441.345	5.1
441.704	4.99
442.063	5.13
442.421	4.95
442.78	5.08
443.138	5.14
443.497	5.05
443.855	5.01
444.214	5.08
444.572	5.23
444.93	5.2
445.288	5.15
445.647	4.92
446.005	5.07
446.363	5.06
446.721	5.04
447.079	5.01
447.437	5.01
447.795	4.96
448.153	5.08
448.51	5.09
448.868	5.02
449.226	5.03
449.584	5.07
449.941	5.03
450.299	5.09
450.656	5.19
451.014	5.32
451.371	5.11
451.729	5.17
452.086	5.22
452.443	5.23
452.801	5.21
453.158	5.26
453.515	5.07
453.872	5.18
454.229	5.09
454.586	5.08
454.943	5.16
455.3	5.18
455.657	5.34
456.014	5.16
456.371	5.06
456.727	5.23
457.084	5.11
457.441	5.25
457.797	5.24
458.154	5.19
458.51	5.09
458.867	5.19
459.223	5.08
459.58	5.35
459.936	5.42
460.292	5.23
460.648	5.14
461.005	5.21
461.361	5.15
461.717	5.11
462.073	5.22
462.429	5.21
462.785	5.14
463.141	5.13
463.496	5.19
463.852	5.18
464.208	5.21
464.564	5.21
464.919	5.18
465.275	5.15
465.631	5.39
465.986	5.16
466.342	5.37
466.697	5.23
467.052	5.3
467.408	5.21
467.763	5.08
468.118	5.25
468.473	5.21
468.829	5.33
469.184	5.23
469.539	5.37
469.894	5.23
470.249	5.32
470.603	5.08
470.958	5.36
471.313	5.31
471.668	5.37
472.023	5.56
472.377	5.4
472.732	5.28
473.086	5.24
473.441	5.22
473.795	5.33
474.15	5.2
474.504	5.45
474.859	5.34
475.213	5.21
475.567	5.42
475.921	5.43
476.275	5.29
476.63	5.29
476.984	5.43
477.338	5.19
477.692	5.34
478.045	5.24
478.399	5.21
478.753	5.36
479.107	5.34
479.461	5.21
479.814	5.13
480.168	5.38
480.521	5.27
480.875	5.25
481.228	5.41
481.582	5.23
481.935	5.24
482.289	5.33
482.642	5.29
482.995	5.23
483.348	5.18
483.701	5.32
484.055	5.17
484.408	5.19
484.761	5.05
485.114	4.93
485.466	4.86
485.819	4.88
486.172	4.95
486.525	5.05
486.878	5.06
487.23	5.12
487.583	5.17
487.936	5.16
488.288	5.09
488.641	5.04
488.993	4.99
489.345	4.97
489.698	4.99
490.05	4.99
490.402	5.05
490.754	5.18
491.107	5.15
491.459	5.21
491.811	5.22
492.163	5.19
492.515	5.14
492.866	5.07
493.218	4.96
493.57	5
493.922	5.06
494.274	5.15
494.625	5.16
494.977	5.22
495.328	5.24
495.68	5.28
496.031	5.19
496.383	5.26
496.734	5.28
497.086	5.27
497.437	5.2
497.788	5.3
498.139	5.22
498.49	5.16
498.842	5.24
499.193	5.27
499.544	5.21
499.894	5.31
500.245	5.37
500.596	5.28
500.947	5.27
501.298	5.37
501.648	5.33
501.999	5.27
502.35	5.3
502.7	5.33
503.051	5.21
503.401	5.18
503.752	5.21
504.102	5.22
504.452	5.35
504.803	5.33
505.153	5.34
505.503	5.29
505.853	5.29
506.203	5.25
506.553	5.33
506.903	5.3
507.253	5.24
507.603	5.29
507.953	5.31
508.303	5.37
508.652	5.11
509.002	5.19
509.352	5.33
509.701	5.27
510.051	5.2
510.4	5.12
510.75	5.25
511.099	5.14
511.449	5.2
511.798	5.17
512.147	5.27
512.496	5.27
512.846	5.21
513.195	5.19
513.544	5.22
513.893	5.23
514.242	5.29
514.591	5.25
514.939	5.21
515.288	5.28
515.637	5.21
515.986	5.24
516.334	5.28
516.683	5.29
517.032	5.21
517.38	5.25
517.729	5.33
518.077	5.24
518.426	5.29
518.774	5.11
519.122	5.1
519.47	5.07
519.819	5.15
520.167	5.13
520.515	5.13
520.863	5.23
521.211	5.22
521.559	5.17
521.907	5.28
522.255	5.24
522.602	5.22
522.95	5.19
523.298	5.31
523.645	5.27
523.993	5.24
524.341	5.31
524.688	5.23
525.036	5.33
525.383	5.18
525.73	5.29
526.078	5.2
526.425	5.08
526.772	5.19
527.119	5.09
527.466	5.08
527.814	5.06
528.161	5.07
528.508	5.1
528.854	5.09
529.201	5.11
529.548	5.03
529.895	4.9
530.242	4.89
530.588	4.88
530.935	4.9
531.282	5
531.628	4.98
531.975	5.02
532.321	5.02
532.667	5.1
533.014	5.11
533.36	5.1
533.706	5.05
534.052	5.01
534.399	4.97
534.745	4.97
535.091	4.93
535.437	4.98
535.783	5
536.129	5.05
536.474	5.08
536.82	5.07
537.166	5.11
537.512	5.23
537.857	5.1
538.203	4.99
538.549	4.97
538.894	5.01
539.239	5.07
539.585	5.17
539.93	5.14
540.276	5.15
540.621	5.14
540.966	5.06
541.311	5.14
541.656	5.03
542.001	5.13
542.346	5.01
542.691	4.87
543.036	4.86
543.381	4.87
543.726	4.89
544.071	4.92
544.415	4.99
544.76	4.93
545.105	5.03
545.449	4.92
545.794	5.03
546.138	5.09
546.483	5
546.827	5.08
547.171	5.05
547.516	4.88
547.86	5
548.204	4.97
548.548	4.97
548.892	5.05
549.236	5.12
549.58	5.11
549.924	5.04
550.268	5.26
550.612	5.14
550.956	5.1
551.3	5.15
551.643	5.19
551.987	5.13
552.33	4.93
552.674	5.07
553.017	5.03
553.361	5.11
553.704	5.07
554.048	5.07
554.391	5
554.734	4.94
555.077	5.1
555.42	5.03
555.764	5.19
556.107	5.07
556.45	4.97
556.793	5.02
557.135	5.09
557.478	4.96
557.821	5.12
558.164	5.03
558.507	5.23
558.849	5.02
559.192	5.17
559.534	4.91
559.877	5.06
560.219	5.09
560.562	5.09
560.904	4.92
561.246	4.91
561.589	5.11
561.931	5.22
562.273	5.12
562.615	5.02
562.957	5.03
563.299	5.12
563.641	5.05
563.983	4.91
564.325	4.94
564.667	4.95
565.008	4.88
565.35	5.09
565.692	4.82
566.033	5.17
566.375	5
566.716	5.04
567.058	4.85
567.399	4.97
567.741	5.05
568.082	4.96
568.423	5.05
568.764	4.99
569.105	5.09
569.447	4.95
569.788	4.99
570.129	5
570.47	4.8
570.811	5.06
571.151	5.08
571.492	5.03
571.833	5.02
572.174	5.16
572.514	5.07
572.855	4.98
573.195	4.94
573.536	4.9
573.876	4.99
574.217	4.79
574.557	4.81
574.898	4.92
575.238	4.81
575.578	4.85
575.918	4.91
576.258	5.05
576.598	5.11
576.938	4.84
577.278	5.1
577.618	5.09
577.958	4.93
578.298	4.95
578.638	4.97
578.977	4.75
579.317	4.93
579.657	5.01
579.996	4.89
580.336	4.9
580.675	4.87
581.014	5.02
581.354	4.82
581.693	4.62
582.032	4.92
582.372	5
582.711	4.94
583.05	4.81
583.389	4.92
583.728	4.85
584.067	4.73
584.406	4.77
584.745	4.87
585.083	4.98
585.422	4.86
585.761	5
586.1	4.61
586.438	4.95
586.777	5
587.115	4.9
587.454	5.09
587.792	5.08
588.13	4.99
588.469	4.87
588.807	4.99
589.145	4.86
589.483	4.66
589.821	4.77
590.159	4.9
590.497	4.78
590.835	4.67
591.173	4.81
591.511	5.1
591.849	4.74
592.187	4.86
592.524	4.88
592.862	5.01
593.2	5.18
593.537	4.65
593.875	4.86
594.212	4.9
594.55	4.92
594.887	4.74
595.224	4.72
595.561	4.79
595.899	4.84
596.236	4.79
596.573	4.75
596.91	4.96
597.247	4.61
597.584	4.89
597.921	4.78
598.258	4.7
598.594	4.64
598.931	4.75
599.268	4.62
599.604	4.89
599.941	4.69
600.277	4.72
600.614	4.8
600.95	4.93
601.287	4.97
601.623	4.82
601.959	4.5
602.296	4.83
602.632	4.82
602.968	4.83
603.304	4.76
603.64	4.86
603.976	4.83
604.312	4.75
604.648	4.39
604.984	4.99
605.319	4.79
605.655	4.53
605.991	4.58
606.326	4.63
606.662	4.54
606.998	4.67
607.333	4.78
607.668	4.83
608.004	4.81
608.339	4.73
608.674	4.72
609.01	4.53
609.345	4.68
609.68	4.8
610.015	4.67
610.35	4.75
610.685	4.63
611.02	4.81
611.355	4.48
611.689	4.7
612.024	4.79
612.359	4.55
612.694	4.65
613.028	4.73
613.363	4.88
613.697	4.62
614.032	4.8
614.366	4.48
614.7	4.66
615.035	4.88
615.369	4.71
615.703	4.93
616.037	4.78
616.371	4.9
616.705	4.65
617.039	4.67
617.373	4.94
617.707	4.74
618.041	4.62
618.375	4.95
618.709	4.66
619.042	4.97
619.376	4.74
619.71	4.75
620.043	4.79
620.377	4.68
620.71	4.61
621.043	4.89
621.377	4.59
621.71	4.8
622.043	4.56
622.376	4.65
622.709	4.81
623.043	4.71
623.376	4.63
623.709	4.82
624.041	4.87
624.374	4.81
624.707	4.72
625.04	4.86
625.373	4.81
625.705	4.78
626.038	4.49
626.37	4.57
626.703	4.87
627.035	4.51
627.368	4.27
627.7	4.6
628.032	4.63
628.365	5.11
628.697	4.7
629.029	4.67
629.361	4.54
629.693	4.46
630.025	4.71
630.357	4.37
630.689	4.79
631.021	4.73
631.353	4.5
631.684	4.96
632.016	4.38
632.348	4.73
632.679	4.47
633.011	4.45
633.342	4.41
633.674	4.68
634.005	4.64
634.336	4.31
634.668	4.43
634.999	4.58
635.33	4.55
635.661	4.74
635.992	4.63
636.323	4.59
636.654	4.74
636.985	4.64
637.316	4.47
637.647	4.71
637.977	4.55
638.308	4.35
638.639	4.63
638.969	4.73
639.3	4.47
639.63	4.89
639.961	4.65
640.291	4.68
640.622	4.76
640.952	4.74
641.282	4.26
641.612	4.81
641.943	4.57
642.273	4.95
642.603	4.24
642.933	4.28
643.263	4.16
643.592	4.75
643.922	4.27
644.252	4.58
644.582	4.56
644.911	4.73
645.241	4.61
645.571	4.55
645.9	4.58
646.23	4.6
646.559	4.36
646.888	4.67
647.218	4.39
647.547	5.08
647.876	4.29
648.205	4.47
648.534	4.65
648.863	4.4
649.192	4.89
649.521	4.62
649.85	4.46
650.179	4.57
650.508	4.76
650.837	4.83
651.165	4.6
651.494	4.71
651.822	4.67
652.151	4.56
652.479	4.78
652.808	4.6
653.136	4.65
653.465	4.7
653.793	4.7
654.121	4.73
654.449	4.36
654.777	4.9
655.105	4.89
655.433	3.97
655.761	4.3
656.089	4.5
656.417	4.84
656.745	4.35
657.073	4.25
657.4	4.3
657.728	4.74
658.056	4.25
658.383	4.61
658.711	4.87
659.038	4.72
659.365	4.16
659.693	4.53
660.02	5.25
660.347	4.92
660.674	4.25
661.001	4.25
661.329	4.63
661.656	4.45
661.982	4.83
662.309	4.45
662.636	4.88
662.963	4.59
663.29	4.74
663.616	4.5
663.943	4.46
664.27	4.56
664.596	5.35
664.923	4.75
665.249	4.86
665.576	4.61
665.902	4.49
666.228	4.56
666.554	4.51
666.881	4.39
667.207	4.66
667.533	4.93
667.859	4.28
668.185	4.2
668.511	4.61
668.837	4.66
669.162	4.34
669.488	4.41
669.814	4.93
670.139	4.66
670.465	4.22
670.791	4.27
671.116	4.5
671.442	4.83
671.767	4.88
672.092	4.23
672.418	4.38
672.743	4.23
673.068	4.6
673.393	4.01
673.718	4.29
674.043	4.83
674.368	4.45
674.693	4.91
675.018	4.36
675.343	4.38
675.667	3.98
675.992	4.86
676.317	4.92
676.641	4.64
676.966	4.23
677.29	4.05
677.615	4.93
677.939	4.59
678.264	4.5
678.588	5.01
678.912	5.14
679.236	4.84
679.56	5.03
679.885	4.94
680.209	4.56
680.532	4.28
680.856	4.76
681.18	4.8
681.504	4.72
681.828	4.35
682.152	4.82
682.475	4.45
682.799	4.31
683.122	4.78
683.446	4.59
683.769	4.97
684.093	4.23
684.416	4.47
684.739	4.69
685.062	4.46
685.386	4.73
685.709	4.93
686.032	4.93
686.355	4.24
686.678	4.86
687.001	5.03
687.324	4.71
687.646	4.5
687.969	4.31
688.292	5.18
688.614	4.93
688.937	4.23
689.26	4.72
689.582	4.96
689.904	4.03
690.227	4.8
690.549	4.96
690.871	4.8
691.194	4.56
691.516	4.86
691.838	4.34
692.16	4.48
692.482	4.36
692.804	4.43
693.126	4.43
