Data from 1610-4_crown_Reflection__3__53.txt Node

Date: Fri Nov 11 16:33:00 CST 2022
User: ToomeyLab
Spectrometer: FLMS14357
Trigger mode: 0
Integration Time (sec): 1.000000E-2
Scans to average: 100
Electric dark correction enabled: true
Nonlinearity correction enabled: false
Boxcar width: 0
XAxis mode: Wavelengths
Number of Pixels in Spectrum: 2048
>>>>>Begin Spectral Data<<<<<
189.047	20.24
189.435	20.24
189.823	20.24
190.211	16.02
190.599	368.35
190.987	-1969.03
191.375	-104.62
191.763	116.03
192.151	161.66
192.538	-10.67
192.926	509.79
193.314	84.29
193.702	19.46
194.089	4357.14
194.477	-503.88
194.864	-60.63
195.252	111.33
195.639	-123.79
196.027	-207.98
196.414	718.92
196.801	222.86
197.189	106.03
197.576	-35.45
197.963	125.46
198.351	34.81
198.738	-50.25
199.125	4.44
199.512	24.49
199.899	-0.5
200.286	10.37
200.673	19.83
201.06	2.68
201.447	-4.05
201.833	21.89
202.22	0.3
202.607	37.06
202.994	19.59
203.38	22.31
203.767	-11.66
204.154	-26.3
204.54	26.38
204.927	12.83
205.313	-4.09
205.699	8.05
206.086	24.3
206.472	-28.57
206.858	16.06
207.245	10.98
207.631	0.72
208.017	-26.43
208.403	27.55
208.789	-49.93
209.175	4.7
209.561	15.56
209.947	8.98
210.333	21.84
210.719	25.9
211.105	-15.89
211.491	-96.87
211.876	11.88
212.262	-38.59
212.648	0.75
213.034	-20.11
213.419	-1.08
213.805	-1.54
214.19	-23.29
214.576	1.89
214.961	-15.19
215.346	-16.54
215.732	-18.03
216.117	11.23
216.502	6.22
216.888	5.05
217.273	-6.23
217.658	0.86
218.043	1.87
218.428	5.72
218.813	14.78
219.198	-33.5
219.583	-0.69
219.968	-6.38
220.353	-7.61
220.738	-11.58
221.122	-1.42
221.507	11.23
221.892	12.01
222.276	7.87
222.661	9.43
223.046	5.85
223.43	18.7
223.815	3.8
224.199	7.03
224.583	-11.25
224.968	14.45
225.352	1.73
225.736	4.27
226.121	-1.87
226.505	6.61
226.889	5.83
227.273	6.34
227.657	2.89
228.041	7.9
228.425	8.33
228.809	9
229.193	2.61
229.577	7.66
229.961	5.38
230.344	6.04
230.728	5.36
231.112	6.17
231.495	6.05
231.879	5.31
232.263	4.78
232.646	5.69
233.03	4.47
233.413	4.88
233.797	4.02
234.18	7.85
234.563	6.89
234.946	4.03
235.33	6.21
235.713	4.21
236.096	2.83
236.479	4.12
236.862	6.97
237.245	5.35
237.628	6.04
238.011	5.11
238.394	5.71
238.777	4.01
239.16	6.36
239.543	4.64
239.925	7.45
240.308	5.43
240.691	4.89
241.073	4.4
241.456	3.94
241.838	5.02
242.221	4.86
242.603	4.62
242.986	4.49
243.368	5.02
243.75	5.04
244.133	4.84
244.515	5.3
244.897	4.73
245.279	4.83
245.661	5.34
246.043	5.87
246.425	5.54
246.807	5.08
247.189	4.18
247.571	4.16
247.953	4.81
248.335	5.14
248.717	4.93
249.098	5.05
249.48	5.15
249.862	5.06
250.243	5.17
250.625	5.09
251.006	5.05
251.388	4.66
251.769	4.9
252.151	4.73
252.532	5.09
252.913	3.57
253.295	4.42
253.676	4.46
254.057	4.87
254.438	5.13
254.819	4.44
255.2	4.85
255.581	4.58
255.962	3.89
256.343	4.82
256.724	4.35
257.105	4.44
257.486	4.63
257.867	4.06
258.247	5.33
258.628	4.32
259.009	4.84
259.389	5.38
259.77	5.29
260.15	4.85
260.531	4.14
260.911	4.53
261.292	4.72
261.672	4.33
262.052	4.6
262.432	5.1
262.813	4.65
263.193	5.02
263.573	4.98
263.953	4.51
264.333	4.7
264.713	4.46
265.093	4.44
265.473	5.57
265.853	3.92
266.233	4.83
266.612	3.97
266.992	4.43
267.372	4.3
267.752	4.57
268.131	4.25
268.511	4.54
268.89	4.65
269.27	4.34
269.649	4.1
270.029	3.98
270.408	4.35
270.787	4.88
271.167	3.74
271.546	4.74
271.925	4.47
272.304	4.4
272.683	4.43
273.062	4.43
273.441	3.95
273.82	4.11
274.199	4.69
274.578	4.62
274.957	3.84
275.336	4.19
275.715	4.23
276.093	5.21
276.472	4.2
276.851	4.18
277.229	4.38
277.608	4.37
277.986	4.31
278.365	4.68
278.743	4.56
279.122	3.83
279.5	4.04
279.878	4.47
280.257	4.74
280.635	4.09
281.013	4.34
281.391	4.06
281.769	4.5
282.147	4
282.525	3.76
282.903	4.43
283.281	3.97
283.659	4.17
284.037	4.11
284.415	4.08
284.792	4.55
285.17	3.82
285.548	4.43
285.925	4.47
286.303	3.84
286.68	4.31
287.058	4.1
287.435	4.1
287.813	4.14
288.19	4.05
288.567	4.14
288.945	3.86
289.322	3.82
289.699	4.05
290.076	3.74
290.453	3.77
290.83	4.47
291.207	3.95
291.584	3.75
291.961	4.01
292.338	4.26
292.715	3.88
293.092	3.81
293.469	4.18
293.845	4.6
294.222	4.58
294.599	4.4
294.975	3.96
295.352	3.84
295.728	4.27
296.105	3.95
296.481	3.48
296.858	3.82
297.234	3.85
297.61	3.8
297.986	3.23
298.363	3.89
298.739	3.94
299.115	3.98
299.491	3.87
299.867	3.62
300.243	3.57
300.619	3.85
300.995	3.93
301.371	3.64
301.746	4.06
302.122	3.7
302.498	3.54
302.874	3.82
303.249	3.72
303.625	3.74
304	3.57
304.376	3.69
304.751	4.09
305.127	3.9
305.502	4.11
305.878	4.08
306.253	3.98
306.628	4.01
307.003	3.64
307.378	3.9
307.754	4.1
308.129	4.17
308.504	3.85
308.879	3.52
309.254	3.65
309.629	3.83
310.003	3.8
310.378	3.43
310.753	3.86
311.128	3.93
311.502	3.38
311.877	3.79
312.252	3.55
312.626	3.41
313.001	3.68
313.375	4.08
313.75	3.96
314.124	3.75
314.498	3.87
314.873	3.92
315.247	3.69
315.621	3.68
315.995	3.65
316.369	3.99
316.743	3.53
317.117	3.58
317.491	4.05
317.865	3.22
318.239	4.01
318.613	3.6
318.987	3.73
319.361	3.71
319.734	3.62
320.108	3.65
320.482	3.2
320.855	3.73
321.229	3.73
321.602	3.6
321.976	3.19
322.349	3.59
322.723	3.95
323.096	3.79
323.469	3.63
323.843	3.86
324.216	3.84
324.589	3.54
324.962	3.45
325.335	4.1
325.708	3.63
326.081	3.59
326.454	3.63
326.827	3.56
327.2	3.26
327.573	4.19
327.945	3.85
328.318	4.08
328.691	4.16
329.063	3.91
329.436	3.62
329.809	3.91
330.181	4.29
330.553	4.02
330.926	3.55
331.298	3.65
331.671	3.86
332.043	4.28
332.415	3.7
332.787	3.9
333.159	4.11
333.532	3.12
333.904	3.79
334.276	3.65
334.648	3.45
335.02	4.04
335.391	3.93
335.763	3.99
336.135	3.8
336.507	3.93
336.879	3.98
337.25	3.45
337.622	4.11
337.993	3.55
338.365	3.72
338.736	3.75
339.108	4.14
339.479	3.98
339.851	3.48
340.222	3.75
340.593	3.55
340.964	3.6
341.336	3.6
341.707	3.5
342.078	3.19
342.449	4.11
342.82	3.66
343.191	4.21
343.562	3.79
343.933	3.55
344.303	4.09
344.674	4.16
345.045	3.65
345.416	3.92
345.786	3.93
346.157	3.7
346.527	3.76
346.898	3.96
347.268	3.78
347.639	4.15
348.009	3.99
348.38	3.83
348.75	4.25
349.12	4.16
349.49	3.93
349.861	3.95
350.231	3.53
350.601	4.29
350.971	4.15
351.341	3.94
351.711	3.78
352.081	3.11
352.45	3.95
352.82	4.03
353.19	3.77
353.56	3.95
353.929	4.32
354.299	3.72
354.669	4.01
355.038	4.16
355.408	3.91
355.777	4.21
356.147	3.91
356.516	4.36
356.885	4.03
357.254	3.65
357.624	4.15
357.993	3.93
358.362	3.76
358.731	3.7
359.1	3.97
359.469	4.13
359.838	4.16
360.207	4.08
360.576	4.11
360.945	4.38
361.314	4.03
361.682	4.1
362.051	4.16
362.42	3.96
362.788	3.98
363.157	4.15
363.525	4.16
363.894	3.86
364.262	3.91
364.631	3.97
364.999	3.9
365.367	4.28
365.735	4.11
366.104	3.8
366.472	4.09
366.84	4.17
367.208	4.01
367.576	4.13
367.944	4.26
368.312	4.31
368.68	4.26
369.048	3.95
369.416	4.06
369.783	4.11
370.151	4.24
370.519	4.3
370.886	4.2
371.254	4.03
371.621	4.18
371.989	3.86
372.356	4.01
372.724	4.34
373.091	4.17
373.458	4.11
373.826	4.15
374.193	4.11
374.56	4.24
374.927	4.21
375.294	4.14
375.661	4.47
376.028	4.43
376.395	4.73
376.762	4.18
377.129	4.24
377.496	4.21
377.863	4.07
378.229	4.31
378.596	4.18
378.963	4.07
379.329	4.07
379.696	4.29
380.062	4.26
380.429	4.07
380.795	4.26
381.161	4.57
381.528	4.35
381.894	4.06
382.26	4.19
382.626	4.25
382.993	4.34
383.359	4.37
383.725	4.31
384.091	4.12
384.457	4.53
384.823	4.28
385.188	4.16
385.554	4.27
385.92	4.05
386.286	4.25
386.651	4.29
387.017	4.09
387.383	4.5
387.748	4.09
388.114	4.19
388.479	4.17
388.845	4.32
389.21	4.37
389.575	4.47
389.94	4.62
390.306	4.08
390.671	4.21
391.036	4.32
391.401	4.22
391.766	4.35
392.131	3.94
392.496	4.59
392.861	4.33
393.226	4.42
393.591	4.23
393.956	4.51
394.32	4.48
394.685	4.58
395.05	4.6
395.414	4.55
395.779	4.36
396.143	4.33
396.508	4.44
396.872	4.42
397.236	4.39
397.601	4.27
397.965	4.59
398.329	4.44
398.694	4.14
399.058	4.37
399.422	4.45
399.786	4.51
400.15	4.32
400.514	4.29
400.878	4.43
401.242	4.52
401.605	4.63
401.969	4.61
402.333	4.55
402.697	4.47
403.06	4.34
403.424	4.12
403.787	4.41
404.151	4.42
404.514	4.4
404.878	4.61
405.241	4.45
405.604	4.33
405.968	4.61
406.331	4.33
406.694	4.56
407.057	4.55
407.42	4.5
407.783	4.43
408.146	4.71
408.509	4.6
408.872	4.57
409.235	4.43
409.598	4.5
409.961	4.48
410.323	4.4
410.686	4.55
411.049	4.76
411.411	4.36
411.774	4.51
412.136	4.51
412.499	4.45
412.861	4.34
413.223	4.41
413.586	4.62
413.948	4.37
414.31	4.52
414.672	4.41
415.035	4.52
415.397	4.63
415.759	4.68
416.121	4.56
416.483	4.59
416.845	4.53
417.206	4.68
417.568	4.53
417.93	4.44
418.292	4.24
418.653	4.44
419.015	4.45
419.377	4.44
419.738	4.61
420.1	4.48
420.461	4.52
420.822	4.4
421.184	4.37
421.545	4.37
421.906	4.45
422.267	4.56
422.629	4.4
422.99	4.4
423.351	4.46
423.712	4.46
424.073	4.53
424.434	4.38
424.795	4.65
425.155	4.44
425.516	4.5
425.877	4.47
426.238	4.47
426.598	4.48
426.959	4.53
427.32	4.54
427.68	4.5
428.041	4.61
428.401	4.52
428.761	4.59
429.122	4.65
429.482	4.61
429.842	4.62
430.202	4.6
430.563	4.67
430.923	4.59
431.283	4.62
431.643	4.79
432.003	4.91
432.363	4.66
432.722	4.69
433.082	4.58
433.442	4.59
433.802	4.78
434.161	4.75
434.521	4.65
434.881	4.55
435.24	4.56
435.6	4.48
435.959	4.52
436.319	4.57
436.678	4.5
437.037	4.59
437.396	4.56
437.756	4.5
438.115	4.52
438.474	4.45
438.833	4.63
439.192	4.62
439.551	4.46
439.91	4.6
440.269	4.72
440.628	4.71
440.987	4.73
441.345	4.58
441.704	4.54
442.063	4.68
442.421	4.56
442.78	4.58
443.138	4.54
443.497	4.57
443.855	4.62
444.214	4.63
444.572	4.62
444.93	4.66
445.288	4.84
445.647	4.63
446.005	4.64
446.363	4.68
446.721	4.52
447.079	4.53
447.437	4.53
447.795	4.47
448.153	4.59
448.51	4.62
448.868	4.57
449.226	4.58
449.584	4.63
449.941	4.5
450.299	4.63
450.656	4.7
451.014	4.7
451.371	4.59
451.729	4.66
452.086	4.78
452.443	4.7
452.801	4.62
453.158	4.57
453.515	4.63
453.872	4.73
454.229	4.61
454.586	4.63
454.943	4.62
455.3	4.65
455.657	4.66
456.014	4.76
456.371	4.64
456.727	4.66
457.084	4.58
457.441	4.73
457.797	4.6
458.154	4.56
458.51	4.61
458.867	4.69
459.223	4.68
459.58	4.61
459.936	4.65
460.292	4.54
460.648	4.65
461.005	4.67
461.361	4.58
461.717	4.56
462.073	4.64
462.429	4.69
462.785	4.61
463.141	4.64
463.496	4.71
463.852	4.73
464.208	4.75
464.564	4.75
464.919	4.67
465.275	4.69
465.631	4.72
465.986	4.63
466.342	4.77
466.697	4.74
467.052	4.7
467.408	4.67
467.763	4.69
468.118	4.72
468.473	4.75
468.829	4.79
469.184	4.8
469.539	4.85
469.894	4.73
470.249	4.71
470.603	4.62
470.958	4.75
471.313	4.86
471.668	4.63
472.023	4.89
472.377	4.86
472.732	4.87
473.086	4.75
473.441	4.62
473.795	4.77
474.15	4.68
474.504	4.77
474.859	4.83
475.213	4.87
475.567	4.81
475.921	4.81
476.275	4.7
476.63	4.68
476.984	4.77
477.338	4.64
477.692	4.72
478.045	4.67
478.399	4.76
478.753	4.7
479.107	4.73
479.461	4.71
479.814	4.67
480.168	4.79
480.521	4.68
480.875	4.81
481.228	4.73
481.582	4.81
481.935	4.79
482.289	4.74
482.642	4.69
482.995	4.76
483.348	4.58
483.701	4.74
484.055	4.6
484.408	4.61
484.761	4.46
485.114	4.39
485.466	4.33
485.819	4.36
486.172	4.45
486.525	4.59
486.878	4.62
487.23	4.69
487.583	4.65
487.936	4.67
488.288	4.53
488.641	4.56
488.993	4.48
489.345	4.44
489.698	4.53
490.05	4.52
490.402	4.56
490.754	4.67
491.107	4.67
491.459	4.66
491.811	4.71
492.163	4.73
492.515	4.62
492.866	4.5
493.218	4.45
493.57	4.46
493.922	4.61
494.274	4.68
494.625	4.66
494.977	4.69
495.328	4.72
495.68	4.84
496.031	4.74
496.383	4.84
496.734	4.76
497.086	4.68
497.437	4.74
497.788	4.7
498.139	4.66
498.49	4.67
498.842	4.75
499.193	4.73
499.544	4.78
499.894	4.79
500.245	4.69
500.596	4.82
500.947	4.72
501.298	4.79
501.648	4.89
501.999	4.73
502.35	4.84
502.7	4.89
503.051	4.76
503.401	4.79
503.752	4.73
504.102	4.89
504.452	4.71
504.803	4.77
505.153	4.86
505.503	4.79
505.853	4.78
506.203	4.89
506.553	4.9
506.903	4.7
507.253	4.83
507.603	4.85
507.953	4.86
508.303	4.7
508.652	4.72
509.002	4.69
509.352	4.77
509.701	4.67
510.051	4.67
510.4	4.63
510.75	4.73
511.099	4.73
511.449	4.68
511.798	4.64
512.147	4.71
512.496	4.82
512.846	4.8
513.195	4.66
513.544	4.73
513.893	4.81
514.242	4.78
514.591	4.74
514.939	4.76
515.288	4.83
515.637	4.77
515.986	4.81
516.334	4.85
516.683	4.87
517.032	4.65
517.38	4.85
517.729	4.75
518.077	4.66
518.426	4.81
518.774	4.73
519.122	4.64
519.47	4.67
519.819	4.68
520.167	4.58
520.515	4.61
520.863	4.72
521.211	4.67
521.559	4.69
521.907	4.93
522.255	4.85
522.602	4.81
522.95	4.77
523.298	4.69
523.645	4.84
523.993	4.85
524.341	4.95
524.688	4.75
525.036	4.68
525.383	4.83
525.73	4.82
526.078	4.67
526.425	4.68
526.772	4.66
527.119	4.56
527.466	4.56
527.814	4.6
528.161	4.65
528.508	4.63
528.854	4.63
529.201	4.69
529.548	4.53
529.895	4.39
530.242	4.42
530.588	4.39
530.935	4.46
531.282	4.65
531.628	4.62
531.975	4.62
532.321	4.65
532.667	4.62
533.014	4.72
533.36	4.71
533.706	4.66
534.052	4.63
534.399	4.58
534.745	4.53
535.091	4.49
535.437	4.51
535.783	4.59
536.129	4.64
536.474	4.7
536.82	4.65
537.166	4.63
537.512	4.76
537.857	4.67
538.203	4.58
538.549	4.52
538.894	4.66
539.239	4.71
539.585	4.59
539.93	4.71
540.276	4.72
540.621	4.69
540.966	4.69
541.311	4.72
541.656	4.61
542.001	4.65
542.346	4.58
542.691	4.41
543.036	4.4
543.381	4.43
543.726	4.47
544.071	4.55
544.415	4.62
544.76	4.53
545.105	4.58
545.449	4.62
545.794	4.59
546.138	4.66
546.483	4.67
546.827	4.64
547.171	4.68
547.516	4.51
547.86	4.61
548.204	4.5
548.548	4.58
548.892	4.53
549.236	4.67
549.58	4.62
549.924	4.68
550.268	4.62
550.612	4.76
550.956	4.77
551.3	4.75
551.643	4.69
551.987	4.56
552.33	4.52
552.674	4.57
553.017	4.67
553.361	4.64
553.704	4.63
554.048	4.71
554.391	4.63
554.734	4.57
555.077	4.66
555.42	4.6
555.764	4.81
556.107	4.66
556.45	4.53
556.793	4.68
557.135	4.6
557.478	4.66
557.821	4.75
558.164	4.67
558.507	4.63
558.849	4.67
559.192	4.69
559.534	4.58
559.877	4.84
560.219	4.62
560.562	4.73
560.904	4.44
561.246	4.67
561.589	4.63
561.931	4.64
562.273	4.64
562.615	4.57
562.957	4.56
563.299	4.68
563.641	4.55
563.983	4.74
564.325	4.56
564.667	4.65
565.008	4.59
565.35	4.74
565.692	4.56
566.033	4.61
566.375	4.57
566.716	4.56
567.058	4.51
567.399	4.55
567.741	4.65
568.082	4.57
568.423	4.58
568.764	4.66
569.105	4.5
569.447	4.56
569.788	4.5
570.129	4.61
570.47	4.48
570.811	4.64
571.151	4.61
571.492	4.58
571.833	4.68
572.174	4.51
572.514	4.54
572.855	4.45
573.195	4.41
573.536	4.43
573.876	4.51
574.217	4.43
574.557	4.38
574.898	4.54
575.238	4.61
575.578	4.52
575.918	4.49
576.258	4.61
576.598	4.57
576.938	4.43
577.278	4.54
577.618	4.41
577.958	4.55
578.298	4.63
578.638	4.46
578.977	4.58
579.317	4.38
579.657	4.49
579.996	4.6
580.336	4.64
580.675	4.41
581.014	4.48
581.354	4.42
581.693	4.26
582.032	4.57
582.372	4.75
582.711	4.44
583.05	4.59
583.389	4.62
583.728	4.47
584.067	4.55
584.406	4.5
584.745	4.5
585.083	4.47
585.422	4.41
585.761	4.66
586.1	4.52
586.438	4.39
586.777	4.49
587.115	4.5
587.454	4.69
587.792	4.32
588.13	4.72
588.469	4.52
588.807	4.52
589.145	4.71
589.483	4.48
589.821	4.3
590.159	4.48
590.497	4.54
590.835	4.38
591.173	4.47
591.511	4.54
591.849	4.33
592.187	4.45
592.524	4.33
592.862	4.42
593.2	4.58
593.537	4.3
593.875	4.4
594.212	4.64
594.55	4.43
594.887	4.62
595.224	4.41
595.561	4.47
595.899	4.29
596.236	4.46
596.573	4.35
596.91	4.6
597.247	4.4
597.584	4.34
597.921	4.28
598.258	4.36
598.594	4.35
598.931	4.37
599.268	4.08
599.604	4.39
599.941	4.43
600.277	4.19
600.614	4.48
600.95	4.41
601.287	4.66
601.623	4.53
601.959	4.41
602.296	4.28
602.632	4.48
602.968	4.34
603.304	4.2
603.64	4.48
603.976	4.37
604.312	4.53
604.648	4.15
604.984	4.5
605.319	4.24
605.655	4.3
605.991	4.3
606.326	4.25
606.662	4.24
606.998	4.26
607.333	4.43
607.668	4.38
608.004	4.35
608.339	4.43
608.674	4.42
609.01	4.12
609.345	4.24
609.68	4.43
610.015	4.32
610.35	4.27
610.685	4.37
611.02	4.36
611.355	4.16
611.689	4.36
612.024	4.33
612.359	4.22
612.694	4.18
613.028	4.31
613.363	4.28
613.697	4.49
614.032	4.42
614.366	3.98
614.7	4.36
615.035	4.42
615.369	4.52
615.703	4.3
616.037	4.32
616.371	4.16
616.705	4.4
617.039	4.05
617.373	4.41
617.707	4.3
618.041	4.26
618.375	4.49
618.709	4.11
619.042	4.15
619.376	4.31
619.71	4.23
620.043	4.25
620.377	4.42
620.71	4.37
621.043	4.33
621.377	4.2
621.71	4.41
622.043	4.3
622.376	4.4
622.709	4.15
623.043	4.11
623.376	4.38
623.709	4.33
624.041	4.3
624.374	4.34
624.707	4.16
625.04	4.41
625.373	4.22
625.705	4.09
626.038	4.31
626.37	4.06
626.703	4.36
627.035	4.33
627.368	4.18
627.7	4.33
628.032	3.85
628.365	4.54
628.697	4.52
629.029	4.27
629.361	4.36
629.693	4.08
630.025	4.16
630.357	3.87
630.689	4.46
631.021	4.17
631.353	4.25
631.684	4.09
632.016	4
632.348	4.26
632.679	4.03
633.011	3.97
633.342	4.07
633.674	4.1
634.005	3.91
634.336	3.89
634.668	4.08
634.999	3.92
635.33	4.13
635.661	4.32
635.992	4.13
636.323	4.14
636.654	4.13
636.985	4.27
637.316	4.32
637.647	4.05
637.977	4.11
638.308	4.09
638.639	4.17
638.969	4.65
639.3	4.16
639.63	4.2
639.961	4.1
640.291	4.18
640.622	4.3
640.952	4.36
641.282	4.35
641.612	4.31
641.943	4.39
642.273	4.15
642.603	3.86
642.933	4.05
643.263	4.05
643.592	4.38
643.922	3.92
644.252	4.03
644.582	4.32
644.911	4.36
645.241	4.61
645.571	4.14
645.9	4.06
646.23	4.54
646.559	4.07
646.888	4.27
647.218	3.86
647.547	4.23
647.876	4.03
648.205	4.54
648.534	3.92
648.863	3.9
649.192	4.45
649.521	4.24
649.85	4.34
650.179	4.06
650.508	4.11
650.837	4.53
651.165	4.29
651.494	4.59
651.822	4.04
652.151	4.23
652.479	4.41
652.808	4.4
653.136	4.41
653.465	4.12
653.793	4.6
654.121	4.23
654.449	3.9
654.777	4.19
655.105	4
655.433	3.85
655.761	4.16
656.089	4.36
656.417	4.24
656.745	3.96
657.073	4.12
657.4	3.91
657.728	4.44
658.056	3.63
658.383	4.2
658.711	4.17
659.038	4.3
659.365	4.05
659.693	3.7
660.02	4.26
660.347	4.05
660.674	3.91
661.001	3.99
661.329	4.31
661.656	4.19
661.982	4.18
662.309	4.34
662.636	4.21
662.963	4.22
663.29	4.34
663.616	4.35
663.943	4.11
664.27	4.01
664.596	4.2
664.923	4.1
665.249	3.89
665.576	3.94
665.902	4.15
666.228	3.99
666.554	3.61
666.881	4.39
667.207	3.64
667.533	4.28
667.859	3.85
668.185	4.55
668.511	4.12
668.837	4.56
669.162	4.24
669.488	3.74
669.814	4.45
670.139	4.46
670.465	4.12
670.791	3.82
671.116	3.71
671.442	3.83
671.767	3.99
672.092	3.76
672.418	4.31
672.743	4.01
673.068	3.91
673.393	3.93
673.718	4.26
674.043	4.22
674.368	3.7
674.693	4.47
675.018	3.62
675.343	4.11
675.667	3.99
675.992	3.76
676.317	4.12
676.641	3.82
676.966	4.25
677.29	3.61
677.615	4.5
677.939	4.52
678.264	4.22
678.588	4.07
678.912	4.37
679.236	4.48
679.56	4.32
679.885	4.48
680.209	3.66
680.532	3.28
680.856	4.12
681.18	3.89
681.504	4.18
681.828	3.67
682.152	4.45
682.475	4.08
682.799	4.05
683.122	3.9
683.446	4.06
683.769	4.36
684.093	4.24
684.416	4.33
684.739	4.61
685.062	4.69
685.386	4.46
685.709	4.1
686.032	4.15
686.355	3.74
686.678	3.83
687.001	4.32
687.324	3.59
687.646	4.5
687.969	3.95
688.292	4.15
688.614	4.01
688.937	3.92
689.26	3.9
689.582	4.18
689.904	3.94
690.227	4.6
690.549	4.6
690.871	4.38
691.194	4.2
691.516	4.38
691.838	4.23
692.16	4.49
