Data from 1610-4_chest_Reflection__4__49.txt Node

Date: Fri Nov 11 16:31:18 CST 2022
User: ToomeyLab
Spectrometer: FLMS14357
Trigger mode: 0
Integration Time (sec): 1.000000E-2
Scans to average: 100
Electric dark correction enabled: true
Nonlinearity correction enabled: false
Boxcar width: 0
XAxis mode: Wavelengths
Number of Pixels in Spectrum: 2048
>>>>>Begin Spectral Data<<<<<
189.047	62.36
189.435	62.36
189.823	62.36
190.211	-86.45
190.599	523.77
190.987	-2253.98
191.375	219.46
191.763	146.69
192.151	81.75
192.538	274.06
192.926	315.38
193.314	441.36
193.702	88.78
194.089	-15957.14
194.477	336.89
194.864	-257.05
195.252	188.17
195.639	-202.35
196.027	35.56
196.414	370.97
196.801	47.38
197.189	61.11
197.576	-386.06
197.963	-19.98
198.351	25.76
198.738	-40.98
199.125	21.32
199.512	49.8
199.899	31.62
200.286	-3.35
200.673	2.93
201.06	-3.15
201.447	-0.87
201.833	35.35
202.22	52.61
202.607	11.12
202.994	5.09
203.38	44.71
203.767	25.37
204.154	-13.36
204.54	25.99
204.927	15.85
205.313	23.47
205.699	8.12
206.086	49.47
206.472	-7.29
206.858	-1.58
207.245	21.76
207.631	22.35
208.017	-11.6
208.403	0.8
208.789	-11.1
209.175	8.71
209.561	2.58
209.947	10.01
210.333	3.73
210.719	39.55
211.105	23.93
211.491	-115.12
211.876	34.58
212.262	-2.82
212.648	3.58
213.034	-26.7
213.419	6.23
213.805	12.79
214.19	-12.83
214.576	4.14
214.961	-9.54
215.346	-29.75
215.732	-51.95
216.117	35.82
216.502	16.32
216.888	20.3
217.273	-1.91
217.658	-0.03
218.043	5.38
218.428	-6.61
218.813	15.46
219.198	-11.14
219.583	16.79
219.968	7.18
220.353	-10.17
220.738	-25.83
221.122	-18.57
221.507	13.71
221.892	12.82
222.276	11.69
222.661	6.49
223.046	4.68
223.43	1.38
223.815	-4.61
224.199	5.03
224.583	2.71
224.968	15.09
225.352	8.76
225.736	4.66
226.121	6.29
226.505	4.11
226.889	7.4
227.273	7.26
227.657	-1.89
228.041	-1.13
228.425	6.64
228.809	10.05
229.193	0.17
229.577	4.86
229.961	3.7
230.344	4.6
230.728	4.19
231.112	3.98
231.495	4.28
231.879	3.47
232.263	3.39
232.646	3.11
233.03	3.57
233.413	2.93
233.797	4.23
234.18	3.48
234.563	4.66
234.946	4.1
235.33	3.83
235.713	3.49
236.096	3.17
236.479	3.32
236.862	5.79
237.245	5.8
237.628	3.93
238.011	4.97
238.394	3.57
238.777	3
239.16	3.14
239.543	3.52
239.925	4.32
240.308	3.53
240.691	2.9
241.073	2.75
241.456	2.67
241.838	4.49
242.221	4.42
242.603	2.84
242.986	3.73
243.368	3.57
243.75	3.9
244.133	3.85
244.515	3.87
244.897	3.55
245.279	2.86
245.661	4.07
246.043	4.02
246.425	4.61
246.807	3.59
247.189	2.97
247.571	3.03
247.953	4.02
248.335	4.1
248.717	3.75
249.098	3.73
249.48	3.97
249.862	3.63
250.243	3.53
250.625	3.79
251.006	4.27
251.388	3.61
251.769	3.56
252.151	3.45
252.532	3.83
252.913	2.99
253.295	3.13
253.676	4
254.057	3.66
254.438	4.26
254.819	3.38
255.2	3.94
255.581	3.52
255.962	3.13
256.343	4.28
256.724	3.88
257.105	3.24
257.486	4.25
257.867	3.38
258.247	3.15
258.628	3.54
259.009	4.11
259.389	4.09
259.77	4.09
260.15	4.07
260.531	3.42
260.911	3.54
261.292	3.68
261.672	3.39
262.052	3.64
262.432	4.12
262.813	3.61
263.193	3.22
263.573	4.16
263.953	3.85
264.333	4.45
264.713	3.62
265.093	3.94
265.473	4.61
265.853	3.5
266.233	2.91
266.612	2.8
266.992	3.31
267.372	3.77
267.752	3.95
268.131	3.62
268.511	4
268.89	4.36
269.27	3.58
269.649	3.57
270.029	3.06
270.408	3.15
270.787	4.38
271.167	3.81
271.546	3.93
271.925	3.91
272.304	3.95
272.683	3.68
273.062	3.61
273.441	3.32
273.82	3.27
274.199	3.84
274.578	3.81
274.957	3.25
275.336	4.1
275.715	3.41
276.093	4.23
276.472	3.38
276.851	3.71
277.229	3.65
277.608	3.28
277.986	3.58
278.365	4.27
278.743	4.1
279.122	2.97
279.5	3.62
279.878	3.15
280.257	4.33
280.635	3.57
281.013	3.32
281.391	3.4
281.769	4.13
282.147	3.73
282.525	3.56
282.903	4.04
283.281	3.61
283.659	3.52
284.037	3.44
284.415	3.65
284.792	3.82
285.17	3.75
285.548	3.92
285.925	3.64
286.303	3.39
286.68	3.53
287.058	3.52
287.435	3.61
287.813	3.64
288.19	3.74
288.567	3.84
288.945	3.23
289.322	3.61
289.699	3.72
290.076	3.37
290.453	3.63
290.83	3.78
291.207	3.47
291.584	3.83
291.961	3.59
292.338	3.93
292.715	3.6
293.092	3.53
293.469	3.91
293.845	3.5
294.222	4.22
294.599	3.87
294.975	3.79
295.352	3.57
295.728	3.52
296.105	3.92
296.481	3.55
296.858	4.62
297.234	4.09
297.61	3.78
297.986	3.36
298.363	3.9
298.739	3.71
299.115	3.5
299.491	3.94
299.867	3.5
300.243	3.77
300.619	3.62
300.995	3.77
301.371	3.52
301.746	3.7
302.122	3.7
302.498	3.2
302.874	3.84
303.249	3.97
303.625	3.8
304	3.71
304.376	4.05
304.751	3.97
305.127	4.31
305.502	3.78
305.878	4.43
306.253	4.12
306.628	4.28
307.003	4.09
307.378	3.93
307.754	3.96
308.129	4.36
308.504	4.04
308.879	3.88
309.254	3.39
309.629	3.96
310.003	4.23
310.378	3.59
310.753	3.71
311.128	4.06
311.502	3.5
311.877	3.78
312.252	3.58
312.626	3.49
313.001	3.8
313.375	4.39
313.75	4.17
314.124	3.76
314.498	4.39
314.873	4.32
315.247	3.95
315.621	4.05
315.995	3.5
316.369	4.04
316.743	4.06
317.117	4.12
317.491	4.39
317.865	3.98
318.239	4.22
318.613	3.65
318.987	4.46
319.361	3.75
319.734	3.51
320.108	4.21
320.482	3.61
320.855	3.81
321.229	4.5
321.602	3.94
321.976	3.66
322.349	3.97
322.723	4.22
323.096	4.14
323.469	4.41
323.843	4.41
324.216	3.8
324.589	4.39
324.962	4.22
325.335	4.68
325.708	4.11
326.081	4.09
326.454	4.23
326.827	3.87
327.2	3.97
327.573	4.38
327.945	4.25
328.318	4.15
328.691	4.18
329.063	4.06
329.436	4.47
329.809	3.73
330.181	4.22
330.553	4.5
330.926	3.76
331.298	4.08
331.671	4.02
332.043	4.27
332.415	4.2
332.787	4.3
333.159	4.54
333.532	4.28
333.904	4.32
334.276	3.81
334.648	3.8
335.02	4.42
335.391	4.08
335.763	4.39
336.135	4.24
336.507	4.14
336.879	3.9
337.25	3.76
337.622	4.63
337.993	3.93
338.365	4.23
338.736	4.2
339.108	4.08
339.479	4.31
339.851	3.86
340.222	4.12
340.593	3.63
340.964	4.13
341.336	4.17
341.707	4.21
342.078	3.89
342.449	4.58
342.82	3.99
343.191	4.38
343.562	4.48
343.933	3.86
344.303	4.52
344.674	4.49
345.045	4.27
345.416	4.35
345.786	4.35
346.157	4.06
346.527	4.46
346.898	4.1
347.268	4.34
347.639	4.38
348.009	4.32
348.38	4.19
348.75	4.66
349.12	4.62
349.49	4.18
349.861	3.93
350.231	4.06
350.601	4.53
350.971	4.48
351.341	4.53
351.711	4.28
352.081	3.7
352.45	4.49
352.82	4.28
353.19	3.67
353.56	4.29
353.929	4.53
354.299	3.99
354.669	4.23
355.038	4.42
355.408	4.13
355.777	4.6
356.147	4.29
356.516	4.42
356.885	4.11
357.254	4.16
357.624	4.45
357.993	4.43
358.362	4.2
358.731	4.28
359.1	4.12
359.469	4.26
359.838	4.59
360.207	4.56
360.576	4.41
360.945	4.4
361.314	4.63
361.682	4.19
362.051	4.31
362.42	4.16
362.788	4.24
363.157	4.35
363.525	4.49
363.894	4.24
364.262	4.28
364.631	4.13
364.999	4.28
365.367	4.59
365.735	4.48
366.104	4.47
366.472	4.49
366.84	4.42
367.208	4.41
367.576	4.54
367.944	4.49
368.312	4.06
368.68	4.29
369.048	4.22
369.416	4.24
369.783	4.01
370.151	4.48
370.519	4.45
370.886	4.67
371.254	4.34
371.621	4.34
371.989	4.18
372.356	3.95
372.724	4.64
373.091	4.27
373.458	4.26
373.826	4.54
374.193	4.35
374.56	4.46
374.927	4.53
375.294	4.42
375.661	5.01
376.028	4.51
376.395	4.77
376.762	4.08
377.129	4.39
377.496	4.31
377.863	4.35
378.229	4.5
378.596	4.22
378.963	4.18
379.329	4.46
379.696	4.39
380.062	4.23
380.429	4.31
380.795	4.38
381.161	4.61
381.528	4.57
381.894	4.78
382.26	4.42
382.626	4.53
382.993	4.5
383.359	4.48
383.725	4.7
384.091	4.26
384.457	4.55
384.823	4.47
385.188	4.53
385.554	4.51
385.92	4.34
386.286	4.25
386.651	4.43
387.017	4.14
387.383	4.3
387.748	4.39
388.114	4.39
388.479	4.52
388.845	4.35
389.21	4.6
389.575	4.49
389.94	4.59
390.306	4.63
390.671	4.18
391.036	4.59
391.401	4.41
391.766	4.58
392.131	4.34
392.496	4.61
392.861	4.51
393.226	4.4
393.591	4.54
393.956	4.48
394.32	4.56
394.685	4.68
395.05	4.74
395.414	4.67
395.779	4.48
396.143	4.53
396.508	4.33
396.872	4.44
397.236	4.52
397.601	4.34
397.965	4.48
398.329	4.36
398.694	4.33
399.058	4.57
399.422	4.66
399.786	4.59
400.15	4.48
400.514	4.58
400.878	4.65
401.242	4.6
401.605	4.55
401.969	4.7
402.333	4.71
402.697	4.55
403.06	4.48
403.424	4.5
403.787	4.7
404.151	4.42
404.514	4.57
404.878	4.96
405.241	4.52
405.604	4.49
405.968	4.61
406.331	4.44
406.694	4.58
407.057	4.64
407.42	4.53
407.783	4.59
408.146	4.61
408.509	4.64
408.872	4.88
409.235	4.67
409.598	4.58
409.961	4.52
410.323	4.73
410.686	4.7
411.049	4.8
411.411	4.62
411.774	4.7
412.136	4.55
412.499	4.7
412.861	4.52
413.223	4.54
413.586	4.65
413.948	4.59
414.31	4.77
414.672	4.83
415.035	4.77
415.397	4.83
415.759	4.59
416.121	4.79
416.483	4.92
416.845	4.76
417.206	4.78
417.568	4.75
417.93	4.74
418.292	4.61
418.653	4.54
419.015	4.63
419.377	4.85
419.738	4.73
420.1	4.7
420.461	4.59
420.822	4.7
421.184	4.62
421.545	4.6
421.906	4.56
422.267	4.8
422.629	4.68
422.99	4.56
423.351	4.62
423.712	4.59
424.073	4.7
424.434	4.56
424.795	4.83
425.155	4.63
425.516	4.63
425.877	4.66
426.238	4.59
426.598	4.66
426.959	4.73
427.32	4.67
427.68	4.71
428.041	4.78
428.401	4.7
428.761	4.74
429.122	4.91
429.482	4.74
429.842	4.67
430.202	4.73
430.563	4.72
430.923	4.7
431.283	4.9
431.643	4.8
432.003	4.94
432.363	4.86
432.722	4.83
433.082	4.81
433.442	4.89
433.802	4.87
434.161	4.71
434.521	4.8
434.881	4.71
435.24	4.97
435.6	4.78
435.959	4.79
436.319	4.71
436.678	4.74
437.037	4.81
437.396	4.69
437.756	4.64
438.115	4.7
438.474	4.81
438.833	4.76
439.192	4.99
439.551	4.77
439.91	4.82
440.269	4.93
440.628	4.88
440.987	4.88
441.345	4.81
441.704	4.83
442.063	4.93
442.421	4.7
442.78	4.76
443.138	4.86
443.497	4.76
443.855	4.78
444.214	4.93
444.572	5.02
444.93	4.92
445.288	4.98
445.647	4.75
446.005	4.89
446.363	4.96
446.721	4.77
447.079	4.79
447.437	4.85
447.795	4.73
448.153	4.86
448.51	4.76
448.868	4.84
449.226	4.9
449.584	4.82
449.941	4.81
450.299	4.98
450.656	4.94
451.014	5.08
451.371	4.88
451.729	4.98
452.086	5.02
452.443	5.13
452.801	4.92
453.158	4.99
453.515	4.99
453.872	4.97
454.229	5.01
454.586	5
454.943	4.96
455.3	4.9
455.657	4.89
456.014	5.02
456.371	4.95
456.727	5.05
457.084	5.03
457.441	4.92
457.797	5.05
458.154	5.15
458.51	4.97
458.867	5.06
459.223	5.01
459.58	5.12
459.936	5.26
460.292	5.13
460.648	5.03
461.005	5.11
461.361	5.01
461.717	4.94
462.073	4.93
462.429	5.03
462.785	4.97
463.141	5.05
463.496	5.01
463.852	4.99
464.208	5.07
464.564	5.14
464.919	5.06
465.275	5.13
465.631	5.28
465.986	5.18
466.342	5.16
466.697	5.13
467.052	5.24
467.408	5.15
467.763	5.2
468.118	5.04
468.473	5.18
468.829	5.19
469.184	5.21
469.539	5.35
469.894	5.11
470.249	5.15
470.603	5.04
470.958	5.29
471.313	5.18
471.668	5.29
472.023	5.33
472.377	5.44
472.732	5.45
473.086	5.23
473.441	5.3
473.795	5.47
474.15	5.32
474.504	5.28
474.859	5.24
475.213	5.39
475.567	5.31
475.921	5.36
476.275	5.29
476.63	5.21
476.984	5.39
477.338	5.27
477.692	5.37
478.045	5.32
478.399	5.17
478.753	5.32
479.107	5.33
479.461	5.31
479.814	5.34
480.168	5.33
480.521	5.3
480.875	5.29
481.228	5.37
481.582	5.43
481.935	5.27
482.289	5.4
482.642	5.33
482.995	5.26
483.348	5.25
483.701	5.29
484.055	5.23
484.408	5.23
484.761	5.13
485.114	5.04
485.466	4.99
485.819	5.02
486.172	5.04
486.525	5.09
486.878	5.2
487.23	5.2
487.583	5.25
487.936	5.28
488.288	5.22
488.641	5.24
488.993	5.12
489.345	5.15
489.698	5.16
490.05	5.19
490.402	5.28
490.754	5.39
491.107	5.36
491.459	5.45
491.811	5.44
492.163	5.39
492.515	5.34
492.866	5.32
493.218	5.23
493.57	5.21
493.922	5.32
494.274	5.41
494.625	5.41
494.977	5.47
495.328	5.44
495.68	5.43
496.031	5.52
496.383	5.55
496.734	5.63
497.086	5.55
497.437	5.56
497.788	5.63
498.139	5.53
498.49	5.61
498.842	5.63
499.193	5.48
499.544	5.6
499.894	5.59
500.245	5.68
500.596	5.7
500.947	5.6
501.298	5.78
501.648	5.87
501.999	5.74
502.35	5.75
502.7	5.79
503.051	5.75
503.401	5.77
503.752	5.75
504.102	5.8
504.452	5.72
504.803	5.76
505.153	5.92
505.503	5.78
505.853	5.87
506.203	5.89
506.553	5.97
506.903	5.77
507.253	5.84
507.603	5.93
507.953	5.9
508.303	5.93
508.652	5.85
509.002	5.85
509.352	5.98
509.701	5.82
510.051	5.89
510.4	5.8
510.75	5.84
511.099	5.96
511.449	5.86
511.798	5.85
512.147	5.9
512.496	5.87
512.846	5.74
513.195	5.84
513.544	5.85
513.893	5.9
514.242	5.92
514.591	5.9
514.939	5.96
515.288	6.05
515.637	5.96
515.986	6.12
516.334	6.1
516.683	6.11
517.032	6.11
517.38	6.16
517.729	6.23
518.077	6.11
518.426	6.14
518.774	6.01
519.122	6.08
519.47	6.04
519.819	6
520.167	6.05
520.515	6.06
520.863	6.07
521.211	6.16
521.559	6.15
521.907	6.19
522.255	6.17
522.602	6.24
522.95	6.25
523.298	6.26
523.645	6.29
523.993	6.37
524.341	6.38
524.688	6.3
525.036	6.4
525.383	6.38
525.73	6.49
526.078	6.33
526.425	6.34
526.772	6.36
527.119	6.3
527.466	6.2
527.814	6.33
528.161	6.27
528.508	6.34
528.854	6.32
529.201	6.4
529.548	6.32
529.895	6.16
530.242	6.18
530.588	6.14
530.935	6.22
531.282	6.34
531.628	6.31
531.975	6.35
532.321	6.39
532.667	6.49
533.014	6.48
533.36	6.52
533.706	6.53
534.052	6.48
534.399	6.48
534.745	6.46
535.091	6.39
535.437	6.52
535.783	6.51
536.129	6.59
536.474	6.68
536.82	6.63
537.166	6.69
537.512	6.78
537.857	6.83
538.203	6.7
538.549	6.69
538.894	6.77
539.239	6.77
539.585	6.8
539.93	6.91
540.276	6.92
540.621	6.97
540.966	6.97
541.311	6.98
541.656	6.9
542.001	6.98
542.346	6.89
542.691	6.81
543.036	6.75
543.381	6.76
543.726	6.79
544.071	6.89
544.415	6.98
544.76	6.92
545.105	7.09
545.449	6.99
545.794	7.04
546.138	7.15
546.483	7.24
546.827	7.21
547.171	7.26
547.516	7.13
547.86	7.27
548.204	7.25
548.548	7.17
548.892	7.28
549.236	7.36
549.58	7.41
549.924	7.39
550.268	7.64
550.612	7.52
550.956	7.59
551.3	7.67
551.643	7.59
551.987	7.5
552.33	7.54
552.674	7.69
553.017	7.59
553.361	7.63
553.704	7.71
554.048	7.55
554.391	7.72
554.734	7.71
555.077	7.86
555.42	7.79
555.764	7.82
556.107	7.8
556.45	7.77
556.793	7.95
557.135	7.9
557.478	7.92
557.821	7.94
558.164	8.14
558.507	8.11
558.849	8.06
559.192	8.2
559.534	8.1
559.877	8.16
560.219	8.23
560.562	8.12
560.904	8.16
561.246	8.03
561.589	8.19
561.931	8.44
562.273	8.25
562.615	8.23
562.957	8.26
563.299	8.42
563.641	8.27
563.983	8.4
564.325	8.38
564.667	8.46
565.008	8.41
565.35	8.55
565.692	8.42
566.033	8.57
566.375	8.6
566.716	8.61
567.058	8.56
567.399	8.6
567.741	8.56
568.082	8.66
568.423	8.73
568.764	8.77
569.105	8.8
569.447	8.78
569.788	8.79
570.129	8.83
570.47	8.83
570.811	8.97
571.151	8.97
571.492	8.99
571.833	9.09
572.174	9.11
572.514	9.04
572.855	9.13
573.195	9.04
573.536	9.06
573.876	9.02
574.217	9.07
574.557	8.99
574.898	9.23
575.238	9.27
575.578	9.12
575.918	9.22
576.258	9.29
576.598	9.43
576.938	9.24
577.278	9.45
577.618	9.44
577.958	9.5
578.298	9.44
578.638	9.51
578.977	9.56
579.317	9.55
579.657	9.65
579.996	9.74
580.336	9.85
580.675	9.65
581.014	9.7
581.354	9.62
581.693	9.67
582.032	9.88
582.372	10.12
582.711	9.95
583.05	9.8
583.389	10.04
583.728	9.94
584.067	10.1
584.406	9.95
584.745	9.97
585.083	10.38
585.422	10.26
585.761	10.49
586.1	10.21
586.438	10.23
586.777	10.54
587.115	10.55
587.454	10.35
587.792	10.5
588.13	10.54
588.469	10.49
588.807	10.53
589.145	10.74
589.483	10.55
589.821	10.37
590.159	10.53
590.497	10.77
590.835	10.68
591.173	10.85
591.511	10.69
591.849	10.62
592.187	10.67
592.524	10.8
592.862	10.89
593.2	10.92
593.537	10.72
593.875	10.94
594.212	11.04
594.55	11.16
594.887	11.33
595.224	11.13
595.561	11.08
595.899	10.99
596.236	10.96
596.573	11.15
596.91	11.37
597.247	11.18
597.584	11.27
597.921	11.16
598.258	11.19
598.594	11.28
598.931	11.33
599.268	11.28
599.604	11.43
599.941	11.4
600.277	11.34
600.614	11.71
600.95	11.7
601.287	11.89
601.623	11.72
601.959	11.59
602.296	11.69
602.632	11.89
602.968	11.93
603.304	11.89
603.64	11.79
603.976	11.87
604.312	11.92
604.648	11.83
604.984	12.11
605.319	12.08
605.655	12.01
605.991	11.92
606.326	12.01
606.662	11.94
606.998	12.07
607.333	12.03
607.668	12.45
608.004	12.25
608.339	12.4
608.674	12.53
609.01	12.14
609.345	12.52
609.68	12.71
610.015	12.65
610.35	12.68
610.685	12.59
611.02	12.61
611.355	12.42
611.689	12.66
612.024	12.65
612.359	12.53
612.694	12.77
613.028	12.88
613.363	12.86
613.697	12.93
614.032	12.97
614.366	12.79
614.7	12.63
615.035	13.3
615.369	13.26
615.703	13.36
616.037	13.1
616.371	13.22
616.705	13.29
617.039	13.42
617.373	13.48
617.707	13.51
618.041	13.12
618.375	13.49
618.709	13.55
619.042	13.65
619.376	13.25
619.71	13.59
620.043	13.47
620.377	13.47
620.71	13.68
621.043	13.78
621.377	13.6
621.71	13.84
622.043	13.83
622.376	14.08
622.709	13.87
623.043	13.93
623.376	13.85
623.709	14.29
624.041	14.26
624.374	14.04
624.707	14.02
625.04	14.05
625.373	14.11
625.705	14.08
626.038	14.38
626.37	14.25
626.703	14.37
627.035	14.17
627.368	14.37
627.7	14.14
628.032	14.26
628.365	14.58
628.697	14.53
629.029	14.55
629.361	14.64
629.693	14.42
630.025	14.58
630.357	14.57
630.689	14.66
631.021	14.64
631.353	14.61
631.684	15.1
632.016	14.9
632.348	14.84
632.679	14.96
633.011	15.01
633.342	14.84
633.674	15.29
634.005	15.25
634.336	15.25
634.668	14.84
634.999	14.95
635.33	15.13
635.661	15.64
635.992	15.31
636.323	15.58
636.654	15.51
636.985	15.5
637.316	15.53
637.647	15.5
637.977	15.45
638.308	15.44
638.639	15.33
638.969	15.84
639.3	15.7
639.63	15.89
639.961	15.76
640.291	15.97
640.622	16.17
640.952	15.97
641.282	15.87
641.612	15.76
641.943	16.4
642.273	16.09
642.603	16.05
642.933	15.91
643.263	15.86
643.592	16.53
643.922	15.99
644.252	16.35
644.582	16.38
644.911	16.51
645.241	16.42
645.571	16.53
645.9	16.25
646.23	16.61
646.559	16.6
646.888	16.6
647.218	15.92
647.547	16.59
647.876	16.75
648.205	16.48
648.534	16.78
648.863	16.87
649.192	16.86
649.521	16.41
649.85	17.11
650.179	16.8
650.508	16.83
650.837	16.85
651.165	17.28
651.494	17.26
651.822	17.16
652.151	17.05
652.479	17.39
652.808	17.13
653.136	17.28
653.465	17.59
653.793	17.43
654.121	17.24
654.449	17.28
654.777	17.5
655.105	17.41
655.433	17.08
655.761	17.14
656.089	16.91
656.417	17.3
656.745	17.25
657.073	17.3
657.4	17.67
657.728	17.75
658.056	17.5
658.383	17.78
658.711	17.82
659.038	17.82
659.365	17.52
659.693	17.77
660.02	18.12
660.347	17.78
660.674	17.85
661.001	18.09
661.329	17.82
661.656	18.09
661.982	18.02
662.309	17.88
662.636	18.14
662.963	17.99
663.29	18.49
663.616	18.84
663.943	18.79
664.27	18.39
664.596	18.76
664.923	18.61
665.249	18.68
665.576	18.08
665.902	18.73
666.228	18.83
666.554	18.86
666.881	18.76
667.207	18.33
667.533	19.14
667.859	18.51
668.185	18.69
668.511	18.89
668.837	19.47
669.162	18.84
669.488	18.92
669.814	18.94
670.139	19.41
670.465	19.03
670.791	19.2
671.116	19.49
671.442	19.37
671.767	19.44
672.092	18.66
672.418	19.55
672.743	19.1
673.068	18.93
673.393	19.2
673.718	19.66
674.043	19.11
674.368	19.05
674.693	19.59
675.018	19.85
675.343	19.56
675.667	19.17
675.992	20.02
676.317	19.21
676.641	20.5
676.966	19.89
677.29	19.35
677.615	19.89
677.939	20.08
678.264	20.03
678.588	20.23
678.912	20.19
679.236	20.17
679.56	20.25
679.885	20.47
680.209	19.98
680.532	19.6
680.856	20.92
681.18	20.49
681.504	20.41
681.828	19.82
682.152	20.61
682.475	20.06
682.799	20.1
683.122	20.35
683.446	21.04
683.769	21.13
684.093	20.62
684.416	20.52
684.739	20.98
685.062	20.17
685.386	20.94
