Data from 1610-4_forehead_Reflection__7__63.txt Node

Date: Fri Nov 11 16:36:42 CST 2022
User: ToomeyLab
Spectrometer: FLMS14357
Trigger mode: 0
Integration Time (sec): 1.000000E-2
Scans to average: 100
Electric dark correction enabled: true
Nonlinearity correction enabled: false
Boxcar width: 0
XAxis mode: Wavelengths
Number of Pixels in Spectrum: 2048
>>>>>Begin Spectral Data<<<<<
189.047	30.47
189.435	30.47
189.823	30.47
190.211	-206.85
190.599	433.28
190.987	-938.05
191.375	165.7
191.763	279.61
192.151	126.4
192.538	-13.79
192.926	-120.28
193.314	441.88
193.702	39.46
194.089	1885.71
194.477	236.89
194.864	-165.55
195.252	60.35
195.639	117.06
196.027	78.37
196.414	267.53
196.801	-120.05
197.189	14.33
197.576	-687.53
197.963	-55.13
198.351	53.07
198.738	-2.33
199.125	41.91
199.512	45.33
199.899	8.01
200.286	34.76
200.673	29.09
201.06	-8.02
201.447	28.41
201.833	29.36
202.22	25.86
202.607	38.57
202.994	17.3
203.38	11.16
203.767	52.57
204.154	27.32
204.54	25.61
204.927	30.26
205.313	36.44
205.699	34.26
206.086	39.34
206.472	12.37
206.858	-1.68
207.245	7.31
207.631	0.32
208.017	11.51
208.403	16.23
208.789	-20.62
209.175	30.8
209.561	11.66
209.947	25.45
210.333	-0.69
210.719	34.44
211.105	22.45
211.491	-177.2
211.876	36.41
212.262	-9.72
212.648	31.12
213.034	-0.55
213.419	10.33
213.805	30.24
214.19	-8.02
214.576	29.86
214.961	24.39
215.346	-4.22
215.732	2.8
216.117	30.42
216.502	14.61
216.888	25.93
217.273	24.12
217.658	7.18
218.043	-11.99
218.428	18.35
218.813	20.26
219.198	-56.03
219.583	1.73
219.968	17.7
220.353	9.48
220.738	-22.11
221.122	-7.55
221.507	7.5
221.892	-0.64
222.276	16.21
222.661	28.7
223.046	14.35
223.43	-0.55
223.815	-9.9
224.199	11.55
224.583	5.39
224.968	6.37
225.352	-1.36
225.736	10.27
226.121	7
226.505	7.41
226.889	6.26
227.273	5.29
227.657	1.71
228.041	4.56
228.425	4.81
228.809	6.49
229.193	-0.38
229.577	4.06
229.961	3.44
230.344	3.29
230.728	3.32
231.112	3.27
231.495	3.11
231.879	3.12
232.263	2.66
232.646	2.88
233.03	1.85
233.413	4.14
233.797	2.08
234.18	2.76
234.563	3.6
234.946	1.37
235.33	4.02
235.713	2.59
236.096	2.11
236.479	3.7
236.862	5.46
237.245	4.98
237.628	3.89
238.011	4.47
238.394	5.14
238.777	3.24
239.16	3.31
239.543	3.55
239.925	6.03
240.308	3.76
240.691	2.17
241.073	3.26
241.456	2.38
241.838	4
242.221	3.21
242.603	3.98
242.986	3.36
243.368	3.1
243.75	3.92
244.133	3.21
244.515	3.46
244.897	3.61
245.279	3.4
245.661	3.36
246.043	4.12
246.425	3.85
246.807	3.6
247.189	2.81
247.571	3.2
247.953	3.33
248.335	3.6
248.717	3.37
249.098	3.45
249.48	3.53
249.862	3.11
250.243	3.47
250.625	3.53
251.006	3.95
251.388	3.68
251.769	3.99
252.151	3.61
252.532	3.56
252.913	3.28
253.295	3.38
253.676	3.33
254.057	3.26
254.438	3.45
254.819	3.69
255.2	4.3
255.581	4.15
255.962	3.62
256.343	4.71
256.724	3.77
257.105	4.15
257.486	4.65
257.867	4.07
258.247	4.33
258.628	4.04
259.009	3.67
259.389	4.07
259.77	4.79
260.15	4.12
260.531	3.5
260.911	3.65
261.292	3.77
261.672	3.55
262.052	3.51
262.432	3.7
262.813	3.45
263.193	3.12
263.573	4.19
263.953	3.67
264.333	4.06
264.713	3.04
265.093	3.61
265.473	4.29
265.853	2.77
266.233	3.47
266.612	2.82
266.992	3.76
267.372	3.13
267.752	4.03
268.131	3.73
268.511	3.68
268.89	3.89
269.27	3.66
269.649	2.89
270.029	3.4
270.408	3.18
270.787	3.9
271.167	3.65
271.546	3.94
271.925	4.08
272.304	3.6
272.683	3.69
273.062	3.41
273.441	3.05
273.82	3.35
274.199	3.46
274.578	3.58
274.957	3.32
275.336	3.36
275.715	3.45
276.093	4.22
276.472	3.15
276.851	3.46
277.229	3.54
277.608	3.61
277.986	3.37
278.365	3.89
278.743	3.34
279.122	3.3
279.5	3.1
279.878	3.61
280.257	3.55
280.635	3.11
281.013	3.76
281.391	3.7
281.769	4.44
282.147	3.51
282.525	3.94
282.903	3.66
283.281	3.71
283.659	3.55
284.037	3.32
284.415	3.66
284.792	3.79
285.17	3.51
285.548	3.66
285.925	3.69
286.303	3.34
286.68	3.55
287.058	3.62
287.435	3.87
287.813	3.22
288.19	3.69
288.567	3.74
288.945	3.37
289.322	3.84
289.699	3.75
290.076	3.51
290.453	3.63
290.83	3.93
291.207	3.79
291.584	3.62
291.961	3.56
292.338	3.81
292.715	3.84
293.092	3.82
293.469	4.49
293.845	4.11
294.222	4.39
294.599	4.34
294.975	4.19
295.352	4.01
295.728	4.12
296.105	4.24
296.481	4.02
296.858	4.09
297.234	4.67
297.61	4.24
297.986	3.97
298.363	4.19
298.739	4.36
299.115	4.22
299.491	4.52
299.867	4.22
300.243	4.3
300.619	4.6
300.995	4.37
301.371	4.55
301.746	4.85
302.122	4.47
302.498	4.6
302.874	4.51
303.249	4.7
303.625	4.45
304	4.41
304.376	4.99
304.751	5.15
305.127	5.12
305.502	5.12
305.878	5.37
306.253	5.05
306.628	5.14
307.003	5.29
307.378	5.38
307.754	5.44
308.129	5.38
308.504	5.41
308.879	5.14
309.254	5.23
309.629	5.35
310.003	5.45
310.378	5.24
310.753	5.26
311.128	5.77
311.502	5.04
311.877	5.61
312.252	5.44
312.626	5.66
313.001	5.33
313.375	5.67
313.75	5.87
314.124	5.9
314.498	5.76
314.873	5.63
315.247	5.58
315.621	5.8
315.995	5.65
316.369	6.52
316.743	6.19
317.117	6.09
317.491	6.15
317.865	5.98
318.239	6.41
318.613	5.96
318.987	6.56
319.361	6.24
319.734	5.62
320.108	6.72
320.482	5.93
320.855	6.56
321.229	7.29
321.602	6.86
321.976	6.28
322.349	6.5
322.723	6.83
323.096	7.45
323.469	7.18
323.843	7.39
324.216	6.77
324.589	7.22
324.962	6.67
325.335	7.05
325.708	6.99
326.081	7.04
326.454	7
326.827	7.37
327.2	7.66
327.573	7.59
327.945	7.34
328.318	7.54
328.691	7.39
329.063	7.56
329.436	7.47
329.809	7.26
330.181	7.91
330.553	7.43
330.926	7.39
331.298	7.77
331.671	8.06
332.043	8.25
332.415	7.48
332.787	7.79
333.159	7.92
333.532	8.02
333.904	7.94
334.276	7.99
334.648	7.99
335.02	8.36
335.391	7.82
335.763	7.68
336.135	8.16
336.507	8.21
336.879	8.31
337.25	7.46
337.622	8.28
337.993	7.95
338.365	8.01
338.736	8.76
339.108	8.41
339.479	9.07
339.851	8.28
340.222	8.23
340.593	8.07
340.964	8.45
341.336	8.53
341.707	8.51
342.078	8.59
342.449	8.91
342.82	8.39
343.191	9.14
343.562	9.01
343.933	8.11
344.303	8.96
344.674	9
345.045	8.42
345.416	8.87
345.786	8.65
346.157	8.85
346.527	9.14
346.898	8.76
347.268	9.12
347.639	8.98
348.009	9.22
348.38	9.35
348.75	9.34
349.12	9.3
349.49	9.27
349.861	9.35
350.231	9.02
350.601	9.56
350.971	9.31
351.341	9.44
351.711	9.84
352.081	9.11
352.45	9.21
352.82	9.78
353.19	9.73
353.56	9.88
353.929	9.7
354.299	9.65
354.669	9.52
355.038	9.8
355.408	9.47
355.777	9.85
356.147	9.88
356.516	10.17
356.885	9.97
357.254	10.02
357.624	9.57
357.993	10.01
358.362	10.33
358.731	9.87
359.1	9.93
359.469	10.11
359.838	10.3
360.207	10.2
360.576	10.36
360.945	10.24
361.314	10.23
361.682	10.26
362.051	10.21
362.42	10.17
362.788	10.46
363.157	10.36
363.525	10.36
363.894	10.4
364.262	10.3
364.631	10.58
364.999	10.48
365.367	10.76
365.735	10.85
366.104	10.63
366.472	10.84
366.84	10.85
367.208	10.83
367.576	10.92
367.944	11.06
368.312	10.95
368.68	11.3
369.048	10.76
369.416	10.88
369.783	10.69
370.151	11.35
370.519	11.46
370.886	11.17
371.254	11.22
371.621	11.26
371.989	11.2
372.356	10.91
372.724	11.46
373.091	11.33
373.458	11.31
373.826	11.73
374.193	11.43
374.56	11.56
374.927	11.61
375.294	11.74
375.661	11.99
376.028	11.59
376.395	11.91
376.762	11.71
377.129	11.95
377.496	11.82
377.863	11.88
378.229	12.12
378.596	11.88
378.963	11.82
379.329	12.05
379.696	11.94
380.062	11.96
380.429	11.99
380.795	12.1
381.161	12.12
381.528	12.21
381.894	12.38
382.26	12.52
382.626	12.33
382.993	12.37
383.359	12.44
383.725	12.51
384.091	12.39
384.457	12.56
384.823	12.38
385.188	12.54
385.554	12.47
385.92	12.21
386.286	12.65
386.651	12.73
387.017	12.48
387.383	12.63
387.748	12.56
388.114	12.76
388.479	12.56
388.845	12.74
389.21	13.02
389.575	12.95
389.94	12.91
390.306	12.95
390.671	13.09
391.036	13.1
391.401	13.06
391.766	13.21
392.131	13.01
392.496	13.14
392.861	13.1
393.226	13.06
393.591	13.35
393.956	13.44
394.32	13.44
394.685	13.23
395.05	13.62
395.414	13.54
395.779	13.39
396.143	13.64
396.508	13.38
396.872	13.61
397.236	13.64
397.601	13.85
397.965	13.77
398.329	13.73
398.694	13.53
399.058	13.71
399.422	14.07
399.786	13.88
400.15	13.87
400.514	14.03
400.878	14.09
401.242	14.06
401.605	14.09
401.969	14.04
402.333	14.1
402.697	14.13
403.06	14.2
403.424	14.11
403.787	14.24
404.151	14.2
404.514	14.38
404.878	14.5
405.241	14.38
405.604	14.5
405.968	14.5
406.331	14.13
406.694	14.38
407.057	14.49
407.42	14.53
407.783	14.55
408.146	14.75
408.509	14.55
408.872	14.81
409.235	15.01
409.598	14.79
409.961	14.62
410.323	14.99
410.686	15.01
411.049	14.96
411.411	15.07
411.774	14.95
412.136	14.89
412.499	15.04
412.861	14.89
413.223	14.95
413.586	14.95
413.948	14.96
414.31	15.23
414.672	15.3
415.035	15.21
415.397	15.15
415.759	15.53
416.121	15.56
416.483	15.26
416.845	15.27
417.206	15.48
417.568	15.4
417.93	15.42
418.292	15.38
418.653	15.69
419.015	15.6
419.377	15.69
419.738	15.51
420.1	15.42
420.461	15.53
420.822	15.39
421.184	15.35
421.545	15.41
421.906	15.64
422.267	15.64
422.629	15.59
422.99	15.59
423.351	15.6
423.712	15.62
424.073	15.68
424.434	15.69
424.795	15.9
425.155	15.88
425.516	15.82
425.877	15.84
426.238	15.85
426.598	15.86
426.959	15.99
427.32	16.08
427.68	16.1
428.041	16.34
428.401	16.23
428.761	16.25
429.122	16.23
429.482	16.55
429.842	16.4
430.202	16.42
430.563	16.53
430.923	16.49
431.283	16.61
431.643	16.81
432.003	16.98
432.363	16.79
432.722	16.85
433.082	16.83
433.442	16.94
433.802	16.94
434.161	16.97
434.521	17.1
434.881	16.87
435.24	17.1
435.6	16.98
435.959	16.99
436.319	17.01
436.678	17.12
437.037	17.16
437.396	17
437.756	17.26
438.115	17.05
438.474	17.25
438.833	17.32
439.192	17.5
439.551	17.45
439.91	17.38
440.269	17.5
440.628	17.45
440.987	17.59
441.345	17.54
441.704	17.64
442.063	17.56
442.421	17.49
442.78	17.43
443.138	17.62
443.497	17.54
443.855	17.68
444.214	17.65
444.572	17.79
444.93	17.94
445.288	18.01
445.647	17.97
446.005	18
446.363	17.97
446.721	17.94
447.079	17.99
447.437	17.92
447.795	17.78
448.153	18.05
448.51	17.88
448.868	17.99
449.226	17.92
449.584	18.03
449.941	18.02
450.299	18.11
450.656	18.22
451.014	18.33
451.371	18.49
451.729	18.44
452.086	18.37
452.443	18.59
452.801	18.63
453.158	18.83
453.515	18.74
453.872	18.76
454.229	18.71
454.586	18.87
454.943	18.76
455.3	18.83
455.657	19.02
456.014	18.92
456.371	18.91
456.727	19.09
457.084	19.09
457.441	19.37
457.797	19.13
458.154	19.35
458.51	19.05
458.867	19.31
459.223	19.35
459.58	19.53
459.936	19.43
460.292	19.28
460.648	19.12
461.005	19.39
461.361	19.19
461.717	19.21
462.073	19.2
462.429	19.26
462.785	19.32
463.141	19.42
463.496	19.49
463.852	19.49
464.208	19.73
464.564	19.53
464.919	19.7
465.275	19.94
465.631	19.98
465.986	20.07
466.342	20.08
466.697	20.08
467.052	20.05
467.408	20.05
467.763	20.01
468.118	20.14
468.473	20.15
468.829	20.23
469.184	20.19
469.539	20.27
469.894	20.18
470.249	20.16
470.603	20.31
470.958	20.49
471.313	20.47
471.668	20.64
472.023	20.5
472.377	20.48
472.732	20.48
473.086	20.46
473.441	20.61
473.795	20.55
474.15	20.68
474.504	20.93
474.859	20.86
475.213	20.86
475.567	20.96
475.921	20.98
476.275	20.97
476.63	20.95
476.984	21.02
477.338	21
477.692	21.05
478.045	20.97
478.399	21.02
478.753	20.99
479.107	21.24
479.461	21.04
479.814	21.24
480.168	21.32
480.521	21.19
480.875	21.19
481.228	21.26
481.582	21.31
481.935	21.41
482.289	21.45
482.642	21.27
482.995	21.4
483.348	21.29
483.701	21.38
484.055	21.27
484.408	21.26
484.761	21.09
485.114	20.97
485.466	20.93
485.819	20.89
486.172	20.73
486.525	20.76
486.878	20.87
487.23	20.86
487.583	21.16
487.936	21.27
488.288	21.27
488.641	21.33
488.993	21.28
489.345	21.25
489.698	21.4
490.05	21.22
490.402	21.34
490.754	21.32
491.107	21.51
491.459	21.66
491.811	21.67
492.163	21.81
492.515	21.97
492.866	21.87
493.218	21.68
493.57	21.64
493.922	21.7
494.274	21.76
494.625	21.83
494.977	22.07
495.328	22.14
495.68	22.4
496.031	22.43
496.383	22.69
496.734	22.77
497.086	22.75
497.437	22.66
497.788	22.9
498.139	22.69
498.49	22.68
498.842	22.79
499.193	22.7
499.544	22.7
499.894	23.08
500.245	22.99
500.596	23.01
500.947	23.09
501.298	23.11
501.648	23.32
501.999	23.11
502.35	23.21
502.7	23.59
503.051	23.34
503.401	23.51
503.752	23.37
504.102	23.58
504.452	23.61
504.803	23.49
505.153	23.69
505.503	23.7
505.853	23.76
506.203	23.87
506.553	23.77
506.903	23.63
507.253	23.77
507.603	23.72
507.953	24.02
508.303	23.96
508.652	23.78
509.002	24
509.352	24.05
509.701	24.08
510.051	23.89
510.4	23.81
510.75	24.05
511.099	24.21
511.449	24.04
511.798	24.07
512.147	24.15
512.496	24.18
512.846	24.24
513.195	24.01
513.544	24.33
513.893	24.28
514.242	24.3
514.591	24.22
514.939	24.37
515.288	24.4
515.637	24.39
515.986	24.59
516.334	24.63
516.683	24.63
517.032	24.71
517.38	24.75
517.729	24.81
518.077	24.76
518.426	24.88
518.774	24.78
519.122	24.77
519.47	24.82
519.819	24.75
520.167	24.71
520.515	24.71
520.863	24.73
521.211	24.62
521.559	24.81
521.907	25.01
522.255	25.03
522.602	25.09
522.95	25.18
523.298	25.14
523.645	25.33
523.993	25.37
524.341	25.51
524.688	25.44
525.036	25.34
525.383	25.44
525.73	25.51
526.078	25.31
526.425	25.5
526.772	25.61
527.119	25.53
527.466	25.36
527.814	25.35
528.161	25.32
528.508	25.33
528.854	25.34
529.201	25.47
529.548	25.55
529.895	25.27
530.242	25.34
530.588	25.36
530.935	25.21
531.282	25.25
531.628	25.19
531.975	25.33
532.321	25.4
532.667	25.65
533.014	25.67
533.36	25.87
533.706	26.08
534.052	26.05
534.399	26.02
534.745	25.86
535.091	25.79
535.437	25.82
535.783	25.9
536.129	25.83
536.474	25.96
536.82	26.11
537.166	26.17
537.512	26.64
537.857	26.48
538.203	26.53
538.549	26.58
538.894	26.39
539.239	26.41
539.585	26.56
539.93	26.7
540.276	26.89
540.621	26.83
540.966	26.87
541.311	27
541.656	26.81
542.001	27.02
542.346	26.9
542.691	26.72
543.036	26.65
543.381	26.61
543.726	26.46
544.071	26.57
544.415	26.66
544.76	26.71
545.105	26.92
545.449	26.94
545.794	27.08
546.138	27.29
546.483	27.31
546.827	27.4
547.171	27.58
547.516	27.46
547.86	27.55
548.204	27.53
548.548	27.7
548.892	27.66
549.236	27.71
549.58	27.79
549.924	27.8
550.268	27.94
550.612	27.95
550.956	28.11
551.3	28.26
551.643	28.31
551.987	28.12
552.33	28.4
552.674	28.4
553.017	28.48
553.361	28.6
553.704	28.64
554.048	28.27
554.391	28.61
554.734	28.57
555.077	28.45
555.42	28.59
555.764	28.65
556.107	28.72
556.45	28.68
556.793	28.76
557.135	28.92
557.478	28.9
557.821	28.87
558.164	29.2
558.507	29.16
558.849	29.03
559.192	29.08
559.534	29.1
559.877	29.13
560.219	29.29
560.562	29.29
560.904	29.41
561.246	29.32
561.589	29.48
561.931	29.38
562.273	29.53
562.615	29.75
562.957	29.33
563.299	29.53
563.641	29.48
563.983	29.48
564.325	29.56
564.667	29.82
565.008	29.77
565.35	29.81
565.692	29.99
566.033	29.79
566.375	29.86
566.716	30
567.058	29.73
567.399	29.91
567.741	30.03
568.082	30.04
568.423	30
568.764	29.93
569.105	30.09
569.447	29.82
569.788	30.04
570.129	30.16
570.47	30.21
570.811	30.35
571.151	30.28
571.492	30.38
571.833	30.43
572.174	30.55
572.514	30.55
572.855	30.57
573.195	30.62
573.536	30.39
573.876	30.5
574.217	30.55
574.557	30.41
574.898	30.51
575.238	30.7
575.578	30.61
575.918	30.56
576.258	30.82
576.598	30.78
576.938	30.87
577.278	30.85
577.618	30.83
577.958	30.77
578.298	31
578.638	30.84
578.977	31.14
579.317	31.11
579.657	31.15
579.996	31.34
580.336	31.32
580.675	31.32
581.014	31.27
581.354	31.5
581.693	31.21
582.032	31.7
582.372	31.4
582.711	31.72
583.05	31.53
583.389	31.78
583.728	31.94
584.067	31.77
584.406	31.99
584.745	31.81
585.083	31.71
585.422	31.81
585.761	32.37
586.1	32.05
586.438	32.19
586.777	32.12
587.115	32.08
587.454	32.32
587.792	32.21
588.13	32.29
588.469	32.36
588.807	32.32
589.145	32.3
589.483	32.55
589.821	32.34
590.159	32.41
590.497	32.27
590.835	32.13
591.173	32.5
591.511	32.47
591.849	32.42
592.187	32.56
592.524	32.49
592.862	32.79
593.2	32.98
593.537	32.6
593.875	32.69
594.212	32.56
594.55	32.78
594.887	32.85
595.224	32.92
595.561	32.64
595.899	32.94
596.236	33.03
596.573	32.89
596.91	32.94
597.247	33.03
597.584	33.04
597.921	32.89
598.258	33.27
598.594	33.05
598.931	33.05
599.268	32.73
599.604	33
599.941	33.08
600.277	33.09
600.614	33.45
600.95	33.18
601.287	33.63
601.623	33.34
601.959	33.52
602.296	33.75
602.632	33.71
602.968	33.6
603.304	33.39
603.64	33.55
603.976	34.07
604.312	33.79
604.648	33.72
604.984	33.93
605.319	34.04
605.655	33.89
605.991	33.51
606.326	33.56
606.662	33.48
606.998	33.71
607.333	33.9
607.668	33.9
608.004	33.86
608.339	33.92
608.674	34.05
609.01	34.11
609.345	33.91
609.68	34.52
610.015	34.27
610.35	34.32
610.685	34.23
611.02	34.15
611.355	34.13
611.689	34.52
612.024	34.35
612.359	34.12
612.694	34.33
613.028	34.39
613.363	34.42
613.697	34.57
614.032	34.57
614.366	34.41
614.7	34.66
615.035	34.39
615.369	34.91
615.703	34.79
616.037	35.08
616.371	35.05
616.705	35.07
617.039	34.78
617.373	35.06
617.707	35.27
618.041	34.8
618.375	35.01
618.709	34.97
619.042	35.25
619.376	35.13
619.71	34.8
620.043	35.26
620.377	35.14
620.71	35.19
621.043	35.69
621.377	35.59
621.71	35.33
622.043	35.21
622.376	35.47
622.709	35.45
623.043	35.4
623.376	35.49
623.709	35.46
624.041	35.58
624.374	35.54
624.707	35.43
625.04	35.75
625.373	35.57
625.705	35.81
626.038	35.99
626.37	36.11
626.703	35.97
627.035	35.78
627.368	36.19
627.7	35.97
628.032	35.78
628.365	36.6
628.697	35.98
629.029	35.9
629.361	36.04
629.693	35.53
630.025	36.07
630.357	35.82
630.689	36.07
631.021	36.19
631.353	36.17
631.684	36.26
632.016	36.51
632.348	36.2
632.679	36.61
633.011	36.4
633.342	36.77
633.674	36.3
634.005	36.73
634.336	36.11
634.668	36.72
634.999	36.45
635.33	36.24
635.661	36.96
635.992	36.72
636.323	36.95
636.654	36.69
636.985	36.62
637.316	36.9
637.647	36.94
637.977	36.84
638.308	36.96
638.639	36.54
638.969	37.18
639.3	36.72
639.63	36.67
639.961	37.29
640.291	37.17
640.622	37.34
640.952	36.91
641.282	37.05
641.612	37.29
641.943	37.26
642.273	37.29
642.603	37.29
642.933	37.55
643.263	37.16
643.592	37.39
643.922	37.43
644.252	37.25
644.582	37.43
644.911	37.84
645.241	37.52
645.571	37.44
645.9	36.94
646.23	37.83
646.559	37.67
646.888	38.23
647.218	37.68
647.547	37.14
647.876	37.01
648.205	37.87
648.534	37.64
648.863	37.73
649.192	37.85
649.521	38.08
649.85	37.9
650.179	37.64
650.508	38.12
650.837	37.67
651.165	37.9
651.494	37.88
651.822	38.26
652.151	38.52
652.479	38.47
652.808	38.32
653.136	37.96
653.465	38.16
653.793	38.18
654.121	38.11
654.449	37.77
654.777	38.07
655.105	38.31
655.433	38.07
655.761	38.26
656.089	38.4
656.417	38.59
656.745	38.32
657.073	38.49
657.4	38.55
657.728	38.61
658.056	38.18
658.383	38.25
658.711	38.83
659.038	38.57
659.365	38.2
659.693	38.12
660.02	38.52
660.347	38.92
660.674	38.9
661.001	38.54
661.329	38.55
661.656	39.05
661.982	38.74
662.309	38.96
662.636	38.91
662.963	38.38
663.29	38.52
663.616	39.33
663.943	39.24
664.27	39.12
664.596	38.9
664.923	38.91
665.249	38.98
665.576	38.76
665.902	38.57
666.228	38.6
666.554	39.49
666.881	39.82
667.207	39.29
667.533	39.28
667.859	38.96
668.185	39.21
668.511	38.75
668.837	39.15
669.162	39.21
669.488	39.09
669.814	38.76
670.139	39.19
670.465	39.12
670.791	39.75
671.116	39.55
671.442	39.04
