Data from 1610-4_chest_Reflection__3__48.txt Node

Date: Fri Nov 11 16:31:05 CST 2022
User: ToomeyLab
Spectrometer: FLMS14357
Trigger mode: 0
Integration Time (sec): 1.000000E-2
Scans to average: 100
Electric dark correction enabled: true
Nonlinearity correction enabled: false
Boxcar width: 0
XAxis mode: Wavelengths
Number of Pixels in Spectrum: 2048
>>>>>Begin Spectral Data<<<<<
189.047	88.62
189.435	88.62
189.823	88.62
190.211	-50.4
190.599	278.23
190.987	481.86
191.375	-26.3
191.763	59.56
192.151	11.96
192.538	275.94
192.926	-889.86
193.314	422.77
193.702	-33.98
194.089	5021.43
194.477	1211.17
194.864	84
195.252	109.45
195.639	-280.52
196.027	-206.6
196.414	62.04
196.801	-122.67
197.189	206.91
197.576	-526.04
197.963	35.88
198.351	6.01
198.738	-47.97
199.125	20.23
199.512	70.47
199.899	13.18
200.286	12.68
200.673	25.44
201.06	2.03
201.447	23.07
201.833	49.29
202.22	27.37
202.607	23.02
202.994	19.2
203.38	16.93
203.767	28.67
204.154	11.23
204.54	68.4
204.927	8.01
205.313	33.75
205.699	35.5
206.086	31.81
206.472	-1.14
206.858	2.41
207.245	21.62
207.631	62.87
208.017	1.04
208.403	14.53
208.789	-38.69
209.175	25.26
209.561	2.95
209.947	15.56
210.333	16.26
210.719	36.23
211.105	-3.88
211.491	-167.63
211.876	19.46
212.262	1.55
212.648	-5.81
213.034	12.64
213.419	22.9
213.805	26.7
214.19	-15.91
214.576	20.8
214.961	-21.51
215.346	-42.99
215.732	-3.45
216.117	19.46
216.502	-6.71
216.888	24.15
217.273	-26.94
217.658	13.49
218.043	4.37
218.428	9.68
218.813	14.79
219.198	-15.86
219.583	-5.57
219.968	-0.33
220.353	-4.28
220.738	2.9
221.122	-16.59
221.507	6.74
221.892	8.34
222.276	5.86
222.661	4.49
223.046	4.12
223.43	13.66
223.815	1.25
224.199	8.76
224.583	0.76
224.968	3.74
225.352	-8.54
225.736	1.97
226.121	6.51
226.505	5.74
226.889	6.21
227.273	0.89
227.657	-0.21
228.041	0.15
228.425	4.54
228.809	3.34
229.193	0.84
229.577	1.71
229.961	2.39
230.344	3.21
230.728	3.01
231.112	2.47
231.495	2.86
231.879	2.23
232.263	2.06
232.646	2.98
233.03	3.49
233.413	2.76
233.797	2.62
234.18	2.12
234.563	3
234.946	0.82
235.33	0.84
235.713	2.41
236.096	1.29
236.479	3.04
236.862	3.67
237.245	3.19
237.628	1.82
238.011	2.75
238.394	3.14
238.777	3.97
239.16	3.57
239.543	3.68
239.925	3.87
240.308	0.83
240.691	3.15
241.073	2.46
241.456	1.27
241.838	2.85
242.221	2.56
242.603	2.24
242.986	2.5
243.368	2.51
243.75	2.88
244.133	2.64
244.515	2.81
244.897	2.85
245.279	2.93
245.661	3.18
246.043	3.52
246.425	3.55
246.807	3.5
247.189	2.01
247.571	1.72
247.953	2.84
248.335	3.14
248.717	2.85
249.098	2.98
249.48	2.96
249.862	2.94
250.243	2.8
250.625	3.04
251.006	2.89
251.388	2.94
251.769	2.89
252.151	2.95
252.532	3.35
252.913	3.22
253.295	2.55
253.676	3.15
254.057	3.11
254.438	3.36
254.819	2.65
255.2	2.91
255.581	3.21
255.962	2.32
256.343	3.97
256.724	2.15
257.105	3.47
257.486	4.4
257.867	2.78
258.247	4.22
258.628	2.73
259.009	3.11
259.389	2.89
259.77	3.58
260.15	3.38
260.531	2.97
260.911	2.95
261.292	3.01
261.672	2.84
262.052	2.91
262.432	3.32
262.813	2.97
263.193	3.23
263.573	3.23
263.953	2.7
264.333	3.22
264.713	2.54
265.093	3.07
265.473	3.5
265.853	2.55
266.233	2.88
266.612	2.66
266.992	2.93
267.372	2.88
267.752	2.67
268.131	2.99
268.511	2.87
268.89	3.3
269.27	2.53
269.649	2.46
270.029	2.52
270.408	2.74
270.787	3.25
271.167	2.92
271.546	3.32
271.925	3.37
272.304	2.84
272.683	2.95
273.062	3.11
273.441	2.72
273.82	2.35
274.199	3.18
274.578	2.99
274.957	2.96
275.336	3.15
275.715	2.69
276.093	3.68
276.472	2.48
276.851	2.86
277.229	2.58
277.608	2.7
277.986	3.03
278.365	3.39
278.743	2.72
279.122	2.41
279.5	3.15
279.878	3.11
280.257	3.13
280.635	3.08
281.013	2.4
281.391	2.57
281.769	3.41
282.147	2.43
282.525	3.08
282.903	3.02
283.281	3.02
283.659	2.67
284.037	2.79
284.415	2.84
284.792	2.79
285.17	2.7
285.548	2.99
285.925	2.99
286.303	3
286.68	2.78
287.058	2.73
287.435	2.85
287.813	2.77
288.19	2.86
288.567	3.03
288.945	2.73
289.322	2.54
289.699	3.05
290.076	2.96
290.453	2.81
290.83	3.1
291.207	3.09
291.584	2.72
291.961	2.72
292.338	3.12
292.715	3.17
293.092	3.19
293.469	3.29
293.845	3.51
294.222	3.58
294.599	3.32
294.975	3.12
295.352	3.32
295.728	3.29
296.105	3.18
296.481	2.85
296.858	3.53
297.234	3.36
297.61	3.25
297.986	3
298.363	3.36
298.739	3.32
299.115	3.31
299.491	3.25
299.867	2.82
300.243	3.24
300.619	3.22
300.995	3.18
301.371	3.23
301.746	3.35
302.122	3.33
302.498	3.16
302.874	3.34
303.249	3.55
303.625	3.25
304	3.66
304.376	3.48
304.751	3.94
305.127	3.66
305.502	3.5
305.878	3.78
306.253	3.64
306.628	3.73
307.003	3.42
307.378	3.62
307.754	3.71
308.129	3.9
308.504	3.29
308.879	3.11
309.254	3.11
309.629	3.45
310.003	3.7
310.378	2.97
310.753	3.22
311.128	3.45
311.502	3.05
311.877	3.7
312.252	3.41
312.626	3.45
313.001	3.64
313.375	3.69
313.75	3.94
314.124	3.48
314.498	3.84
314.873	3.82
315.247	3.23
315.621	3.48
315.995	3.67
316.369	3.81
316.743	3.36
317.117	3.62
317.491	3.91
317.865	3.54
318.239	3.88
318.613	3.51
318.987	3.79
319.361	3.7
319.734	3.34
320.108	3.61
320.482	3.19
320.855	3.72
321.229	4.19
321.602	3.93
321.976	3.11
322.349	3.84
322.723	3.65
323.096	4.02
323.469	3.69
323.843	3.51
324.216	3.17
324.589	3.92
324.962	3.45
325.335	3.96
325.708	3.68
326.081	3.81
326.454	3.8
326.827	3.58
327.2	3.61
327.573	3.86
327.945	3.65
328.318	3.75
328.691	4.42
329.063	4
329.436	4.05
329.809	3.59
330.181	4.22
330.553	3.65
330.926	3.74
331.298	3.5
331.671	3.65
332.043	4.13
332.415	3.85
332.787	3.81
333.159	4.12
333.532	3.61
333.904	4.09
334.276	3.84
334.648	4.01
335.02	3.9
335.391	3.91
335.763	4.12
336.135	4.25
336.507	3.85
336.879	3.67
337.25	3.81
337.622	4.1
337.993	3.75
338.365	3.83
338.736	3.98
339.108	4.19
339.479	4.07
339.851	3.62
340.222	3.69
340.593	3.77
340.964	3.8
341.336	3.93
341.707	3.71
342.078	3.56
342.449	4.61
342.82	3.82
343.191	3.93
343.562	4.38
343.933	3.54
344.303	4.55
344.674	4.39
345.045	3.99
345.416	4.02
345.786	4.1
346.157	3.98
346.527	4.12
346.898	3.84
347.268	4.02
347.639	4.17
348.009	4.04
348.38	4.24
348.75	4.59
349.12	4.03
349.49	4.29
349.861	4.06
350.231	3.95
350.601	4.31
350.971	4.13
351.341	4.11
351.711	3.79
352.081	3.42
352.45	3.91
352.82	4.19
353.19	3.58
353.56	4.41
353.929	3.9
354.299	4.3
354.669	4.25
355.038	3.94
355.408	4.07
355.777	4.16
356.147	4
356.516	4.16
356.885	3.9
357.254	3.87
357.624	4.2
357.993	4.11
358.362	4.13
358.731	4.08
359.1	3.77
359.469	4.15
359.838	4.47
360.207	4.28
360.576	4.24
360.945	4.68
361.314	4.42
361.682	4.06
362.051	4.1
362.42	3.82
362.788	3.92
363.157	4.13
363.525	4.18
363.894	4.04
364.262	3.91
364.631	3.98
364.999	4.24
365.367	4.37
365.735	4.21
366.104	3.95
366.472	4.21
366.84	4.49
367.208	3.92
367.576	4.32
367.944	4.39
368.312	4.12
368.68	4.48
369.048	4.14
369.416	4
369.783	3.88
370.151	4.29
370.519	4.5
370.886	4.62
371.254	3.96
371.621	4.55
371.989	4.45
372.356	4.25
372.724	4.34
373.091	4.27
373.458	4.15
373.826	4.48
374.193	4
374.56	4.28
374.927	4.39
375.294	4.21
375.661	4.57
376.028	4.24
376.395	4.51
376.762	4.35
377.129	4.24
377.496	4.21
377.863	4.18
378.229	4.46
378.596	4.27
378.963	4.43
379.329	4.23
379.696	4.35
380.062	4.29
380.429	4.15
380.795	4.34
381.161	4.46
381.528	4.32
381.894	4.57
382.26	4.4
382.626	4.41
382.993	4.58
383.359	4.41
383.725	4.34
384.091	4.34
384.457	4.35
384.823	4.35
385.188	4.38
385.554	4.67
385.92	4.43
386.286	4.42
386.651	4.21
387.017	4.5
387.383	4.26
387.748	4.28
388.114	4.22
388.479	4.4
388.845	4.49
389.21	4.3
389.575	4.25
389.94	4.67
390.306	4.33
390.671	4.25
391.036	4.37
391.401	4.58
391.766	4.54
392.131	4.23
392.496	4.41
392.861	4.31
393.226	4.4
393.591	4.36
393.956	4.53
394.32	4.58
394.685	4.61
395.05	4.63
395.414	4.63
395.779	4.17
396.143	4.47
396.508	4.27
396.872	4.51
397.236	4.35
397.601	4.61
397.965	4.62
398.329	4.41
398.694	4.39
399.058	4.58
399.422	4.6
399.786	4.56
400.15	4.45
400.514	4.45
400.878	4.48
401.242	4.62
401.605	4.55
401.969	4.85
402.333	4.56
402.697	4.45
403.06	4.44
403.424	4.42
403.787	4.69
404.151	4.46
404.514	4.62
404.878	4.86
405.241	4.54
405.604	4.49
405.968	4.72
406.331	4.51
406.694	4.66
407.057	4.59
407.42	4.65
407.783	4.45
408.146	4.66
408.509	4.67
408.872	4.91
409.235	4.52
409.598	4.51
409.961	4.63
410.323	4.58
410.686	4.67
411.049	4.61
411.411	4.8
411.774	4.56
412.136	4.78
412.499	4.77
412.861	4.64
413.223	4.78
413.586	4.56
413.948	4.65
414.31	4.74
414.672	4.79
415.035	4.79
415.397	4.64
415.759	4.67
416.121	4.75
416.483	4.47
416.845	4.71
417.206	4.67
417.568	4.76
417.93	4.51
418.292	4.48
418.653	4.72
419.015	4.52
419.377	4.75
419.738	4.7
420.1	4.67
420.461	4.61
420.822	4.47
421.184	4.54
421.545	4.57
421.906	4.65
422.267	4.67
422.629	4.57
422.99	4.57
423.351	4.57
423.712	4.62
424.073	4.69
424.434	4.68
424.795	4.88
425.155	4.65
425.516	4.7
425.877	4.65
426.238	4.6
426.598	4.69
426.959	4.71
427.32	4.79
427.68	4.75
428.041	4.69
428.401	4.6
428.761	4.73
429.122	4.94
429.482	4.99
429.842	4.84
430.202	4.74
430.563	4.72
430.923	4.94
431.283	4.82
431.643	5.02
432.003	5.03
432.363	4.93
432.722	4.86
433.082	4.85
433.442	4.8
433.802	5.02
434.161	4.91
434.521	4.9
434.881	4.73
435.24	4.84
435.6	4.73
435.959	4.88
436.319	4.74
436.678	4.78
437.037	4.92
437.396	4.72
437.756	4.92
438.115	4.7
438.474	4.85
438.833	4.83
439.192	4.96
439.551	4.84
439.91	4.93
440.269	4.94
440.628	4.94
440.987	5.03
441.345	4.98
441.704	4.85
442.063	5.06
442.421	4.93
442.78	4.93
443.138	4.81
443.497	4.85
443.855	4.88
444.214	4.89
444.572	4.98
444.93	4.96
445.288	5.12
445.647	4.95
446.005	5.06
446.363	4.9
446.721	4.9
447.079	4.93
447.437	4.95
447.795	4.78
448.153	4.93
448.51	4.88
448.868	4.91
449.226	4.99
449.584	4.99
449.941	4.93
450.299	5.05
450.656	5.07
451.014	5.13
451.371	5.02
451.729	5.07
452.086	5.03
452.443	5.13
452.801	5.05
453.158	5.03
453.515	5.03
453.872	5.02
454.229	5.06
454.586	5.12
454.943	5.13
455.3	5.1
455.657	5.08
456.014	4.94
456.371	5.02
456.727	5.3
457.084	5.1
457.441	5.15
457.797	5.13
458.154	5
458.51	5.18
458.867	5.23
459.223	5.08
459.58	5.36
459.936	5.33
460.292	5.14
460.648	5.13
461.005	5.15
461.361	5.08
461.717	5.04
462.073	5.11
462.429	5.19
462.785	5.07
463.141	5.16
463.496	5.13
463.852	5.31
464.208	5.29
464.564	5.32
464.919	5.2
465.275	5.32
465.631	5.42
465.986	5.27
466.342	5.47
466.697	5.41
467.052	5.38
467.408	5.45
467.763	5.31
468.118	5.33
468.473	5.29
468.829	5.33
469.184	5.53
469.539	5.4
469.894	5.34
470.249	5.45
470.603	5.31
470.958	5.5
471.313	5.38
471.668	5.39
472.023	5.61
472.377	5.54
472.732	5.49
473.086	5.34
473.441	5.42
473.795	5.42
474.15	5.41
474.504	5.54
474.859	5.42
475.213	5.59
475.567	5.55
475.921	5.61
476.275	5.54
476.63	5.48
476.984	5.57
477.338	5.49
477.692	5.4
478.045	5.45
478.399	5.52
478.753	5.51
479.107	5.43
479.461	5.44
479.814	5.59
480.168	5.65
480.521	5.63
480.875	5.51
481.228	5.54
481.582	5.58
481.935	5.6
482.289	5.65
482.642	5.57
482.995	5.56
483.348	5.48
483.701	5.56
484.055	5.5
484.408	5.49
484.761	5.36
485.114	5.26
485.466	5.26
485.819	5.23
486.172	5.26
486.525	5.36
486.878	5.4
487.23	5.42
487.583	5.5
487.936	5.44
488.288	5.48
488.641	5.49
488.993	5.43
489.345	5.41
489.698	5.41
490.05	5.39
490.402	5.42
490.754	5.57
491.107	5.53
491.459	5.67
491.811	5.53
492.163	5.67
492.515	5.63
492.866	5.58
493.218	5.44
493.57	5.49
493.922	5.57
494.274	5.68
494.625	5.67
494.977	5.72
495.328	5.75
495.68	5.72
496.031	5.81
496.383	5.92
496.734	5.92
497.086	5.87
497.437	5.86
497.788	5.96
498.139	5.88
498.49	5.84
498.842	5.92
499.193	5.86
499.544	5.88
499.894	5.97
500.245	5.95
500.596	6.02
500.947	6.02
501.298	6.05
501.648	6.09
501.999	6.09
502.35	6.05
502.7	6.07
503.051	6.09
503.401	6.06
503.752	5.97
504.102	6.09
504.452	5.98
504.803	5.98
505.153	6.1
505.503	6.16
505.853	6.05
506.203	6.24
506.553	6.32
506.903	6.06
507.253	6.21
507.603	6.29
507.953	6.25
508.303	6.21
508.652	6.07
509.002	6.18
509.352	6.25
509.701	6.3
510.051	6.22
510.4	6.21
510.75	6.18
511.099	6.24
511.449	6.24
511.798	6.25
512.147	6.38
512.496	6.35
512.846	6.28
513.195	6.25
513.544	6.35
513.893	6.39
514.242	6.45
514.591	6.35
514.939	6.37
515.288	6.47
515.637	6.38
515.986	6.55
516.334	6.49
516.683	6.41
517.032	6.5
517.38	6.56
517.729	6.64
518.077	6.46
518.426	6.62
518.774	6.5
519.122	6.63
519.47	6.47
519.819	6.54
520.167	6.48
520.515	6.55
520.863	6.52
521.211	6.59
521.559	6.6
521.907	6.71
522.255	6.63
522.602	6.73
522.95	6.78
523.298	6.62
523.645	6.8
523.993	6.83
524.341	6.71
524.688	6.83
525.036	6.94
525.383	6.9
525.73	6.82
526.078	6.92
526.425	6.79
526.772	6.89
527.119	6.82
527.466	6.73
527.814	6.78
528.161	6.81
528.508	6.88
528.854	6.91
529.201	6.9
529.548	6.88
529.895	6.73
530.242	6.73
530.588	6.67
530.935	6.74
531.282	6.86
531.628	6.86
531.975	6.88
532.321	6.93
532.667	7.02
533.014	7.07
533.36	6.94
533.706	7.14
534.052	7.08
534.399	7.13
534.745	7.09
535.091	6.97
535.437	7.08
535.783	7.07
536.129	7.16
536.474	7.31
536.82	7.27
537.166	7.24
537.512	7.38
537.857	7.35
538.203	7.38
538.549	7.33
538.894	7.37
539.239	7.38
539.585	7.51
539.93	7.56
540.276	7.64
540.621	7.6
540.966	7.65
541.311	7.68
541.656	7.57
542.001	7.7
542.346	7.62
542.691	7.51
543.036	7.48
543.381	7.5
543.726	7.52
544.071	7.55
544.415	7.66
544.76	7.65
545.105	7.73
545.449	7.73
545.794	7.77
546.138	7.84
546.483	7.91
546.827	7.95
547.171	7.98
547.516	7.95
547.86	7.98
548.204	7.93
548.548	8
548.892	8.03
549.236	8.12
549.58	8.22
549.924	8.26
550.268	8.24
550.612	8.3
550.956	8.32
551.3	8.38
551.643	8.39
551.987	8.35
552.33	8.34
552.674	8.42
553.017	8.39
553.361	8.52
553.704	8.52
554.048	8.45
554.391	8.47
554.734	8.53
555.077	8.78
555.42	8.73
555.764	8.55
556.107	8.74
556.45	8.7
556.793	8.7
557.135	8.79
557.478	8.72
557.821	8.88
558.164	8.96
558.507	8.88
558.849	8.96
559.192	9.11
559.534	8.93
559.877	9.08
560.219	9.29
560.562	9.1
560.904	9
561.246	9.12
561.589	9.24
561.931	9.21
562.273	9.34
562.615	9.39
562.957	9.4
563.299	9.27
563.641	9.48
563.983	9.5
564.325	9.27
564.667	9.35
565.008	9.43
565.35	9.42
565.692	9.5
566.033	9.41
566.375	9.59
566.716	9.58
567.058	9.68
567.399	9.69
567.741	9.88
568.082	9.7
568.423	9.7
568.764	9.79
569.105	9.79
569.447	9.74
569.788	9.85
570.129	9.86
570.47	9.85
570.811	10.14
571.151	10.06
571.492	10.08
571.833	10.12
572.174	10.16
572.514	10.21
572.855	10.28
573.195	10.2
573.536	10.18
573.876	10.2
574.217	10.19
574.557	10.15
574.898	10.42
575.238	10.41
575.578	10.48
575.918	10.27
576.258	10.4
576.598	10.53
576.938	10.59
577.278	10.62
577.618	10.78
577.958	10.71
578.298	10.77
578.638	10.84
578.977	10.73
579.317	10.68
579.657	10.85
579.996	10.84
580.336	10.98
580.675	10.93
581.014	11.02
581.354	10.97
581.693	11.09
582.032	11.08
582.372	11.23
582.711	11.39
583.05	11.32
583.389	11.53
583.728	11.33
584.067	11.41
584.406	11.26
584.745	11.52
585.083	11.42
585.422	11.82
585.761	11.71
586.1	11.64
586.438	11.64
586.777	11.75
587.115	11.7
587.454	11.77
587.792	11.9
588.13	12.01
588.469	12.02
588.807	12
589.145	12.17
589.483	12.04
589.821	12.18
590.159	12.31
590.497	12.21
590.835	12.08
591.173	12.23
591.511	12.27
591.849	12.09
592.187	12.26
592.524	12.12
592.862	12.57
593.2	12.51
593.537	12.19
593.875	12.39
594.212	12.54
594.55	12.47
594.887	12.6
595.224	12.91
595.561	12.71
595.899	12.76
596.236	12.79
596.573	12.84
596.91	12.8
597.247	12.74
597.584	12.72
597.921	13.01
598.258	12.85
598.594	12.89
598.931	13.01
599.268	12.94
599.604	13.22
599.941	13.03
600.277	13.09
600.614	13.4
600.95	13.24
601.287	13.73
601.623	13.46
601.959	13.43
602.296	13.42
602.632	13.39
602.968	13.58
603.304	13.6
603.64	13.61
603.976	13.82
604.312	13.72
604.648	13.7
604.984	13.91
605.319	13.73
605.655	13.86
605.991	13.74
606.326	13.88
606.662	13.71
606.998	14.05
607.333	13.91
607.668	14.13
608.004	14.03
608.339	14.29
608.674	14.14
609.01	14.21
609.345	14.04
609.68	14.44
610.015	14.36
610.35	14.46
610.685	14.47
611.02	14.55
611.355	14.32
611.689	14.58
612.024	14.66
612.359	14.45
612.694	14.56
613.028	14.59
613.363	14.87
613.697	14.96
614.032	15.24
614.366	14.91
614.7	15.02
615.035	14.99
615.369	15.31
615.703	15.07
616.037	15.4
616.371	15.34
616.705	15.26
617.039	15.38
617.373	15.69
617.707	15.52
618.041	15.24
618.375	15.52
618.709	15.45
619.042	15.73
619.376	15.51
619.71	15.52
620.043	15.59
620.377	15.42
620.71	15.75
621.043	15.96
621.377	16.11
621.71	15.93
622.043	15.8
622.376	15.9
622.709	15.96
623.043	15.95
623.376	16.04
623.709	15.76
624.041	16.21
624.374	16.4
624.707	16.13
625.04	16.33
625.373	16.17
625.705	16.46
626.038	16.52
626.37	16.78
626.703	16.55
627.035	16.4
627.368	16.65
627.7	16.66
628.032	16.72
628.365	17
628.697	16.68
629.029	16.71
629.361	16.62
629.693	16.75
630.025	16.97
630.357	16.69
630.689	17.27
631.021	17.02
631.353	16.96
631.684	17.17
632.016	17.14
632.348	16.76
632.679	17.49
633.011	17.23
633.342	16.99
633.674	17.26
634.005	17.65
634.336	17.3
634.668	17.25
634.999	17.3
635.33	17.44
635.661	18.1
635.992	17.91
636.323	17.79
636.654	17.98
636.985	17.73
637.316	17.81
637.647	17.73
637.977	17.97
638.308	18.13
638.639	17.91
638.969	18.11
639.3	17.68
639.63	18.09
639.961	18.34
640.291	18.18
640.622	18.34
640.952	18.21
641.282	18.24
641.612	18.56
641.943	18.41
642.273	18.49
642.603	18.49
642.933	18.66
643.263	18.76
643.592	19.03
643.922	18.18
644.252	18.97
644.582	18.65
644.911	19.11
645.241	18.99
645.571	18.69
645.9	19.06
646.23	19.14
646.559	18.62
646.888	19.48
647.218	18.72
647.547	19.53
647.876	19.47
648.205	19.1
648.534	19.21
648.863	19.48
649.192	19.54
649.521	18.96
649.85	19.58
650.179	19.5
650.508	19.3
650.837	19.65
651.165	19.55
651.494	20.06
651.822	19.37
652.151	19.89
652.479	20.25
652.808	19.67
653.136	19.69
653.465	20
653.793	20.07
654.121	19.98
654.449	20.01
654.777	19.9
655.105	19.61
655.433	19.42
655.761	19.63
656.089	20.12
656.417	20.62
656.745	20.03
657.073	20.11
657.4	20.64
657.728	20.85
658.056	20.31
658.383	20.58
658.711	20.81
659.038	20.22
659.365	20.4
659.693	20.77
660.02	20.92
660.347	20.74
660.674	20.42
661.001	20.97
661.329	20.59
661.656	20.96
661.982	20.99
662.309	21.27
662.636	20.92
662.963	21.11
663.29	21.1
663.616	21.15
663.943	21.03
664.27	21.33
664.596	21.72
664.923	21.53
665.249	21.13
665.576	21.36
665.902	21.44
666.228	21.34
666.554	21.54
666.881	21.8
667.207	21.69
667.533	21.91
667.859	21.18
668.185	21.68
668.511	21.79
668.837	22.18
669.162	21.71
669.488	21.81
669.814	21.54
670.139	22.11
670.465	21.93
670.791	21.56
671.116	22.2
671.442	21.81
671.767	22.11
672.092	22.23
672.418	22.37
672.743	22.34
673.068	22.65
673.393	21.98
673.718	22.28
674.043	22.68
674.368	22.33
674.693	22.68
675.018	22.13
675.343	22.69
675.667	22.95
675.992	22.47
676.317	22.82
676.641	22.56
676.966	22.39
677.29	22.48
677.615	23.24
677.939	22.77
678.264	23.04
678.588	23.41
678.912	22.88
679.236	23.1
679.56	23.19
679.885	23.41
680.209	23.05
680.532	23
680.856	23.71
681.18	23.3
681.504	23.55
681.828	22.6
682.152	23.86
682.475	23.68
682.799	23.63
683.122	23.73
683.446	23.53
683.769	24.08
684.093	23.39
684.416	23.62
684.739	23.78
