Data from 0364_crown_Reflection__0__51.txt Node

Date: Mon Dec 11 18:21:30 CST 2023
User: ToomeyLab
Spectrometer: FLMS14357
Trigger mode: 0
Integration Time (sec): 1.000000E-2
Scans to average: 100
Electric dark correction enabled: true
Nonlinearity correction enabled: false
Boxcar width: 0
XAxis mode: Wavelengths
Number of Pixels in Spectrum: 2048
>>>>>Begin Spectral Data<<<<<
189.047	241.18
189.435	241.18
189.823	241.18
190.211	-1664.24
190.599	60.13
190.987	-121.39
191.375	59.9
191.763	47.05
192.151	1104.71
192.538	158.38
192.926	166.12
193.314	29.74
193.702	85.8
194.089	-377.22
194.477	201.96
194.864	60.24
195.252	-73.96
195.639	213.56
196.027	-4.14
196.414	137.68
196.801	53.61
197.189	-294.96
197.576	161.7
197.963	-68.68
198.351	22.36
198.738	6.08
199.125	-64.37
199.512	-3.39
199.899	6.61
200.286	14.52
200.673	-193.85
201.06	27.85
201.447	-37.74
201.833	1.93
202.22	24.87
202.607	-5.09
202.994	2.42
203.38	-13.18
203.767	18.22
204.154	44.56
204.54	-34.01
204.927	-82.05
205.313	17.21
205.699	-61.12
206.086	-27.02
206.472	12.14
206.858	-10.53
207.245	23.14
207.631	9.17
208.017	15
208.403	3.85
208.789	-85.34
209.175	17.55
209.561	-27.15
209.947	-5.22
210.333	22.95
210.719	12.39
211.105	10.93
211.491	14.35
211.876	11.84
212.262	-7.12
212.648	20.41
213.034	-14.2
213.419	-18.29
213.805	-18.46
214.19	7.1
214.576	-6.3
214.961	4.12
215.346	-13.37
215.732	-5.29
216.117	-1.15
216.502	-6.22
216.888	-4.03
217.273	19.22
217.658	-11.95
218.043	-0.01
218.428	2.29
218.813	-0.24
219.198	15.04
219.583	5.15
219.968	7.04
220.353	-29.49
220.738	4.56
221.122	-3.24
221.507	10.57
221.892	-0
222.276	-4.94
222.661	-17.78
223.046	4.44
223.43	11.51
223.815	-2.33
224.199	6.86
224.583	8.65
224.968	4.04
225.352	2.84
225.736	-2.47
226.121	1.7
226.505	-2.04
226.889	-0.48
227.273	1.87
227.657	8.43
228.041	6.45
228.425	3.29
228.809	1.07
229.193	3.79
229.577	5.16
229.961	2.83
230.344	5.14
230.728	4.33
231.112	5.05
231.495	4.72
231.879	5.65
232.263	4.98
232.646	3.61
233.03	4.57
233.413	4.62
233.797	5.1
234.18	3.19
234.563	4.07
234.946	5.35
235.33	7.39
235.713	5.27
236.096	5.1
236.479	5.88
236.862	4.36
237.245	4.24
237.628	4.44
238.011	2.77
238.394	3.14
238.777	5.71
239.16	5.92
239.543	5.68
239.925	4.2
240.308	4.88
240.691	4.98
241.073	4.75
241.456	4.73
241.838	6.45
242.221	5.59
242.603	3.58
242.986	4.69
243.368	4.21
243.75	4.45
244.133	5.28
244.515	4.86
244.897	4.94
245.279	4.91
245.661	4.88
246.043	5.36
246.425	4.98
246.807	5.6
247.189	5.05
247.571	5.69
247.953	4.71
248.335	4.8
248.717	5.11
249.098	4.7
249.48	4.59
249.862	5.01
250.243	4.75
250.625	4.75
251.006	4.79
251.388	4.94
251.769	4.86
252.151	5.22
252.532	4.99
252.913	4.96
253.295	5.43
253.676	4.48
254.057	5.06
254.438	5.03
254.819	4.13
255.2	4.47
255.581	3.91
255.962	4.36
256.343	4.41
256.724	4.6
257.105	5.78
257.486	3.43
257.867	5.34
258.247	3.21
258.628	5.68
259.009	5.48
259.389	5.45
259.77	4.95
260.15	4.34
260.531	4.9
260.911	4.08
261.292	4.23
261.672	4.39
262.052	4.63
262.432	4.73
262.813	4.71
263.193	4.14
263.573	4.66
263.953	4.27
264.333	3.4
264.713	4.91
265.093	4.75
265.473	4.68
265.853	4.64
266.233	4.2
266.612	4.64
266.992	5.22
267.372	5.32
267.752	4.9
268.131	4.5
268.511	3.99
268.89	4.51
269.27	4.78
269.649	4.79
270.029	4.33
270.408	4.58
270.787	3.74
271.167	3.48
271.546	4.7
271.925	4.19
272.304	3.88
272.683	4.06
273.062	4.11
273.441	4.21
273.82	4.24
274.199	4.48
274.578	4.28
274.957	4.49
275.336	4.26
275.715	4.22
276.093	4.73
276.472	4.4
276.851	4.91
277.229	4.26
277.608	4.16
277.986	4.86
278.365	3.84
278.743	4.25
279.122	4.36
279.5	4.85
279.878	4.33
280.257	4.1
280.635	4.66
281.013	4.3
281.391	4.55
281.769	4.29
282.147	4.08
282.525	3.9
282.903	4.18
283.281	4.21
283.659	4
284.037	3.8
284.415	4.31
284.792	4.45
285.17	4.6
285.548	4.2
285.925	3.84
286.303	4.35
286.68	3.92
287.058	3.75
287.435	4.41
287.813	4.4
288.19	4.14
288.567	3.95
288.945	4.38
289.322	4.24
289.699	3.92
290.076	4.06
290.453	4.35
290.83	4.45
291.207	4.19
291.584	4.54
291.961	3.95
292.338	4.38
292.715	4.52
293.092	4.12
293.469	4.1
293.845	4.38
294.222	4.26
294.599	3.78
294.975	4.61
295.352	4.31
295.728	4.23
296.105	3.6
296.481	4.33
296.858	4
297.234	4.88
297.61	4.74
297.986	4.67
298.363	4.39
298.739	4.49
299.115	4.41
299.491	4.23
299.867	4.58
300.243	4.47
300.619	4.32
300.995	4.29
301.371	4.41
301.746	4.07
302.122	4.55
302.498	4.1
302.874	4.35
303.249	4.11
303.625	4.35
304	4.46
304.376	4.6
304.751	3.7
305.127	4.43
305.502	4.72
305.878	4.38
306.253	4.82
306.628	4.43
307.003	4.67
307.378	4.09
307.754	4.65
308.129	4.46
308.504	4.01
308.879	4.49
309.254	5.04
309.629	4.89
310.003	4.57
310.378	4.29
310.753	4.07
311.128	4.54
311.502	3.98
311.877	4.67
312.252	4.81
312.626	4.54
313.001	4.75
313.375	4.4
313.75	4.22
314.124	4.43
314.498	4.38
314.873	4.41
315.247	4.38
315.621	4.8
315.995	4.49
316.369	4.49
316.743	4.83
317.117	4.23
317.491	4.53
317.865	4.32
318.239	4.83
318.613	4.5
318.987	4.79
319.361	4.79
319.734	4.45
320.108	4.4
320.482	4.32
320.855	4.1
321.229	4.14
321.602	4.45
321.976	4.93
322.349	4.36
322.723	4.28
323.096	4.8
323.469	5.39
323.843	4.89
324.216	4.85
324.589	5.04
324.962	4.46
325.335	4.17
325.708	4.75
326.081	4.91
326.454	4.38
326.827	5.13
327.2	4.09
327.573	4.18
327.945	4.39
328.318	4.63
328.691	4.75
329.063	4
329.436	3.72
329.809	4.34
330.181	4.75
330.553	4.56
330.926	4.53
331.298	4.65
331.671	4.44
332.043	4.84
332.415	4.48
332.787	4.28
333.159	4.59
333.532	4.96
333.904	4.47
334.276	4.77
334.648	4.57
335.02	4.15
335.391	3.93
335.763	4.65
336.135	4.49
336.507	4.6
336.879	4.44
337.25	4.2
337.622	4.43
337.993	5.13
338.365	4.42
338.736	4.57
339.108	4.85
339.479	4.46
339.851	4.29
340.222	4.41
340.593	4.19
340.964	4.69
341.336	4.55
341.707	4.4
342.078	4.64
342.449	4.2
342.82	4.26
343.191	4.34
343.562	4.6
343.933	4.31
344.303	4.3
344.674	4.26
345.045	4.72
345.416	4.13
345.786	4.47
346.157	4.86
346.527	4.93
346.898	4.43
347.268	4.49
347.639	4.43
348.009	4.69
348.38	4.21
348.75	4.38
349.12	4.51
349.49	4.33
349.861	4.04
350.231	4.05
350.601	4.45
350.971	4.42
351.341	4.18
351.711	4.71
352.081	4.03
352.45	4.94
352.82	4.06
353.19	4.6
353.56	4.02
353.929	4.28
354.299	4.35
354.669	4.48
355.038	4.55
355.408	4.18
355.777	4.19
356.147	4.45
356.516	4.32
356.885	4.45
357.254	4.4
357.624	4.5
357.993	4.21
358.362	4.59
358.731	4.12
359.1	4.44
359.469	4.2
359.838	4.57
360.207	4.59
360.576	4.8
360.945	5.06
361.314	4.42
361.682	4.3
362.051	4.27
362.42	4.23
362.788	4.38
363.157	4.39
363.525	4.24
363.894	4.28
364.262	4.1
364.631	4.21
364.999	4.29
365.367	4.45
365.735	4.52
366.104	4.41
366.472	4.5
366.84	4.27
367.208	4.09
367.576	4.2
367.944	4.34
368.312	4.43
368.68	4.44
369.048	4.55
369.416	4.41
369.783	4.1
370.151	4.55
370.519	4.73
370.886	4.37
371.254	4.86
371.621	4.8
371.989	4.47
372.356	4.4
372.724	4.62
373.091	4.87
373.458	4.14
373.826	4.54
374.193	4.4
374.56	4.75
374.927	4.53
375.294	4.51
375.661	4.54
376.028	4.45
376.395	4.35
376.762	4.42
377.129	4.95
377.496	4.6
377.863	4.63
378.229	4.29
378.596	4.57
378.963	4.4
379.329	4.56
379.696	4.48
380.062	3.97
380.429	4.25
380.795	4.91
381.161	4.46
381.528	4.74
381.894	4.52
382.26	4.57
382.626	4.63
382.993	4.69
383.359	4.43
383.725	4.34
384.091	4.38
384.457	4.27
384.823	4.88
385.188	4.58
385.554	4.26
385.92	4.5
386.286	4.63
386.651	4.47
387.017	4.35
387.383	4.31
387.748	4.49
388.114	4.38
388.479	4.33
388.845	4.27
389.21	4.6
389.575	4.65
389.94	4.56
390.306	4.29
390.671	4.29
391.036	4.67
391.401	4.51
391.766	3.84
392.131	4.73
392.496	4.61
392.861	4.85
393.226	4.57
393.591	4.49
393.956	4.42
394.32	4.72
394.685	4.51
395.05	4.72
395.414	4.66
395.779	4.23
396.143	4.48
396.508	4.41
396.872	4.48
397.236	4.56
397.601	4.47
397.965	4.72
398.329	4.48
398.694	4.39
399.058	4.52
399.422	4.58
399.786	4.64
400.15	4.38
400.514	4.72
400.878	4.54
401.242	4.62
401.605	4.82
401.969	4.58
402.333	4.43
402.697	4.47
403.06	4.43
403.424	4.78
403.787	4.77
404.151	4.36
404.514	4.19
404.878	4.81
405.241	4.45
405.604	4.59
405.968	4.43
406.331	4.45
406.694	4.55
407.057	4.58
407.42	4.64
407.783	4.47
408.146	4.44
408.509	4.56
408.872	4.7
409.235	4.45
409.598	4.63
409.961	4.48
410.323	4.81
410.686	4.62
411.049	4.69
411.411	4.44
411.774	4.65
412.136	4.6
412.499	4.68
412.861	4.35
413.223	4.74
413.586	4.75
413.948	4.67
414.31	4.57
414.672	4.4
415.035	4.69
415.397	4.42
415.759	4.74
416.121	4.63
416.483	4.64
416.845	4.9
417.206	4.58
417.568	4.8
417.93	4.75
418.292	4.53
418.653	4.49
419.015	4.65
419.377	4.7
419.738	4.57
420.1	4.66
420.461	4.58
420.822	4.56
421.184	4.56
421.545	4.64
421.906	4.59
422.267	4.63
422.629	4.53
422.99	4.64
423.351	4.6
423.712	4.42
424.073	4.59
424.434	4.59
424.795	4.65
425.155	4.67
425.516	4.49
425.877	4.56
426.238	4.47
426.598	4.61
426.959	4.58
427.32	4.58
427.68	4.6
428.041	4.62
428.401	4.51
428.761	4.52
429.122	4.42
429.482	4.64
429.842	4.67
430.202	4.62
430.563	4.59
430.923	4.67
431.283	4.86
431.643	4.74
432.003	4.79
432.363	4.83
432.722	4.71
433.082	4.76
433.442	4.72
433.802	4.59
434.161	5.02
434.521	4.58
434.881	4.67
435.24	4.58
435.6	4.54
435.959	4.67
436.319	4.63
436.678	4.71
437.037	4.67
437.396	4.75
437.756	4.82
438.115	4.79
438.474	4.65
438.833	4.65
439.192	4.8
439.551	4.78
439.91	4.79
440.269	4.74
440.628	4.64
440.987	4.82
441.345	4.78
441.704	4.72
442.063	4.7
442.421	4.75
442.78	4.69
443.138	4.75
443.497	4.68
443.855	4.64
444.214	4.82
444.572	4.7
444.93	4.89
445.288	4.81
445.647	4.94
446.005	4.57
446.363	4.89
446.721	4.7
447.079	4.68
447.437	4.73
447.795	4.77
448.153	4.79
448.51	4.74
448.868	4.63
449.226	4.66
449.584	4.8
449.941	4.79
450.299	4.72
450.656	4.73
451.014	4.79
451.371	4.83
451.729	4.86
452.086	4.73
452.443	4.98
452.801	4.9
453.158	4.78
453.515	4.89
453.872	4.69
454.229	4.8
454.586	4.77
454.943	4.78
455.3	4.84
455.657	4.81
456.014	4.94
456.371	4.87
456.727	4.89
457.084	4.85
457.441	4.93
457.797	4.91
458.154	4.88
458.51	5.03
458.867	4.62
459.223	4.89
459.58	4.81
459.936	4.99
460.292	5.03
460.648	4.94
461.005	4.68
461.361	4.81
461.717	4.82
462.073	4.78
462.429	4.73
462.785	4.74
463.141	4.87
463.496	5.09
463.852	4.89
464.208	4.95
464.564	5.06
464.919	4.83
465.275	4.95
465.631	4.74
465.986	5.05
466.342	5.04
466.697	4.99
467.052	4.96
467.408	5.11
467.763	4.98
468.118	4.76
468.473	5.02
468.829	5.09
469.184	5.06
469.539	5.04
469.894	4.9
470.249	4.9
470.603	4.91
470.958	5.1
471.313	4.94
471.668	5.03
472.023	5.15
472.377	4.99
472.732	5.01
473.086	5.13
473.441	4.96
473.795	4.99
474.15	4.98
474.504	5.01
474.859	5.13
475.213	5.11
475.567	5.08
475.921	4.98
476.275	5.01
476.63	4.94
476.984	4.97
477.338	4.92
477.692	5.24
478.045	5.08
478.399	4.86
478.753	4.81
479.107	4.97
479.461	5.02
479.814	5
480.168	5.02
480.521	5.14
480.875	5.02
481.228	4.9
481.582	5.19
481.935	5.16
482.289	5.09
482.642	5.02
482.995	5.05
483.348	4.95
483.701	4.97
484.055	5.05
484.408	5.01
484.761	4.98
485.114	4.88
485.466	4.84
485.819	4.76
486.172	4.78
486.525	4.81
486.878	4.85
487.23	4.91
487.583	4.91
487.936	4.98
488.288	5.06
488.641	4.92
488.993	4.91
489.345	4.88
489.698	4.9
490.05	4.9
490.402	4.9
490.754	5.02
491.107	5.04
491.459	4.99
491.811	5.11
492.163	5.1
492.515	5.15
492.866	5.06
493.218	4.97
493.57	4.98
493.922	4.95
494.274	5.02
494.625	5.09
494.977	5.18
495.328	5.2
495.68	5.15
496.031	5.18
496.383	5.08
496.734	5.28
497.086	5.32
497.437	5.14
497.788	5.18
498.139	5.21
498.49	5.28
498.842	5.22
499.193	5.22
499.544	5.12
499.894	5.23
500.245	5.19
500.596	5.3
500.947	5.29
501.298	5.28
501.648	5.26
501.999	5.3
502.35	5.24
502.7	5.37
503.051	5.29
503.401	5.28
503.752	5.25
504.102	5.29
504.452	5.35
504.803	5.49
505.153	5.38
505.503	5.44
505.853	5.44
506.203	5.27
506.553	5.46
506.903	5.22
507.253	5.31
507.603	5.29
507.953	5.53
508.303	5.28
508.652	5.34
509.002	5.35
509.352	5.43
509.701	5.41
510.051	5.37
510.4	5.29
510.75	5.25
511.099	5.31
511.449	5.26
511.798	5.33
512.147	5.39
512.496	5.3
512.846	5.38
513.195	5.45
513.544	5.45
513.893	5.27
514.242	5.39
514.591	5.25
514.939	5.24
515.288	5.43
515.637	5.37
515.986	5.34
516.334	5.5
516.683	5.54
517.032	5.6
517.38	5.46
517.729	5.44
518.077	5.53
518.426	5.59
518.774	5.48
519.122	5.56
519.47	5.43
519.819	5.35
520.167	5.34
520.515	5.38
520.863	5.38
521.211	5.5
521.559	5.32
521.907	5.42
522.255	5.31
522.602	5.5
522.95	5.5
523.298	5.55
523.645	5.59
523.993	5.52
524.341	5.47
524.688	5.44
525.036	5.5
525.383	5.62
525.73	5.64
526.078	5.61
526.425	5.47
526.772	5.55
527.119	5.4
527.466	5.42
527.814	5.44
528.161	5.43
528.508	5.51
528.854	5.41
529.201	5.47
529.548	5.46
529.895	5.33
530.242	5.32
530.588	5.26
530.935	5.32
531.282	5.37
531.628	5.33
531.975	5.43
532.321	5.44
532.667	5.56
533.014	5.49
533.36	5.48
533.706	5.52
534.052	5.52
534.399	5.52
534.745	5.57
535.091	5.39
535.437	5.4
535.783	5.5
536.129	5.54
536.474	5.57
536.82	5.61
537.166	5.56
537.512	5.6
537.857	5.61
538.203	5.55
538.549	5.62
538.894	5.69
539.239	5.61
539.585	5.65
539.93	5.58
540.276	5.62
540.621	5.82
540.966	5.74
541.311	5.73
541.656	5.74
542.001	5.79
542.346	5.82
542.691	5.57
543.036	5.57
543.381	5.43
543.726	5.49
544.071	5.61
544.415	5.52
544.76	5.64
545.105	5.61
545.449	5.61
545.794	5.61
546.138	5.7
546.483	5.74
546.827	5.81
547.171	5.73
547.516	5.69
547.86	5.78
548.204	5.82
548.548	5.65
548.892	5.71
549.236	5.73
549.58	5.9
549.924	5.89
550.268	5.88
550.612	5.8
550.956	5.78
551.3	5.9
551.643	6.04
551.987	6.02
552.33	5.81
552.674	5.87
553.017	5.74
553.361	5.88
553.704	5.93
554.048	5.88
554.391	5.72
554.734	5.91
555.077	5.94
555.42	6.09
555.764	6.01
556.107	6.09
556.45	5.86
556.793	5.84
557.135	5.99
557.478	5.9
557.821	5.82
558.164	5.92
558.507	5.85
558.849	6.06
559.192	6.06
559.534	5.95
559.877	6.09
560.219	5.97
560.562	6.12
560.904	5.99
561.246	5.99
561.589	5.95
561.931	5.92
562.273	6.01
562.615	5.91
562.957	6.07
563.299	6.06
563.641	5.87
563.983	6.18
564.325	6.29
564.667	6.08
565.008	6.03
565.35	6.24
565.692	6.12
566.033	6.27
566.375	6.38
566.716	6.09
567.058	6.02
567.399	6.14
567.741	5.89
568.082	6.11
568.423	5.89
568.764	6
569.105	6.17
569.447	6.24
569.788	5.85
570.129	6.09
570.47	5.95
570.811	5.81
571.151	6.06
571.492	6.05
571.833	6.03
572.174	6.26
572.514	6.16
572.855	6.07
573.195	6.27
573.536	6.14
573.876	6.02
574.217	6.13
574.557	6.05
574.898	6.11
575.238	6.16
575.578	6.23
575.918	6.25
576.258	6.16
576.598	6.3
576.938	6.28
577.278	6.2
577.618	6.3
577.958	6.02
578.298	6.16
578.638	6.36
578.977	6.39
579.317	6.26
579.657	6.17
579.996	6.02
580.336	6.22
580.675	6.15
581.014	6.28
581.354	6.17
581.693	6.37
582.032	5.93
582.372	6.51
582.711	6.11
583.05	6.5
583.389	6.26
583.728	6.27
584.067	6.1
584.406	5.99
584.745	6.17
585.083	6.26
585.422	6.7
585.761	6.21
586.1	6.36
586.438	6.31
586.777	6.34
587.115	6.09
587.454	6.06
587.792	6.27
588.13	6.28
588.469	6.5
588.807	6.42
589.145	6.4
589.483	6.51
589.821	5.9
590.159	6.19
590.497	6.32
590.835	6.63
591.173	6.23
591.511	6.56
591.849	6.3
592.187	6.25
592.524	6.42
592.862	6.42
593.2	6.09
593.537	6.38
593.875	6.34
594.212	6.37
594.55	6.36
594.887	6.43
595.224	6.46
595.561	6.39
595.899	6.23
596.236	6.32
596.573	6.49
596.91	6.31
597.247	6.3
597.584	6.12
597.921	6.35
598.258	6.4
598.594	6.4
598.931	6.58
599.268	6.36
599.604	6.4
599.941	6.43
600.277	6.23
600.614	6.41
600.95	6.3
601.287	6.34
601.623	6.7
601.959	6.74
602.296	6.3
602.632	6.59
602.968	6.33
603.304	6.64
603.64	6.48
603.976	6.67
604.312	6.69
604.648	6.46
604.984	6.63
605.319	6.36
605.655	6.23
605.991	6.49
606.326	6.48
606.662	6.42
606.998	6.24
607.333	6.49
607.668	6.43
608.004	6.39
608.339	6.78
608.674	6.89
609.01	6.46
609.345	6.3
609.68	6.45
610.015	6.62
610.35	6.59
610.685	6.39
611.02	6.64
611.355	6.62
611.689	6.48
612.024	6.49
612.359	6.43
612.694	6.57
613.028	6.66
613.363	6.4
613.697	6.36
614.032	6.62
614.366	6.44
614.7	6.49
615.035	6.69
615.369	6.62
615.703	6.69
616.037	6.46
616.371	6.87
616.705	6.56
617.039	6.94
617.373	6.77
617.707	6.96
618.041	6.91
618.375	6.87
618.709	6.81
619.042	6.52
619.376	6.95
619.71	6.74
620.043	6.52
620.377	6.79
620.71	6.6
621.043	6.69
621.377	6.21
621.71	6.66
622.043	6.71
622.376	6.5
622.709	7.17
623.043	7.06
623.376	6.92
623.709	6.55
624.041	6.6
624.374	6.88
624.707	6.56
625.04	7.11
625.373	7
625.705	6.9
626.038	6.72
626.37	7.07
626.703	7.07
627.035	7.01
627.368	6.85
627.7	7.08
628.032	6.91
628.365	6.89
628.697	6.93
629.029	6.93
629.361	6.56
629.693	6.83
630.025	6.59
630.357	6.62
630.689	6.51
631.021	6.84
631.353	6.68
631.684	6.96
632.016	7.1
632.348	7.24
632.679	7.23
633.011	6.94
633.342	6.95
633.674	6.94
634.005	7.3
634.336	6.79
634.668	6.79
634.999	7.38
635.33	6.53
635.661	6.9
635.992	7.21
636.323	7.18
636.654	7.06
636.985	6.78
637.316	7.23
637.647	6.98
637.977	7.04
638.308	7.03
638.639	6.9
638.969	6.82
639.3	7.19
639.63	6.49
639.961	7.1
640.291	7.01
640.622	7.06
640.952	7.47
641.282	6.69
641.612	7.48
641.943	6.98
642.273	7.34
642.603	6.86
642.933	7.01
643.263	6.75
643.592	7.09
643.922	7.12
644.252	6.95
644.582	7.13
644.911	7.24
645.241	6.59
645.571	7.4
645.9	7.03
646.23	7.15
646.559	6.96
646.888	6.97
647.218	6.98
647.547	6.98
647.876	7.22
648.205	7
648.534	7.33
648.863	6.95
649.192	7.05
649.521	6.88
649.85	7.32
650.179	7.49
650.508	7.41
650.837	6.51
651.165	7.5
651.494	7.24
651.822	7.2
652.151	7.95
652.479	7.13
652.808	7.14
653.136	6.97
653.465	7.37
653.793	7.37
654.121	7.16
654.449	7.04
654.777	7.44
655.105	7.18
655.433	7.48
655.761	7.26
656.089	7.33
656.417	7.3
656.745	7.56
657.073	7.18
657.4	7.57
657.728	7.38
658.056	7.63
658.383	7.46
658.711	7.49
659.038	7.25
659.365	7.35
659.693	7.54
660.02	7.18
660.347	7.33
660.674	7.57
661.001	7.09
661.329	7.32
661.656	7.43
661.982	7.23
662.309	7.41
662.636	7.24
662.963	7.68
663.29	7.44
663.616	6.74
663.943	7.28
664.27	7.59
664.596	7.77
664.923	7.51
665.249	7.58
665.576	7.28
665.902	6.86
666.228	7.34
666.554	7.39
666.881	7.21
667.207	8.3
667.533	7.21
667.859	7.75
668.185	7.59
668.511	7.5
668.837	7.72
669.162	7.49
669.488	7.17
669.814	7.3
670.139	7.32
670.465	7.85
670.791	7.99
671.116	8.27
671.442	8.35
671.767	7.47
672.092	7.71
672.418	7.65
672.743	6.99
673.068	7.24
673.393	7.88
673.718	7.64
674.043	8.2
674.368	7.52
674.693	7.11
675.018	8.08
675.343	7.69
675.667	7.68
675.992	8.28
676.317	7.56
676.641	7.72
676.966	7.88
677.29	7.01
677.615	8.55
677.939	7.45
678.264	8.23
678.588	7.79
678.912	7.91
679.236	7.9
679.56	7.84
679.885	7.97
680.209	7.98
680.532	7.8
680.856	7.53
681.18	7.36
681.504	7.57
681.828	7.57
682.152	7.54
682.475	7.83
682.799	8.36
683.122	7.73
683.446	7.43
683.769	8.05
684.093	7.49
684.416	7.68
684.739	8.55
685.062	8.04
685.386	8.14
685.709	7.43
686.032	7.9
686.355	7.91
686.678	7.67
687.001	8.25
687.324	7.56
687.646	7.73
687.969	8.04
688.292	8.59
688.614	8.09
688.937	7.96
689.26	7.91
689.582	7.53
689.904	8.03
690.227	8.44
690.549	8.01
690.871	7.61
691.194	7.6
691.516	7.52
691.838	7.85
692.16	8.89
692.482	8.81
692.804	8.05
