Data from 0364_crown_Reflection__1__52.txt Node

Date: Mon Dec 11 18:21:39 CST 2023
User: ToomeyLab
Spectrometer: FLMS14357
Trigger mode: 0
Integration Time (sec): 1.000000E-2
Scans to average: 100
Electric dark correction enabled: true
Nonlinearity correction enabled: false
Boxcar width: 0
XAxis mode: Wavelengths
Number of Pixels in Spectrum: 2048
>>>>>Begin Spectral Data<<<<<
189.047	640.52
189.435	640.52
189.823	640.52
190.211	-956.29
190.599	125.75
190.987	175.85
191.375	41.35
191.763	47.09
192.151	1030.3
192.538	167.49
192.926	106.7
193.314	88.93
193.702	92.6
194.089	172.34
194.477	158.48
194.864	27.55
195.252	25.05
195.639	107.26
196.027	-62.51
196.414	7.95
196.801	50.8
197.189	275.85
197.576	97.38
197.963	-22.59
198.351	20.46
198.738	17.38
199.125	-38.96
199.512	-18.52
199.899	-8.55
200.286	21.76
200.673	-43.61
201.06	38.38
201.447	-10.63
201.833	3.44
202.22	37.38
202.607	31
202.994	-41.49
203.38	-43.43
203.767	30.69
204.154	43.47
204.54	-19.9
204.927	-23.43
205.313	1.48
205.699	12.55
206.086	20.2
206.472	26.65
206.858	-10.32
207.245	19.73
207.631	4.17
208.017	20.82
208.403	45.9
208.789	2.81
209.175	13.47
209.561	-17.92
209.947	1.27
210.333	31.06
210.719	5.66
211.105	-12.8
211.491	25.12
211.876	7.84
212.262	-14.02
212.648	4.78
213.034	-0.64
213.419	-17.53
213.805	-2.35
214.19	17.65
214.576	-13.05
214.961	-5.62
215.346	3.37
215.732	11.88
216.117	19.63
216.502	25.84
216.888	2.44
217.273	11.59
217.658	4.77
218.043	4.94
218.428	0.72
218.813	11.32
219.198	-5.93
219.583	-0.7
219.968	10.32
220.353	0.81
220.738	13.73
221.122	7.75
221.507	29.99
221.892	9.46
222.276	12.47
222.661	-0.4
223.046	-0.32
223.43	18.71
223.815	-6.53
224.199	6.15
224.583	6.3
224.968	10.55
225.352	6.52
225.736	9.86
226.121	8.41
226.505	-5.74
226.889	6.46
227.273	8.89
227.657	13.92
228.041	3.01
228.425	4.34
228.809	-0.36
229.193	5.54
229.577	7.49
229.961	5.54
230.344	5.63
230.728	5.33
231.112	6.22
231.495	7.02
231.879	5.93
232.263	5.64
232.646	5.6
233.03	4.45
233.413	6.07
233.797	7.61
234.18	5.78
234.563	8.64
234.946	6.73
235.33	5.92
235.713	6.07
236.096	5.99
236.479	6.51
236.862	4.53
237.245	4.89
237.628	4.94
238.011	6.63
238.394	6.51
238.777	5.03
239.16	6.4
239.543	5.71
239.925	5.99
240.308	6.08
240.691	6.13
241.073	6.52
241.456	5.51
241.838	9.06
242.221	6.45
242.603	4.9
242.986	5.32
243.368	5.56
243.75	6.15
244.133	6.25
244.515	5.79
244.897	6.33
245.279	5.92
245.661	5.7
246.043	4.93
246.425	6.37
246.807	5.92
247.189	6.19
247.571	6.4
247.953	5.29
248.335	5.94
248.717	6.11
249.098	5.59
249.48	5.55
249.862	5.84
250.243	5.68
250.625	5.94
251.006	5.87
251.388	6.58
251.769	6.11
252.151	6.41
252.532	5.56
252.913	6.1
253.295	6.15
253.676	5.16
254.057	5.49
254.438	6.01
254.819	5.3
255.2	5.5
255.581	5.2
255.962	5.6
256.343	5.86
256.724	4.7
257.105	5.29
257.486	5.53
257.867	7.4
258.247	5
258.628	4.98
259.009	5.61
259.389	5.41
259.77	5.38
260.15	5.1
260.531	5.56
260.911	5.12
261.292	5.31
261.672	5.34
262.052	5.39
262.432	5.35
262.813	5.41
263.193	5.09
263.573	5.39
263.953	5.33
264.333	5.25
264.713	5.48
265.093	5.44
265.473	6.12
265.853	6.1
266.233	5.42
266.612	5.17
266.992	6.13
267.372	6.59
267.752	5.47
268.131	5.31
268.511	5.39
268.89	5.65
269.27	5.07
269.649	5.4
270.029	5.59
270.408	5.85
270.787	5.68
271.167	4.81
271.546	5.41
271.925	5.4
272.304	5.18
272.683	4.74
273.062	4.63
273.441	4.99
273.82	4.98
274.199	5.18
274.578	5.56
274.957	5.22
275.336	5.27
275.715	5.22
276.093	5.49
276.472	5.32
276.851	5.35
277.229	5.59
277.608	5.24
277.986	6.31
278.365	4.78
278.743	5.59
279.122	4.97
279.5	5.44
279.878	5.05
280.257	4.36
280.635	4.97
281.013	4.43
281.391	5.8
281.769	5.52
282.147	4.47
282.525	4.8
282.903	5.47
283.281	4.88
283.659	4.78
284.037	4.71
284.415	4.86
284.792	4.76
285.17	5.33
285.548	5.1
285.925	4.91
286.303	5.17
286.68	5.13
287.058	4.65
287.435	5.28
287.813	5.23
288.19	4.84
288.567	4.9
288.945	5.09
289.322	4.81
289.699	4.8
290.076	5.05
290.453	5.25
290.83	5.65
291.207	4.97
291.584	4.89
291.961	4.67
292.338	4.89
292.715	5.1
293.092	4.96
293.469	4.96
293.845	4.73
294.222	5.31
294.599	4.95
294.975	4.96
295.352	4.79
295.728	5.23
296.105	4.76
296.481	5.16
296.858	4.65
297.234	5.02
297.61	5.06
297.986	5
298.363	4.91
298.739	4.86
299.115	5.05
299.491	4.93
299.867	5.23
300.243	5.36
300.619	4.87
300.995	4.79
301.371	4.84
301.746	4.69
302.122	4.9
302.498	5.31
302.874	5.29
303.249	4.83
303.625	4.2
304	4.44
304.376	5.11
304.751	5.11
305.127	4.7
305.502	4.94
305.878	4.5
306.253	5.24
306.628	5.35
307.003	4.96
307.378	4.57
307.754	5.03
308.129	4.91
308.504	4.78
308.879	4.96
309.254	5.7
309.629	5.33
310.003	5.51
310.378	4.8
310.753	4.98
311.128	4.98
311.502	4.85
311.877	5.37
312.252	4.97
312.626	4.99
313.001	5.08
313.375	4.77
313.75	4.93
314.124	5.02
314.498	4.84
314.873	4.64
315.247	5.09
315.621	5.21
315.995	5.4
316.369	4.96
316.743	5.41
317.117	5.17
317.491	5.26
317.865	5.08
318.239	5.29
318.613	5.32
318.987	4.9
319.361	5.22
319.734	4.68
320.108	4.78
320.482	4.5
320.855	5.06
321.229	4.63
321.602	4.94
321.976	5.46
322.349	4.68
322.723	4.87
323.096	5.11
323.469	5.83
323.843	4.95
324.216	5.32
324.589	5.34
324.962	4.17
325.335	4.46
325.708	4.73
326.081	5.5
326.454	4.99
326.827	5.51
327.2	4.49
327.573	4.68
327.945	5.2
328.318	4.89
328.691	5.18
329.063	4.99
329.436	4.66
329.809	4.9
330.181	4.93
330.553	4.59
330.926	4.75
331.298	5.29
331.671	5.17
332.043	5.18
332.415	5.03
332.787	5.06
333.159	4.5
333.532	4.63
333.904	5
334.276	4.76
334.648	5.46
335.02	4.79
335.391	4.88
335.763	5.13
336.135	4.95
336.507	4.87
336.879	5.53
337.25	4.63
337.622	4.38
337.993	5.15
338.365	4.68
338.736	4.98
339.108	5.09
339.479	4.87
339.851	5.16
340.222	4.81
340.593	4.52
340.964	5.35
341.336	5.06
341.707	4.73
342.078	4.93
342.449	4.95
342.82	4.65
343.191	4.83
343.562	5
343.933	5.11
344.303	4.42
344.674	4.64
345.045	5.03
345.416	4.85
345.786	4.88
346.157	4.87
346.527	5.19
346.898	4.69
347.268	4.94
347.639	5.17
348.009	4.65
348.38	4.54
348.75	4.78
349.12	5.4
349.49	4.64
349.861	4.65
350.231	4.64
350.601	5.14
350.971	4.59
351.341	4.42
351.711	4.96
352.081	4.31
352.45	4.66
352.82	4.23
353.19	4.76
353.56	4.81
353.929	4.48
354.299	5.3
354.669	4.7
355.038	4.69
355.408	4.37
355.777	4.79
356.147	5.15
356.516	4.83
356.885	4.91
357.254	4.63
357.624	4.84
357.993	4.3
358.362	4.65
358.731	4.62
359.1	4.74
359.469	4.48
359.838	4.52
360.207	4.54
360.576	4.88
360.945	4.89
361.314	5.02
361.682	4.53
362.051	4.92
362.42	4.8
362.788	4.63
363.157	4.59
363.525	4.44
363.894	4.73
364.262	4.6
364.631	4.81
364.999	4.79
365.367	4.89
365.735	5.01
366.104	4.56
366.472	5.08
366.84	4.43
367.208	4.64
367.576	5.28
367.944	4.84
368.312	5.12
368.68	4.8
369.048	4.65
369.416	4.51
369.783	5.01
370.151	4.87
370.519	5.33
370.886	4.59
371.254	5.29
371.621	5.18
371.989	4.82
372.356	5.01
372.724	5.19
373.091	5.17
373.458	4.8
373.826	4.87
374.193	4.63
374.56	4.96
374.927	5.14
375.294	4.88
375.661	4.97
376.028	5.19
376.395	4.85
376.762	4.91
377.129	5.35
377.496	5.23
377.863	5.15
378.229	4.92
378.596	4.96
378.963	4.84
379.329	4.86
379.696	4.73
380.062	4.82
380.429	4.9
380.795	5.12
381.161	5.23
381.528	5.13
381.894	5.41
382.26	4.87
382.626	4.94
382.993	4.86
383.359	4.77
383.725	4.77
384.091	4.73
384.457	4.9
384.823	5.32
385.188	4.93
385.554	4.81
385.92	4.48
386.286	5.15
386.651	5.08
387.017	5.15
387.383	5.01
387.748	5.03
388.114	4.86
388.479	4.89
388.845	4.91
389.21	5.1
389.575	4.92
389.94	5.05
390.306	5.11
390.671	4.86
391.036	4.79
391.401	5.18
391.766	5.04
392.131	5.05
392.496	5.14
392.861	5.25
393.226	4.9
393.591	5.11
393.956	4.95
394.32	5.17
394.685	5.16
395.05	5.06
395.414	5.21
395.779	4.97
396.143	4.97
396.508	4.91
396.872	4.95
397.236	5.04
397.601	4.81
397.965	4.99
398.329	5.03
398.694	5.02
399.058	5.06
399.422	4.96
399.786	5.01
400.15	4.98
400.514	5.47
400.878	5.09
401.242	5.03
401.605	5.25
401.969	4.98
402.333	5.01
402.697	5.01
403.06	4.89
403.424	4.99
403.787	5.28
404.151	4.93
404.514	4.8
404.878	5.13
405.241	4.96
405.604	4.86
405.968	5.08
406.331	4.85
406.694	5
407.057	5.12
407.42	5.41
407.783	4.81
408.146	5.14
408.509	5.01
408.872	5.27
409.235	4.97
409.598	5.02
409.961	5.29
410.323	5.15
410.686	5.14
411.049	4.98
411.411	5.22
411.774	5.15
412.136	5.19
412.499	5.03
412.861	4.98
413.223	5.05
413.586	5.31
413.948	5.33
414.31	5.03
414.672	4.91
415.035	5.15
415.397	5.15
415.759	5.32
416.121	5.1
416.483	5.24
416.845	5.14
417.206	5.18
417.568	5.45
417.93	5.2
418.292	5.17
418.653	4.91
419.015	5.12
419.377	5.24
419.738	5.17
420.1	5.09
420.461	5.12
420.822	4.93
421.184	5.04
421.545	4.95
421.906	4.96
422.267	5.19
422.629	4.98
422.99	5.12
423.351	4.89
423.712	4.95
424.073	5
424.434	4.96
424.795	5.15
425.155	4.98
425.516	5.01
425.877	4.91
426.238	4.95
426.598	5.03
426.959	5.07
427.32	5.02
427.68	5.08
428.041	4.88
428.401	5.03
428.761	5.13
429.122	5.15
429.482	5.04
429.842	5.13
430.202	5.16
430.563	5.23
430.923	5.13
431.283	5.12
431.643	5.24
432.003	5.15
432.363	5.24
432.722	5.08
433.082	5.17
433.442	5.2
433.802	5.16
434.161	5.37
434.521	5.09
434.881	5.13
435.24	5.08
435.6	5.01
435.959	5.17
436.319	5.11
436.678	5.27
437.037	5.24
437.396	5.22
437.756	5.3
438.115	5.37
438.474	5.43
438.833	5.14
439.192	5.39
439.551	5.31
439.91	5.24
440.269	5.34
440.628	5.25
440.987	5.45
441.345	5.1
441.704	5.18
442.063	5.24
442.421	5.27
442.78	5.2
443.138	5.21
443.497	5.11
443.855	5.04
444.214	5.38
444.572	5.19
444.93	5.25
445.288	5.22
445.647	5.23
446.005	5.18
446.363	5.24
446.721	5.32
447.079	5.17
447.437	5.2
447.795	5.06
448.153	5.23
448.51	5.23
448.868	5.04
449.226	5.14
449.584	5.16
449.941	5.25
450.299	5.2
450.656	5.24
451.014	5.32
451.371	5.16
451.729	5.38
452.086	5.42
452.443	5.36
452.801	5.44
453.158	5.35
453.515	5.3
453.872	5.24
454.229	5.3
454.586	5.31
454.943	5.44
455.3	5.47
455.657	5.27
456.014	5.39
456.371	5.46
456.727	5.36
457.084	5.35
457.441	5.6
457.797	5.41
458.154	5.55
458.51	5.59
458.867	5.13
459.223	5.22
459.58	5.34
459.936	5.35
460.292	5.32
460.648	5.37
461.005	5.28
461.361	5.25
461.717	5.31
462.073	5.2
462.429	5.26
462.785	5.27
463.141	5.19
463.496	5.49
463.852	5.41
464.208	5.44
464.564	5.36
464.919	5.34
465.275	5.53
465.631	5.34
465.986	5.5
466.342	5.52
466.697	5.38
467.052	5.49
467.408	5.54
467.763	5.36
468.118	5.24
468.473	5.28
468.829	5.4
469.184	5.56
469.539	5.44
469.894	5.27
470.249	5.45
470.603	5.4
470.958	5.46
471.313	5.28
471.668	5.77
472.023	5.59
472.377	5.32
472.732	5.34
473.086	5.36
473.441	5.47
473.795	5.47
474.15	5.44
474.504	5.47
474.859	5.63
475.213	5.47
475.567	5.43
475.921	5.48
476.275	5.36
476.63	5.43
476.984	5.48
477.338	5.29
477.692	5.42
478.045	5.55
478.399	5.39
478.753	5.37
479.107	5.38
479.461	5.5
479.814	5.36
480.168	5.54
480.521	5.57
480.875	5.51
481.228	5.35
481.582	5.65
481.935	5.51
482.289	5.45
482.642	5.51
482.995	5.42
483.348	5.38
483.701	5.3
484.055	5.33
484.408	5.37
484.761	5.3
485.114	5.29
485.466	5.18
485.819	5.12
486.172	5.14
486.525	5.12
486.878	5.2
487.23	5.26
487.583	5.33
487.936	5.31
488.288	5.38
488.641	5.29
488.993	5.22
489.345	5.28
489.698	5.24
490.05	5.24
490.402	5.25
490.754	5.29
491.107	5.39
491.459	5.35
491.811	5.43
492.163	5.45
492.515	5.49
492.866	5.38
493.218	5.37
493.57	5.25
493.922	5.25
494.274	5.3
494.625	5.37
494.977	5.47
495.328	5.49
495.68	5.55
496.031	5.53
496.383	5.55
496.734	5.57
497.086	5.62
497.437	5.7
497.788	5.58
498.139	5.42
498.49	5.51
498.842	5.48
499.193	5.52
499.544	5.48
499.894	5.6
500.245	5.51
500.596	5.61
500.947	5.51
501.298	5.68
501.648	5.57
501.999	5.55
502.35	5.77
502.7	5.7
503.051	5.66
503.401	5.68
503.752	5.62
504.102	5.64
504.452	5.7
504.803	5.8
505.153	5.68
505.503	5.73
505.853	5.74
506.203	5.6
506.553	5.76
506.903	5.57
507.253	5.65
507.603	5.56
507.953	5.6
508.303	5.67
508.652	5.67
509.002	5.57
509.352	5.82
509.701	5.73
510.051	5.68
510.4	5.63
510.75	5.65
511.099	5.59
511.449	5.67
511.798	5.64
512.147	5.89
512.496	5.61
512.846	5.71
513.195	5.67
513.544	5.69
513.893	5.54
514.242	5.68
514.591	5.63
514.939	5.57
515.288	5.7
515.637	5.63
515.986	5.64
516.334	5.7
516.683	5.84
517.032	5.77
517.38	5.8
517.729	5.88
518.077	5.77
518.426	5.76
518.774	5.75
519.122	5.75
519.47	5.68
519.819	5.63
520.167	5.64
520.515	5.56
520.863	5.6
521.211	5.58
521.559	5.63
521.907	5.64
522.255	5.65
522.602	5.57
522.95	5.77
523.298	5.69
523.645	5.94
523.993	5.75
524.341	5.74
524.688	5.64
525.036	5.63
525.383	5.61
525.73	5.89
526.078	5.81
526.425	5.64
526.772	5.83
527.119	5.8
527.466	5.66
527.814	5.7
528.161	5.65
528.508	5.63
528.854	5.67
529.201	5.59
529.548	5.66
529.895	5.5
530.242	5.51
530.588	5.53
530.935	5.54
531.282	5.52
531.628	5.5
531.975	5.54
532.321	5.59
532.667	5.63
533.014	5.61
533.36	5.73
533.706	5.8
534.052	5.69
534.399	5.73
534.745	5.73
535.091	5.59
535.437	5.62
535.783	5.69
536.129	5.69
536.474	5.73
536.82	5.71
537.166	5.75
537.512	5.71
537.857	5.81
538.203	5.73
538.549	5.72
538.894	5.79
539.239	5.78
539.585	5.69
539.93	5.7
540.276	5.86
540.621	5.89
540.966	6.01
541.311	5.68
541.656	5.85
542.001	5.84
542.346	5.83
542.691	5.71
543.036	5.64
543.381	5.62
543.726	5.65
544.071	5.65
544.415	5.67
544.76	5.74
545.105	5.78
545.449	5.74
545.794	5.73
546.138	5.86
546.483	5.9
546.827	5.8
547.171	5.89
547.516	5.87
547.86	6.02
548.204	6
548.548	5.84
548.892	5.84
549.236	5.83
549.58	6.02
549.924	5.9
550.268	5.93
550.612	5.95
550.956	6
551.3	5.88
551.643	6.02
551.987	6.21
552.33	6.06
552.674	6.15
553.017	6.07
553.361	5.93
553.704	5.98
554.048	6.02
554.391	5.85
554.734	6.12
555.077	6.12
555.42	6.15
555.764	5.94
556.107	6.07
556.45	6.01
556.793	6.05
557.135	5.93
557.478	6.08
557.821	6.09
558.164	6.18
558.507	6.07
558.849	6.04
559.192	5.99
559.534	6.01
559.877	6.2
560.219	6.04
560.562	6.19
560.904	6.07
561.246	6.2
561.589	6.06
561.931	6.12
562.273	5.92
562.615	6.06
562.957	6.03
563.299	6.21
563.641	5.89
563.983	6.21
564.325	6.24
564.667	6.18
565.008	6.12
565.35	6.13
565.692	6.03
566.033	5.99
566.375	6.29
566.716	6.25
567.058	6.11
567.399	6.15
567.741	6.12
568.082	6.06
568.423	6.08
568.764	5.93
569.105	6.1
569.447	6.22
569.788	6
570.129	6.1
570.47	6.02
570.811	5.94
571.151	6.06
571.492	6.04
571.833	6.21
572.174	6.17
572.514	6.09
572.855	6.05
573.195	5.98
573.536	6.03
573.876	6.01
574.217	6.24
574.557	5.95
574.898	6.22
575.238	6.34
575.578	6.18
575.918	6.26
576.258	6.17
576.598	6.15
576.938	6.14
577.278	6.15
577.618	6.16
577.958	6
578.298	6.27
578.638	6.39
578.977	6.19
579.317	5.86
579.657	6.06
579.996	6.21
580.336	6.38
580.675	6.47
581.014	6.28
581.354	6.05
581.693	6.34
582.032	5.87
582.372	6.13
582.711	6.18
583.05	6.22
583.389	6.29
583.728	6.43
584.067	5.99
584.406	6.15
584.745	6.43
585.083	6.31
585.422	6.46
585.761	6.32
586.1	6.37
586.438	6.18
586.777	6.31
587.115	6.12
587.454	6.14
587.792	6.47
588.13	6.46
588.469	6.17
588.807	6.29
589.145	6.55
589.483	6.33
589.821	6.07
590.159	6.14
590.497	6.22
590.835	6.24
591.173	6.41
591.511	6.55
591.849	6.24
592.187	6.11
592.524	6.32
592.862	6.12
593.2	6.17
593.537	6.29
593.875	6.38
594.212	6.37
594.55	6.23
594.887	6.37
595.224	6.58
595.561	6.47
595.899	6.35
596.236	6.42
596.573	6.18
596.91	6.03
597.247	6.36
597.584	6.1
597.921	6.25
598.258	6.22
598.594	6.27
598.931	6.21
599.268	6.16
599.604	6.29
599.941	6.42
600.277	6.19
600.614	6.44
600.95	6.16
601.287	6.44
601.623	6.43
601.959	6.53
602.296	6.32
602.632	6.39
602.968	6.1
603.304	6.12
603.64	6.47
603.976	6.41
604.312	6.07
604.648	6.25
604.984	6.4
605.319	6.34
605.655	6.24
605.991	6.14
606.326	6.29
606.662	6.24
606.998	6.12
607.333	6.41
607.668	6.29
608.004	6.11
608.339	6.5
608.674	6.32
609.01	6.24
609.345	6.3
609.68	6.41
610.015	6.37
610.35	6.52
610.685	6.31
611.02	6.21
611.355	6.3
611.689	6.34
612.024	6.22
612.359	6.24
612.694	6.31
613.028	6.14
613.363	6.14
613.697	6.23
614.032	6.17
614.366	6.27
614.7	6.31
615.035	6.3
615.369	6.35
615.703	6.33
616.037	6.23
616.371	6.41
616.705	6.6
617.039	6.82
617.373	6.48
617.707	6.59
618.041	6.58
618.375	6.66
618.709	6.57
619.042	6.31
619.376	6.63
619.71	6.34
620.043	6.12
620.377	6.23
620.71	6.67
621.043	6.5
621.377	6.15
621.71	6.61
622.043	6.51
622.376	6.34
622.709	6.54
623.043	6.58
623.376	6.7
623.709	6.35
624.041	6.35
624.374	6.26
624.707	6.3
625.04	6.8
625.373	6.43
625.705	6.33
626.038	6.47
626.37	6.41
626.703	6.64
627.035	6.65
627.368	6.53
627.7	6.48
628.032	6.59
628.365	6.7
628.697	6.34
629.029	6.74
629.361	6.23
629.693	6.33
630.025	6.22
630.357	6.44
630.689	6.18
631.021	6.59
631.353	6.31
631.684	6.51
632.016	6.48
632.348	6.91
632.679	6.72
633.011	6.24
633.342	6.42
633.674	6.43
634.005	6.61
634.336	6.75
634.668	6.39
634.999	6.72
635.33	6.18
635.661	6.31
635.992	6.66
636.323	6.26
636.654	6.4
636.985	6.38
637.316	6.48
637.647	6.79
637.977	6.59
638.308	6.61
638.639	6.25
638.969	6.34
639.3	6.88
639.63	6.26
639.961	6.39
640.291	6.94
640.622	6.43
640.952	6.61
641.282	6.49
641.612	6.87
641.943	6.73
642.273	6.61
642.603	6.5
642.933	6.87
643.263	6.78
643.592	6.68
643.922	6.53
644.252	5.89
644.582	6.63
644.911	6.82
645.241	6.52
645.571	6.95
645.9	6.46
646.23	6.55
646.559	6.72
646.888	6.67
647.218	6.51
647.547	6.12
647.876	6.51
648.205	6.4
648.534	6.58
648.863	6.44
649.192	6.69
649.521	6.72
649.85	6.67
650.179	6.56
650.508	6.82
650.837	5.84
651.165	6.74
651.494	6.89
651.822	6.46
652.151	7.03
652.479	6.48
652.808	6.98
653.136	6.68
653.465	6.89
653.793	6.91
654.121	6.62
654.449	6.69
654.777	6.61
655.105	6.87
655.433	6.86
655.761	6.66
656.089	6.39
656.417	6.49
656.745	6.93
657.073	7.11
657.4	6.49
657.728	7.06
658.056	7.06
658.383	6.68
658.711	7.1
659.038	6.75
659.365	6.82
659.693	6.8
660.02	6.5
660.347	6.6
660.674	6.51
661.001	6.56
661.329	6.62
661.656	7.01
661.982	6.54
662.309	6.9
662.636	6.8
662.963	7.04
663.29	6.55
663.616	6.22
663.943	6.59
664.27	6.69
664.596	6.82
664.923	6.66
665.249	7.02
665.576	7.03
665.902	6.77
666.228	6.8
666.554	6.65
666.881	6.68
667.207	6.57
667.533	6.38
667.859	7.04
668.185	6.92
668.511	6.92
668.837	7.22
669.162	6.89
669.488	7.24
669.814	6.55
670.139	6.76
670.465	6.85
670.791	7.26
671.116	7.01
671.442	6.77
671.767	7.41
672.092	6.96
672.418	7.11
672.743	6.18
673.068	6.54
673.393	6.65
673.718	6.79
674.043	6.73
674.368	7.18
674.693	6.73
675.018	6.92
675.343	6.49
675.667	7.08
675.992	6.98
676.317	6.66
676.641	7.7
676.966	7.28
677.29	6.37
677.615	7.51
677.939	6.39
678.264	7.09
678.588	7.55
678.912	6.78
679.236	6.98
679.56	7.05
679.885	7.31
680.209	7.29
680.532	7.44
680.856	7.31
681.18	7.07
681.504	6.93
681.828	6.93
682.152	5.88
682.475	7.18
682.799	6.98
683.122	7.09
683.446	6.44
683.769	6.74
684.093	6.85
684.416	6.35
684.739	7.38
685.062	6.88
685.386	7.07
685.709	6.94
686.032	6.98
686.355	6.9
686.678	7.08
687.001	7.42
687.324	6.04
687.646	6.28
687.969	7
688.292	8.45
688.614	7.78
688.937	7.39
689.26	7.39
689.582	6.33
689.904	7.51
690.227	7.56
690.549	7.11
690.871	7.1
691.194	6.82
691.516	6.85
691.838	6.88
692.16	7.09
692.482	7.75
692.804	7
693.126	7.23
