Data from 0364_forehead_Reflection__0__56.txt Node

Date: Mon Dec 11 18:22:56 CST 2023
User: ToomeyLab
Spectrometer: FLMS14357
Trigger mode: 0
Integration Time (sec): 1.000000E-2
Scans to average: 100
Electric dark correction enabled: true
Nonlinearity correction enabled: false
Boxcar width: 0
XAxis mode: Wavelengths
Number of Pixels in Spectrum: 2048
>>>>>Begin Spectral Data<<<<<
189.047	833.33
189.435	833.33
189.823	833.33
190.211	-494.7
190.599	29.33
190.987	-22.43
191.375	46.41
191.763	53.4
192.151	283.84
192.538	121.61
192.926	77.52
193.314	40.46
193.702	-11.97
194.089	-96.53
194.477	114.4
194.864	104.14
195.252	14
195.639	-36.49
196.027	45.77
196.414	-11.03
196.801	-0.27
197.189	-309.89
197.576	103.62
197.963	74.3
198.351	0.58
198.738	18.98
199.125	-32.34
199.512	45.24
199.899	34.03
200.286	20
200.673	38.88
201.06	22.9
201.447	26.41
201.833	38.63
202.22	54.2
202.607	14.69
202.994	-2.15
203.38	6.33
203.767	67.25
204.154	43.91
204.54	18.16
204.927	-12.94
205.313	13.92
205.699	-24.37
206.086	-13.53
206.472	27.91
206.858	15.82
207.245	12.31
207.631	-1.55
208.017	36.33
208.403	27.29
208.789	-7.4
209.175	39.1
209.561	-14.55
209.947	26
210.333	31.87
210.719	36.47
211.105	9.95
211.491	19.52
211.876	15.85
212.262	-5.51
212.648	19.86
213.034	8.26
213.419	24.85
213.805	31.26
214.19	24.53
214.576	24.99
214.961	-4.01
215.346	2.27
215.732	16.36
216.117	17.07
216.502	3.76
216.888	6.97
217.273	20.83
217.658	23.52
218.043	13.73
218.428	4
218.813	8.55
219.198	26.27
219.583	32.97
219.968	15.1
220.353	21.05
220.738	27.51
221.122	18.34
221.507	21.89
221.892	6.85
222.276	11.17
222.661	7.16
223.046	1.99
223.43	15.11
223.815	3.83
224.199	15.43
224.583	8.15
224.968	6.94
225.352	11.94
225.736	2.97
226.121	11.64
226.505	2.05
226.889	9.18
227.273	3.59
227.657	12.36
228.041	3.42
228.425	2.37
228.809	0.31
229.193	3.31
229.577	3.62
229.961	3.69
230.344	3.06
230.728	2.6
231.112	2.71
231.495	3.66
231.879	2.57
232.263	2.64
232.646	1.42
233.03	2.55
233.413	2.79
233.797	4.67
234.18	4.47
234.563	1.96
234.946	4.36
235.33	4.52
235.713	4.11
236.096	3.54
236.479	4.47
236.862	2.6
237.245	3.15
237.628	3.5
238.011	3.01
238.394	3.77
238.777	3.61
239.16	3.7
239.543	3.33
239.925	4.29
240.308	3.1
240.691	4.12
241.073	5.05
241.456	3.75
241.838	4.09
242.221	3.14
242.603	2.66
242.986	2.85
243.368	3
243.75	3.47
244.133	3.61
244.515	3.15
244.897	3.18
245.279	3.75
245.661	3.06
246.043	2.27
246.425	4.26
246.807	4.19
247.189	3.83
247.571	3.34
247.953	3.18
248.335	3.57
248.717	3.4
249.098	3.12
249.48	3.25
249.862	3.72
250.243	3.32
250.625	3.39
251.006	3.23
251.388	4.05
251.769	3.93
252.151	4.53
252.532	3.57
252.913	3.78
253.295	3.42
253.676	3.35
254.057	3.48
254.438	3.78
254.819	3.23
255.2	3.11
255.581	3.12
255.962	3.17
256.343	4.34
256.724	3.5
257.105	3.22
257.486	3.6
257.867	4.2
258.247	2.61
258.628	4.56
259.009	4.78
259.389	3.89
259.77	3.22
260.15	4
260.531	3.47
260.911	3
261.292	2.87
261.672	3.34
262.052	3.35
262.432	3.16
262.813	3.54
263.193	3.64
263.573	3.24
263.953	3.23
264.333	3.43
264.713	3.51
265.093	3.47
265.473	3.44
265.853	3.21
266.233	3.58
266.612	3.41
266.992	4.45
267.372	4.28
267.752	3.73
268.131	3.7
268.511	3.12
268.89	3.73
269.27	4.25
269.649	3.14
270.029	3.86
270.408	3.18
270.787	2.76
271.167	2.74
271.546	3.4
271.925	3.53
272.304	3.55
272.683	3.18
273.062	2.54
273.441	3.37
273.82	2.91
274.199	3.01
274.578	2.98
274.957	3.8
275.336	2.94
275.715	2.92
276.093	4.59
276.472	3.03
276.851	3.42
277.229	3.93
277.608	3.57
277.986	3.7
278.365	2.73
278.743	2.94
279.122	3.08
279.5	3.73
279.878	3.32
280.257	3.2
280.635	3.13
281.013	3.08
281.391	3.62
281.769	2.94
282.147	3.45
282.525	2.52
282.903	2.84
283.281	2.98
283.659	2.9
284.037	2.91
284.415	3.31
284.792	3.46
285.17	3.32
285.548	3.35
285.925	2.96
286.303	3.28
286.68	3.09
287.058	3.07
287.435	3.13
287.813	3.12
288.19	3
288.567	3.25
288.945	3.28
289.322	3.03
289.699	2.98
290.076	2.95
290.453	3.47
290.83	3.69
291.207	3.59
291.584	3.48
291.961	3.63
292.338	3.13
292.715	3.77
293.092	3.38
293.469	3.67
293.845	3.54
294.222	4.24
294.599	3.56
294.975	3.65
295.352	3.51
295.728	3.75
296.105	3.93
296.481	3.19
296.858	3.73
297.234	4.25
297.61	3.75
297.986	4.32
298.363	3.69
298.739	4.03
299.115	3.88
299.491	3.87
299.867	3.9
300.243	4.09
300.619	3.99
300.995	3.9
301.371	4.2
301.746	3.67
302.122	3.71
302.498	4.26
302.874	4.44
303.249	3.97
303.625	4.51
304	4.57
304.376	4.69
304.751	4.52
305.127	4.26
305.502	5.43
305.878	4.51
306.253	4.6
306.628	4.66
307.003	5.02
307.378	4.86
307.754	4.89
308.129	5.38
308.504	4.95
308.879	4.56
309.254	5.58
309.629	5.52
310.003	5.39
310.378	4.93
310.753	5.27
311.128	5.09
311.502	4.64
311.877	5.19
312.252	5.49
312.626	5.35
313.001	5.22
313.375	5
313.75	5.12
314.124	5.5
314.498	5.33
314.873	5.77
315.247	5.43
315.621	5.98
315.995	5.68
316.369	5.29
316.743	5.95
317.117	5.77
317.491	5.96
317.865	5.93
318.239	6.02
318.613	6.09
318.987	6.21
319.361	6.6
319.734	5.84
320.108	5.98
320.482	6.53
320.855	6.34
321.229	5.85
321.602	6.43
321.976	6.59
322.349	6.46
322.723	6.55
323.096	7.2
323.469	7.08
323.843	7.09
324.216	7.18
324.589	6.72
324.962	6.4
325.335	6.81
325.708	6.8
326.081	7.17
326.454	6.97
326.827	6.7
327.2	6.47
327.573	6.55
327.945	7.38
328.318	6.77
328.691	7.07
329.063	6.71
329.436	6.85
329.809	6.88
330.181	7.4
330.553	7.07
330.926	7.17
331.298	7.68
331.671	6.75
332.043	7.88
332.415	7.25
332.787	7.83
333.159	7.37
333.532	7.24
333.904	7.46
334.276	7.01
334.648	7.77
335.02	7.62
335.391	7.18
335.763	7.91
336.135	7.94
336.507	7.77
336.879	7.81
337.25	7.73
337.622	7.52
337.993	7.65
338.365	7.88
338.736	8.14
339.108	8.41
339.479	7.59
339.851	7.52
340.222	7.52
340.593	7.66
340.964	8.07
341.336	7.9
341.707	7.7
342.078	8.41
342.449	8.23
342.82	7.76
343.191	7.85
343.562	7.91
343.933	8.34
344.303	7.87
344.674	8.13
345.045	8.13
345.416	7.87
345.786	8.68
346.157	8.54
346.527	8.57
346.898	8.32
347.268	8.35
347.639	8.1
348.009	8.48
348.38	8.12
348.75	8.12
349.12	8.95
349.49	8.42
349.861	8.12
350.231	8.33
350.601	8.78
350.971	8.81
351.341	8.3
351.711	8.78
352.081	8.27
352.45	8.67
352.82	8.48
353.19	8.95
353.56	8.58
353.929	8.58
354.299	9.17
354.669	9.02
355.038	9.18
355.408	8.86
355.777	9.13
356.147	8.76
356.516	9.25
356.885	8.93
357.254	9.53
357.624	9.04
357.993	8.61
358.362	8.99
358.731	8.82
359.1	9.12
359.469	8.98
359.838	9.06
360.207	9.09
360.576	9.06
360.945	9.27
361.314	9.7
361.682	9.06
362.051	9.31
362.42	9.15
362.788	9.01
363.157	9.13
363.525	9.08
363.894	9.19
364.262	9.21
364.631	9.32
364.999	9.52
365.367	9.68
365.735	9.58
366.104	9.23
366.472	9.65
366.84	9.52
367.208	9.15
367.576	9.66
367.944	10.05
368.312	9.61
368.68	9.79
369.048	9.75
369.416	9.83
369.783	10.14
370.151	10.33
370.519	10.44
370.886	10.07
371.254	10.5
371.621	10.15
371.989	10.06
372.356	10.26
372.724	10.29
373.091	10.08
373.458	9.92
373.826	10.24
374.193	10.32
374.56	10.64
374.927	10.52
375.294	10.21
375.661	10.44
376.028	10.45
376.395	10.31
376.762	10.39
377.129	10.68
377.496	10.44
377.863	10.55
378.229	10.58
378.596	10.46
378.963	10.82
379.329	10.36
379.696	10.61
380.062	10.31
380.429	10.49
380.795	11.25
381.161	10.62
381.528	10.85
381.894	11.08
382.26	11.07
382.626	10.73
382.993	11.3
383.359	10.83
383.725	10.82
384.091	11.02
384.457	10.6
384.823	11.42
385.188	11.19
385.554	11.03
385.92	10.82
386.286	11.28
386.651	10.98
387.017	11.37
387.383	11.18
387.748	11.26
388.114	11.23
388.479	11.22
388.845	11.11
389.21	11.31
389.575	11.72
389.94	11.37
390.306	11.53
390.671	11.82
391.036	11.56
391.401	11.35
391.766	11.56
392.131	11.83
392.496	11.83
392.861	11.76
393.226	11.8
393.591	11.64
393.956	11.56
394.32	11.85
394.685	11.84
395.05	11.9
395.414	12.02
395.779	11.91
396.143	11.74
396.508	11.77
396.872	12.08
397.236	11.93
397.601	11.94
397.965	12.2
398.329	12.38
398.694	12.4
399.058	12.19
399.422	12.07
399.786	12.1
400.15	12.34
400.514	12.22
400.878	12.54
401.242	12.41
401.605	12.47
401.969	12.28
402.333	12.36
402.697	12.36
403.06	12.67
403.424	12.4
403.787	13.01
404.151	12.53
404.514	12.47
404.878	12.67
405.241	12.35
405.604	12.26
405.968	12.63
406.331	12.46
406.694	12.55
407.057	12.6
407.42	12.84
407.783	12.82
408.146	12.55
408.509	12.7
408.872	12.87
409.235	12.77
409.598	12.73
409.961	13.11
410.323	13.03
410.686	12.84
411.049	13.06
411.411	12.95
411.774	13.12
412.136	13.09
412.499	13.11
412.861	12.69
413.223	13.07
413.586	13.44
413.948	13.44
414.31	13.32
414.672	12.99
415.035	13.06
415.397	13.43
415.759	13.53
416.121	13.36
416.483	13.43
416.845	13.29
417.206	13.45
417.568	13.56
417.93	13.8
418.292	13.58
418.653	13.44
419.015	13.36
419.377	13.59
419.738	13.66
420.1	13.43
420.461	13.34
420.822	13.36
421.184	13.37
421.545	13.46
421.906	13.46
422.267	13.49
422.629	13.34
422.99	13.56
423.351	13.49
423.712	13.52
424.073	13.49
424.434	13.7
424.795	13.78
425.155	13.78
425.516	13.81
425.877	13.66
426.238	13.75
426.598	13.94
426.959	13.85
427.32	13.98
427.68	14
428.041	13.99
428.401	14.01
428.761	14.2
429.122	14.23
429.482	14.25
429.842	14.42
430.202	14.63
430.563	14.53
430.923	14.47
431.283	14.63
431.643	14.95
432.003	14.84
432.363	14.66
432.722	14.76
433.082	14.78
433.442	14.84
433.802	14.63
434.161	14.86
434.521	14.71
434.881	14.71
435.24	14.68
435.6	14.83
435.959	14.85
436.319	15.02
436.678	15.07
437.037	15.05
437.396	15
437.756	15.28
438.115	15.25
438.474	15.27
438.833	15.28
439.192	15.31
439.551	15.28
439.91	15.21
440.269	15.38
440.628	15.04
440.987	15.44
441.345	15.28
441.704	15.31
442.063	15.27
442.421	15.36
442.78	15.23
443.138	15.39
443.497	15.43
443.855	15.51
444.214	15.74
444.572	15.42
444.93	15.81
445.288	15.67
445.647	15.87
446.005	15.68
446.363	15.82
446.721	15.84
447.079	15.82
447.437	15.74
447.795	15.66
448.153	15.84
448.51	15.62
448.868	15.59
449.226	15.72
449.584	15.9
449.941	16.02
450.299	15.94
450.656	16.19
451.014	16.21
451.371	15.91
451.729	16.31
452.086	16.11
452.443	16.68
452.801	16.43
453.158	16.52
453.515	16.48
453.872	16.43
454.229	16.51
454.586	16.55
454.943	16.7
455.3	16.67
455.657	16.78
456.014	16.74
456.371	16.84
456.727	16.76
457.084	16.94
457.441	17.14
457.797	16.89
458.154	16.94
458.51	17.08
458.867	16.7
459.223	17.06
459.58	17.14
459.936	17.21
460.292	17.17
460.648	17.15
461.005	16.91
461.361	16.95
461.717	16.84
462.073	16.95
462.429	17.07
462.785	17.18
463.141	17.16
463.496	17.42
463.852	17.29
464.208	17.46
464.564	17.51
464.919	17.51
465.275	17.57
465.631	17.52
465.986	17.98
466.342	17.87
466.697	17.71
467.052	17.66
467.408	17.89
467.763	17.67
468.118	17.57
468.473	18
468.829	18.11
469.184	18.16
469.539	17.88
469.894	17.88
470.249	18.06
470.603	18.09
470.958	18.21
471.313	18.12
471.668	18.49
472.023	18.39
472.377	18.38
472.732	18.54
473.086	18.53
473.441	18.47
473.795	18.42
474.15	18.64
474.504	18.72
474.859	18.66
475.213	18.65
475.567	18.85
475.921	18.88
476.275	18.83
476.63	18.76
476.984	18.91
477.338	18.58
477.692	18.98
478.045	19.01
478.399	18.83
478.753	18.78
479.107	18.75
479.461	19.01
479.814	18.89
480.168	18.97
480.521	19.11
480.875	19.08
481.228	19.05
481.582	19.22
481.935	19.35
482.289	19.41
482.642	19.15
482.995	19.11
483.348	19.15
483.701	19.1
484.055	19.19
484.408	19.08
484.761	18.98
485.114	18.69
485.466	18.44
485.819	18.36
486.172	18.44
486.525	18.66
486.878	18.81
487.23	18.91
487.583	19.02
487.936	19.2
488.288	19.17
488.641	19.16
488.993	18.93
489.345	18.97
489.698	19.05
490.05	19
490.402	19.17
490.754	19.31
491.107	19.44
491.459	19.65
491.811	19.9
492.163	19.86
492.515	19.87
492.866	19.68
493.218	19.52
493.57	19.44
493.922	19.48
494.274	19.67
494.625	19.91
494.977	20.09
495.328	20.35
495.68	20.31
496.031	20.54
496.383	20.74
496.734	20.64
497.086	20.86
497.437	20.9
497.788	20.96
498.139	20.82
498.49	20.75
498.842	20.92
499.193	20.87
499.544	20.81
499.894	20.93
500.245	20.99
500.596	21.07
500.947	21.1
501.298	21.05
501.648	21.31
501.999	21.19
502.35	21.38
502.7	21.48
503.051	21.45
503.401	21.56
503.752	21.55
504.102	21.73
504.452	21.64
504.803	21.81
505.153	21.72
505.503	21.88
505.853	21.85
506.203	21.79
506.553	21.9
506.903	21.81
507.253	21.78
507.603	21.97
507.953	22.09
508.303	22.01
508.652	22.05
509.002	22.12
509.352	22.11
509.701	22.05
510.051	22.18
510.4	22.12
510.75	22.16
511.099	21.99
511.449	22.19
511.798	22.24
512.147	22.38
512.496	22.3
512.846	22.4
513.195	22.62
513.544	22.45
513.893	22.35
514.242	22.51
514.591	22.54
514.939	22.5
515.288	22.65
515.637	22.61
515.986	22.82
516.334	22.85
516.683	22.88
517.032	23.02
517.38	22.94
517.729	23.05
518.077	23.25
518.426	23.26
518.774	23.29
519.122	23.17
519.47	23.13
519.819	23.06
520.167	22.98
520.515	22.85
520.863	22.8
521.211	22.95
521.559	23.1
521.907	23.23
522.255	23.35
522.602	23.48
522.95	23.58
523.298	23.67
523.645	23.93
523.993	23.63
524.341	23.65
524.688	23.78
525.036	23.86
525.383	23.91
525.73	24.04
526.078	23.93
526.425	23.93
526.772	23.92
527.119	23.85
527.466	23.65
527.814	23.64
528.161	23.64
528.508	23.85
528.854	23.71
529.201	23.89
529.548	23.72
529.895	23.45
530.242	23.38
530.588	23.22
530.935	23.44
531.282	23.57
531.628	23.65
531.975	23.74
532.321	24.04
532.667	24.01
533.014	24.16
533.36	24.28
533.706	24.53
534.052	24.5
534.399	24.43
534.745	24.33
535.091	24.16
535.437	24.15
535.783	24.21
536.129	24.42
536.474	24.65
536.82	24.66
537.166	24.85
537.512	24.96
537.857	25.13
538.203	24.89
538.549	24.92
538.894	24.99
539.239	25.1
539.585	25.15
539.93	25.22
540.276	25.4
540.621	25.72
540.966	25.71
541.311	25.64
541.656	25.63
542.001	25.68
542.346	25.64
542.691	25.31
543.036	25.08
543.381	24.92
543.726	25.1
544.071	25.24
544.415	25.38
544.76	25.64
545.105	25.54
545.449	25.56
545.794	25.77
546.138	25.99
546.483	26.21
546.827	26.31
547.171	26.29
547.516	26.28
547.86	26.56
548.204	26.41
548.548	26.34
548.892	26.43
549.236	26.42
549.58	26.72
549.924	26.58
550.268	26.93
550.612	26.97
550.956	26.87
551.3	27.11
551.643	27.25
551.987	27.35
552.33	27.32
552.674	27.55
553.017	27.43
553.361	27.58
553.704	27.45
554.048	27.42
554.391	27.58
554.734	27.56
555.077	27.44
555.42	27.86
555.764	27.81
556.107	27.83
556.45	27.85
556.793	28.08
557.135	28.07
557.478	28.11
557.821	28.04
558.164	28.34
558.507	28.18
558.849	28.15
559.192	28.33
559.534	28.44
559.877	28.43
560.219	28.46
560.562	28.58
560.904	28.64
561.246	28.62
561.589	28.75
561.931	28.61
562.273	28.81
562.615	28.66
562.957	28.87
563.299	28.75
563.641	28.62
563.983	29.21
564.325	28.96
564.667	29.04
565.008	29.17
565.35	29.33
565.692	29.29
566.033	29.11
566.375	29.39
566.716	29.28
567.058	29.1
567.399	29.2
567.741	29.3
568.082	29.15
568.423	29.2
568.764	29.28
569.105	29.32
569.447	29.56
569.788	29.3
570.129	29.63
570.47	29.73
570.811	29.7
571.151	29.66
571.492	29.99
571.833	29.88
572.174	29.93
572.514	29.88
572.855	29.78
573.195	29.93
573.536	29.81
573.876	29.91
574.217	29.9
574.557	30.02
574.898	29.92
575.238	30.09
575.578	30.2
575.918	30.29
576.258	30.39
576.598	30.34
576.938	30.43
577.278	30.57
577.618	30.43
577.958	30.52
578.298	30.85
578.638	30.8
578.977	30.96
579.317	30.69
579.657	31.06
579.996	30.84
580.336	31.48
580.675	31.04
581.014	31.22
581.354	31.27
581.693	31.37
582.032	31.25
582.372	31.42
582.711	31.45
583.05	31.47
583.389	31.41
583.728	31.97
584.067	31.51
584.406	31.81
584.745	31.85
585.083	31.81
585.422	32.04
585.761	32.12
586.1	31.69
586.438	31.75
586.777	32.08
587.115	32.28
587.454	32.19
587.792	32.3
588.13	32.51
588.469	32.17
588.807	32.22
589.145	32.35
589.483	32.56
589.821	32.51
590.159	32.44
590.497	32.55
590.835	32.35
591.173	32.87
591.511	32.56
591.849	32.59
592.187	32.86
592.524	32.57
592.862	32.65
593.2	32.67
593.537	32.87
593.875	32.87
594.212	33.13
594.55	33.08
594.887	33.18
595.224	32.92
595.561	33.1
595.899	33.24
596.236	33.04
596.573	33.29
596.91	33.36
597.247	33.3
597.584	33.33
597.921	33.42
598.258	33.3
598.594	33.11
598.931	33.14
599.268	33.12
599.604	33.33
599.941	33.59
600.277	33.42
600.614	33.9
600.95	33.8
601.287	33.81
601.623	33.94
601.959	33.82
602.296	33.8
602.632	34.1
602.968	33.74
603.304	34.36
603.64	33.99
603.976	34.5
604.312	34.1
604.648	34.57
604.984	34.17
605.319	34.3
605.655	33.97
605.991	34.1
606.326	34.23
606.662	34.11
606.998	34.03
607.333	34.43
607.668	34.4
608.004	34.15
608.339	34.73
608.674	34.72
609.01	34.83
609.345	35.15
609.68	34.86
610.015	34.91
610.35	34.96
610.685	34.93
611.02	34.72
611.355	34.99
611.689	34.72
612.024	34.81
612.359	35.28
612.694	34.97
613.028	35.13
613.363	35.22
613.697	35.65
614.032	35.44
614.366	35.54
614.7	35.47
615.035	35.75
615.369	35.49
615.703	35.72
616.037	35.79
616.371	36.05
616.705	35.44
617.039	35.99
617.373	36.18
617.707	36.12
618.041	36.31
618.375	36.31
618.709	36.18
619.042	36.72
619.376	36.63
619.71	36.57
620.043	36.12
620.377	36.87
620.71	36.52
621.043	36.34
621.377	36.47
621.71	36.74
622.043	36.55
622.376	36.73
622.709	37.2
623.043	37.03
623.376	37.2
623.709	36.84
624.041	36.88
624.374	37.27
624.707	36.66
625.04	37.29
625.373	37.04
625.705	37.08
626.038	37.67
626.37	37.29
626.703	37.39
627.035	37.13
627.368	37.16
627.7	37.26
628.032	37.31
628.365	37.45
628.697	37.04
629.029	37.27
629.361	37.24
629.693	37.3
630.025	37.39
630.357	37.46
630.689	37.45
631.021	37.6
631.353	37.66
631.684	38.34
632.016	37.73
632.348	38.36
632.679	38.17
633.011	38.07
633.342	38.21
633.674	38.03
634.005	38.3
634.336	38.15
634.668	38.29
634.999	38.53
635.33	38.15
635.661	38.21
635.992	38.4
636.323	38.13
636.654	38.84
636.985	38.42
637.316	38.42
637.647	39.01
637.977	38.97
638.308	38.77
638.639	38.76
638.969	38.74
639.3	38.47
639.63	38.73
639.961	39.09
640.291	39.16
640.622	38.81
640.952	39.49
641.282	39.21
641.612	39.47
641.943	39.11
642.273	39.67
642.603	39.92
642.933	39.41
643.263	39.53
643.592	39.85
643.922	39.47
644.252	39.32
644.582	39.32
644.911	39.78
645.241	39.78
645.571	39.87
645.9	40.06
646.23	39.87
646.559	39.85
646.888	39.57
647.218	40.63
647.547	39.28
647.876	40.1
648.205	40.02
648.534	40.57
648.863	40.15
649.192	40.26
649.521	40.41
649.85	40.15
650.179	40.15
650.508	40.59
650.837	40.17
651.165	40.53
651.494	40.67
651.822	40.98
652.151	40.83
652.479	40.51
652.808	40.82
653.136	41.13
653.465	40.41
653.793	41.26
654.121	40.59
654.449	41.46
654.777	41.26
655.105	40.94
655.433	41.16
655.761	41.25
656.089	41.07
656.417	41.66
656.745	41.25
657.073	41.7
657.4	40.91
657.728	41.49
658.056	41.28
658.383	41.68
658.711	41.32
659.038	41.21
659.365	41.52
659.693	41.66
660.02	41.58
660.347	41.58
660.674	41.55
661.001	41.27
661.329	41.52
661.656	41.9
661.982	41.57
662.309	41.48
662.636	41.87
662.963	41.77
663.29	41.91
663.616	41.55
663.943	42.04
664.27	42.08
664.596	42.29
664.923	41.72
665.249	42.19
665.576	41.4
665.902	41.95
666.228	42.2
666.554	42.54
666.881	42.2
667.207	42.62
667.533	42.49
667.859	42.71
668.185	42.95
668.511	42.57
668.837	42.49
669.162	42.04
669.488	42.68
669.814	42.71
670.139	43.15
670.465	43.17
670.791	42.32
671.116	43.6
671.442	43.27
671.767	42.97
672.092	42.55
672.418	42.71
