Data from 0364_chest_Reflection__2__48.txt Node

Date: Mon Dec 11 18:12:31 CST 2023
User: ToomeyLab
Spectrometer: FLMS14357
Trigger mode: 0
Integration Time (sec): 1.000000E-2
Scans to average: 100
Electric dark correction enabled: true
Nonlinearity correction enabled: false
Boxcar width: 0
XAxis mode: Wavelengths
Number of Pixels in Spectrum: 2048
>>>>>Begin Spectral Data<<<<<
189.047	818.3
189.435	818.3
189.823	818.3
190.211	-2037.09
190.599	34.42
190.987	-125.6
191.375	51.51
191.763	45.85
192.151	593.94
192.538	-56.5
192.926	180.65
193.314	58.64
193.702	48.22
194.089	-71.34
194.477	182.1
194.864	2.79
195.252	-1.22
195.639	23.13
196.027	101.4
196.414	102.48
196.801	87.99
197.189	117.56
197.576	234.03
197.963	-51.79
198.351	-32.99
198.738	22.98
199.125	-101.4
199.512	0.45
199.899	28.47
200.286	-7.5
200.673	-57.14
201.06	39.79
201.447	28.61
201.833	0.94
202.22	22.06
202.607	6.78
202.994	-30.55
203.38	-77.52
203.767	20.6
204.154	14.8
204.54	-25.62
204.927	-21.23
205.313	17.99
205.699	-25.82
206.086	18.99
206.472	48.81
206.858	6.28
207.245	17.27
207.631	-4.83
208.017	10.34
208.403	9.46
208.789	-30.06
209.175	23.31
209.561	0.35
209.947	11.47
210.333	44.1
210.719	18.53
211.105	8.97
211.491	4.13
211.876	-1.61
212.262	3.71
212.648	29.4
213.034	11.19
213.419	-21.96
213.805	-19.65
214.19	25.88
214.576	7.9
214.961	1.55
215.346	-7.89
215.732	5.82
216.117	13.11
216.502	13.08
216.888	1.07
217.273	24.48
217.658	-0.81
218.043	25.71
218.428	-7.1
218.813	19.93
219.198	-0.89
219.583	10.2
219.968	-14.18
220.353	-20.1
220.738	15.33
221.122	-4.87
221.507	20.32
221.892	-3.64
222.276	12.33
222.661	9.01
223.046	8.13
223.43	12.21
223.815	-2.47
224.199	1.72
224.583	-0.91
224.968	2.13
225.352	5.02
225.736	-0.32
226.121	4.61
226.505	-6.07
226.889	4.84
227.273	7.52
227.657	11.04
228.041	5.06
228.425	-0.65
228.809	-2.06
229.193	3.74
229.577	4.39
229.961	3.49
230.344	2.95
230.728	2.31
231.112	3.54
231.495	4.21
231.879	3.2
232.263	1.97
232.646	3.16
233.03	2.96
233.413	4.04
233.797	5.21
234.18	3.36
234.563	2.91
234.946	4.92
235.33	5.08
235.713	2.44
236.096	3.78
236.479	3.75
236.862	3.01
237.245	3.33
237.628	2.76
238.011	1.49
238.394	2.75
238.777	4.09
239.16	1.71
239.543	2.67
239.925	3.03
240.308	4.98
240.691	3.34
241.073	4.47
241.456	4.33
241.838	5.63
242.221	4.84
242.603	3.23
242.986	3.08
243.368	4.09
243.75	3.63
244.133	4.1
244.515	2.94
244.897	3.45
245.279	4.01
245.661	3.69
246.043	3.71
246.425	3.71
246.807	3.79
247.189	3.87
247.571	3.49
247.953	3.19
248.335	4.18
248.717	3.97
249.098	3.62
249.48	3.23
249.862	3.94
250.243	3.63
250.625	3.62
251.006	3.71
251.388	3.97
251.769	4.52
252.151	4.65
252.532	3.91
252.913	3.8
253.295	4.44
253.676	3.52
254.057	3.49
254.438	4.12
254.819	3.3
255.2	3.25
255.581	3.13
255.962	3.23
256.343	2.58
256.724	4.07
257.105	3.26
257.486	3.38
257.867	4.71
258.247	2.51
258.628	3.58
259.009	4.05
259.389	4.33
259.77	3.08
260.15	3.47
260.531	3.11
260.911	3.21
261.292	3.15
261.672	3.14
262.052	3.33
262.432	3.58
262.813	3.42
263.193	3.26
263.573	3.25
263.953	3.44
264.333	3
264.713	3.49
265.093	3.78
265.473	3.63
265.853	3.71
266.233	2.15
266.612	4.32
266.992	3.82
267.372	4.14
267.752	3.73
268.131	3.47
268.511	3.14
268.89	3.9
269.27	3.77
269.649	3.21
270.029	3.99
270.408	3.04
270.787	3.24
271.167	2.85
271.546	2.74
271.925	3.71
272.304	3.52
272.683	3.55
273.062	3.06
273.441	3.45
273.82	2.94
274.199	3.17
274.578	3.6
274.957	3.36
275.336	3.14
275.715	3.16
276.093	3.79
276.472	3.52
276.851	3.41
277.229	3.92
277.608	3.04
277.986	3.52
278.365	3.02
278.743	3.66
279.122	3.37
279.5	3.54
279.878	3.61
280.257	3.03
280.635	2.88
281.013	2.87
281.391	3.5
281.769	3.01
282.147	2.93
282.525	2.92
282.903	3.76
283.281	3.61
283.659	2.93
284.037	2.97
284.415	2.73
284.792	3.51
285.17	3.04
285.548	3.21
285.925	2.58
286.303	3.29
286.68	3.27
287.058	3.2
287.435	3.65
287.813	3.42
288.19	3.33
288.567	3.09
288.945	3.77
289.322	2.93
289.699	3.33
290.076	3.2
290.453	3.45
290.83	3.68
291.207	3.4
291.584	3.61
291.961	3.47
292.338	3.64
292.715	3.29
293.092	3.45
293.469	3.3
293.845	3.1
294.222	4.03
294.599	3.48
294.975	2.65
295.352	3.28
295.728	3.6
296.105	3.23
296.481	3.59
296.858	3.3
297.234	3.94
297.61	4.01
297.986	3.89
298.363	3.78
298.739	3.69
299.115	3.58
299.491	3.66
299.867	3.69
300.243	3.49
300.619	3.55
300.995	3.47
301.371	3.55
301.746	3.59
302.122	3.8
302.498	3.97
302.874	4.21
303.249	3.68
303.625	3.75
304	3.8
304.376	3.8
304.751	3.57
305.127	3.98
305.502	4.21
305.878	3.26
306.253	4.36
306.628	3.82
307.003	4.23
307.378	3.57
307.754	4.41
308.129	4.17
308.504	4.25
308.879	3.98
309.254	4.51
309.629	4.5
310.003	4.05
310.378	3.94
310.753	3.73
311.128	4.12
311.502	4.23
311.877	3.9
312.252	4.38
312.626	4.27
313.001	4
313.375	3.51
313.75	3.86
314.124	4.01
314.498	4.17
314.873	4.04
315.247	3.61
315.621	4.48
315.995	4.86
316.369	4.26
316.743	4.57
317.117	4.27
317.491	4.3
317.865	4.25
318.239	4.24
318.613	4.2
318.987	3.87
319.361	4.18
319.734	3.46
320.108	4.06
320.482	4.44
320.855	4.15
321.229	3.8
321.602	4.48
321.976	4.91
322.349	3.96
322.723	4.4
323.096	4.44
323.469	4.66
323.843	4.97
324.216	4.25
324.589	4.9
324.962	4.14
325.335	4.53
325.708	4.67
326.081	4.86
326.454	4.21
326.827	4.56
327.2	3.76
327.573	4.08
327.945	4.78
328.318	4.22
328.691	4.04
329.063	4.38
329.436	4.89
329.809	4.26
330.181	4.02
330.553	4.77
330.926	4.51
331.298	4.86
331.671	4.12
332.043	4.55
332.415	4.38
332.787	4.77
333.159	4.46
333.532	4.23
333.904	4.42
334.276	4.67
334.648	4.43
335.02	4.18
335.391	4.21
335.763	4.94
336.135	4.33
336.507	4.92
336.879	4.89
337.25	4.21
337.622	4.75
337.993	4.5
338.365	4.43
338.736	4.74
339.108	4.7
339.479	4.24
339.851	4.91
340.222	5.01
340.593	4.38
340.964	4.82
341.336	4.7
341.707	4.48
342.078	4.35
342.449	4.43
342.82	4.12
343.191	4.4
343.562	4.24
343.933	4.62
344.303	4.17
344.674	5.02
345.045	4.68
345.416	4.46
345.786	5.24
346.157	4.33
346.527	4.78
346.898	4.55
347.268	4.8
347.639	4.97
348.009	4.82
348.38	4.4
348.75	4.78
349.12	4.94
349.49	4.42
349.861	4.55
350.231	4.67
350.601	5
350.971	4.77
351.341	4.21
351.711	4.65
352.081	4.55
352.45	4.99
352.82	4.38
353.19	4.72
353.56	4.53
353.929	4.27
354.299	4.68
354.669	4.63
355.038	4.79
355.408	4.34
355.777	4.73
356.147	4.82
356.516	4.44
356.885	4.61
357.254	4.89
357.624	4.52
357.993	4.59
358.362	4.76
358.731	4.37
359.1	4.8
359.469	4.4
359.838	4.63
360.207	4.67
360.576	4.59
360.945	5.23
361.314	4.85
361.682	4.9
362.051	4.73
362.42	4.59
362.788	4.52
363.157	4.81
363.525	4.59
363.894	4.81
364.262	4.68
364.631	4.69
364.999	4.66
365.367	4.73
365.735	4.78
366.104	4.31
366.472	4.77
366.84	4.52
367.208	4.3
367.576	4.99
367.944	4.9
368.312	4.77
368.68	4.74
369.048	4.68
369.416	4.56
369.783	4.67
370.151	4.8
370.519	5.38
370.886	4.75
371.254	4.82
371.621	5.01
371.989	4.8
372.356	5.23
372.724	5.1
373.091	4.81
373.458	4.75
373.826	4.99
374.193	4.81
374.56	5.15
374.927	4.93
375.294	5.08
375.661	4.8
376.028	4.94
376.395	4.94
376.762	4.88
377.129	4.93
377.496	5.16
377.863	4.89
378.229	5.06
378.596	5
378.963	4.9
379.329	5.1
379.696	5.13
380.062	4.67
380.429	4.51
380.795	5.04
381.161	4.81
381.528	4.99
381.894	4.91
382.26	4.86
382.626	4.99
382.993	5.04
383.359	4.88
383.725	4.77
384.091	5.12
384.457	4.84
384.823	4.94
385.188	4.79
385.554	4.71
385.92	4.9
386.286	5.3
386.651	4.97
387.017	5
387.383	4.87
387.748	4.81
388.114	5.04
388.479	5
388.845	4.84
389.21	4.91
389.575	4.93
389.94	4.92
390.306	5.04
390.671	5.04
391.036	5.08
391.401	5.16
391.766	4.96
392.131	5.04
392.496	5.36
392.861	5.09
393.226	5
393.591	5
393.956	4.81
394.32	5.1
394.685	4.97
395.05	5.09
395.414	5.35
395.779	5.03
396.143	4.98
396.508	4.99
396.872	5.09
397.236	5.11
397.601	4.98
397.965	5.01
398.329	5.34
398.694	5.11
399.058	4.95
399.422	5.17
399.786	4.88
400.15	4.76
400.514	5.42
400.878	5.18
401.242	5.15
401.605	5.47
401.969	5.07
402.333	4.73
402.697	4.91
403.06	5
403.424	5.07
403.787	5.38
404.151	5.1
404.514	4.92
404.878	5.21
405.241	5.11
405.604	5.23
405.968	5.17
406.331	4.91
406.694	5.16
407.057	4.92
407.42	5.2
407.783	5.11
408.146	5.46
408.509	5.02
408.872	4.97
409.235	5.16
409.598	5.09
409.961	5.28
410.323	5.36
410.686	5.33
411.049	5.16
411.411	5.24
411.774	5.21
412.136	5.17
412.499	5.37
412.861	4.91
413.223	5.31
413.586	5.39
413.948	5.24
414.31	5.04
414.672	4.97
415.035	5.46
415.397	5.11
415.759	5.27
416.121	5.32
416.483	5.18
416.845	5.39
417.206	5.14
417.568	5.23
417.93	5.44
418.292	5.22
418.653	5.1
419.015	5.08
419.377	5.16
419.738	5.13
420.1	5.15
420.461	5.2
420.822	5.15
421.184	5.27
421.545	5.22
421.906	5.06
422.267	5.22
422.629	4.97
422.99	5.14
423.351	5.05
423.712	5.14
424.073	5.03
424.434	5.02
424.795	5.32
425.155	5.07
425.516	5.06
425.877	5
426.238	5.19
426.598	5.14
426.959	5.11
427.32	5.21
427.68	5.31
428.041	5.05
428.401	5.21
428.761	5.32
429.122	5.34
429.482	5.3
429.842	5.35
430.202	5.27
430.563	5.13
430.923	5.32
431.283	5.38
431.643	5.45
432.003	5.37
432.363	5.42
432.722	5.44
433.082	5.5
433.442	5.39
433.802	5.28
434.161	5.49
434.521	5.29
434.881	5.34
435.24	5.29
435.6	5.32
435.959	5.27
436.319	5.28
436.678	5.36
437.037	5.47
437.396	5.53
437.756	5.42
438.115	5.65
438.474	5.42
438.833	5.46
439.192	5.2
439.551	5.53
439.91	5.49
440.269	5.44
440.628	5.21
440.987	5.46
441.345	5.45
441.704	5.4
442.063	5.31
442.421	5.45
442.78	5.27
443.138	5.33
443.497	5.36
443.855	5.35
444.214	5.6
444.572	5.44
444.93	5.59
445.288	5.43
445.647	5.47
446.005	5.37
446.363	5.42
446.721	5.44
447.079	5.3
447.437	5.44
447.795	5.23
448.153	5.46
448.51	5.37
448.868	5.23
449.226	5.32
449.584	5.54
449.941	5.53
450.299	5.43
450.656	5.4
451.014	5.5
451.371	5.41
451.729	5.59
452.086	5.64
452.443	5.57
452.801	5.48
453.158	5.69
453.515	5.55
453.872	5.58
454.229	5.62
454.586	5.52
454.943	5.51
455.3	5.61
455.657	5.84
456.014	5.65
456.371	5.67
456.727	5.71
457.084	5.53
457.441	5.77
457.797	5.62
458.154	5.73
458.51	5.64
458.867	5.44
459.223	5.51
459.58	5.64
459.936	5.6
460.292	5.88
460.648	5.7
461.005	5.64
461.361	5.54
461.717	5.54
462.073	5.58
462.429	5.6
462.785	5.47
463.141	5.63
463.496	5.77
463.852	5.62
464.208	5.74
464.564	5.73
464.919	5.7
465.275	5.56
465.631	5.56
465.986	5.85
466.342	5.82
466.697	5.58
467.052	5.66
467.408	5.97
467.763	5.74
468.118	5.77
468.473	5.62
468.829	5.86
469.184	5.91
469.539	5.75
469.894	5.74
470.249	5.79
470.603	5.85
470.958	5.89
471.313	5.85
471.668	5.89
472.023	5.91
472.377	5.62
472.732	5.76
473.086	6.04
473.441	5.86
473.795	5.88
474.15	5.92
474.504	5.78
474.859	5.91
475.213	5.75
475.567	5.81
475.921	5.91
476.275	5.87
476.63	5.8
476.984	5.99
477.338	5.79
477.692	5.87
478.045	5.86
478.399	5.79
478.753	5.74
479.107	5.93
479.461	5.99
479.814	5.78
480.168	5.92
480.521	5.96
480.875	5.89
481.228	6
481.582	6.09
481.935	5.96
482.289	6.06
482.642	5.96
482.995	5.94
483.348	5.85
483.701	5.72
484.055	5.9
484.408	5.89
484.761	5.73
485.114	5.71
485.466	5.59
485.819	5.53
486.172	5.56
486.525	5.61
486.878	5.7
487.23	5.8
487.583	5.83
487.936	5.85
488.288	5.84
488.641	5.74
488.993	5.73
489.345	5.75
489.698	5.68
490.05	5.76
490.402	5.77
490.754	5.85
491.107	5.91
491.459	5.94
491.811	5.96
492.163	5.93
492.515	6.05
492.866	5.93
493.218	5.76
493.57	5.71
493.922	5.86
494.274	5.9
494.625	6
494.977	6.05
495.328	6.07
495.68	6.17
496.031	6.12
496.383	6
496.734	6.14
497.086	6.15
497.437	6.28
497.788	6.18
498.139	6.1
498.49	6.21
498.842	6.13
499.193	6.2
499.544	6.15
499.894	6.28
500.245	6.17
500.596	6.34
500.947	6.2
501.298	6.44
501.648	6.23
501.999	6.15
502.35	6.32
502.7	6.38
503.051	6.27
503.401	6.35
503.752	6.38
504.102	6.38
504.452	6.32
504.803	6.45
505.153	6.44
505.503	6.49
505.853	6.47
506.203	6.38
506.553	6.52
506.903	6.35
507.253	6.46
507.603	6.45
507.953	6.5
508.303	6.45
508.652	6.41
509.002	6.47
509.352	6.55
509.701	6.44
510.051	6.47
510.4	6.54
510.75	6.42
511.099	6.45
511.449	6.42
511.798	6.55
512.147	6.57
512.496	6.36
512.846	6.48
513.195	6.64
513.544	6.52
513.893	6.57
514.242	6.61
514.591	6.54
514.939	6.45
515.288	6.65
515.637	6.6
515.986	6.58
516.334	6.69
516.683	6.73
517.032	6.76
517.38	6.65
517.729	6.6
518.077	6.85
518.426	6.73
518.774	6.87
519.122	6.7
519.47	6.7
519.819	6.57
520.167	6.68
520.515	6.62
520.863	6.52
521.211	6.65
521.559	6.76
521.907	6.78
522.255	6.65
522.602	6.78
522.95	6.78
523.298	6.83
523.645	7.15
523.993	6.8
524.341	6.97
524.688	6.94
525.036	6.93
525.383	6.97
525.73	6.94
526.078	6.96
526.425	6.89
526.772	6.91
527.119	6.98
527.466	6.78
527.814	6.8
528.161	6.84
528.508	6.87
528.854	6.81
529.201	6.75
529.548	6.82
529.895	6.77
530.242	6.62
530.588	6.64
530.935	6.68
531.282	6.78
531.628	6.77
531.975	6.9
532.321	6.89
532.667	6.95
533.014	6.9
533.36	7.07
533.706	7.14
534.052	7.07
534.399	7.12
534.745	7.02
535.091	6.94
535.437	6.95
535.783	7.01
536.129	7.13
536.474	7.17
536.82	7.19
537.166	7.17
537.512	7.12
537.857	7.28
538.203	7.23
538.549	7.26
538.894	7.27
539.239	7.31
539.585	7.37
539.93	7.34
540.276	7.39
540.621	7.54
540.966	7.44
541.311	7.51
541.656	7.46
542.001	7.53
542.346	7.5
542.691	7.44
543.036	7.38
543.381	7.18
543.726	7.21
544.071	7.35
544.415	7.4
544.76	7.46
545.105	7.53
545.449	7.45
545.794	7.53
546.138	7.55
546.483	7.6
546.827	7.72
547.171	7.76
547.516	7.76
547.86	7.76
548.204	7.81
548.548	7.69
548.892	7.69
549.236	7.77
549.58	7.97
549.924	7.93
550.268	7.84
550.612	7.82
550.956	7.94
551.3	7.96
551.643	8.06
551.987	8.18
552.33	8.28
552.674	8.11
553.017	8.25
553.361	8.15
553.704	8.07
554.048	8.26
554.391	8.2
554.734	8.24
555.077	8.22
555.42	8.33
555.764	8.39
556.107	8.3
556.45	8.44
556.793	8.23
557.135	8.41
557.478	8.56
557.821	8.43
558.164	8.63
558.507	8.13
558.849	8.66
559.192	8.61
559.534	8.46
559.877	8.72
560.219	8.56
560.562	8.75
560.904	8.67
561.246	8.84
561.589	8.76
561.931	8.56
562.273	8.66
562.615	8.71
562.957	8.91
563.299	8.66
563.641	8.65
563.983	8.96
564.325	8.86
564.667	8.88
565.008	8.92
565.35	9.18
565.692	8.92
566.033	8.91
566.375	8.95
566.716	8.99
567.058	8.9
567.399	9.16
567.741	8.91
568.082	8.96
568.423	9.13
568.764	8.96
569.105	9.17
569.447	9.21
569.788	9.08
570.129	9.21
570.47	9.14
570.811	9.02
571.151	9.21
571.492	9.18
571.833	9.16
572.174	9.46
572.514	9.28
572.855	9.43
573.195	9.4
573.536	9.28
573.876	9.25
574.217	9.48
574.557	9.42
574.898	9.51
575.238	9.54
575.578	9.58
575.918	9.61
576.258	9.65
576.598	9.58
576.938	9.55
577.278	9.54
577.618	9.7
577.958	9.78
578.298	9.78
578.638	9.87
578.977	9.9
579.317	9.87
579.657	9.7
579.996	9.68
580.336	9.71
580.675	10.08
581.014	10.09
581.354	9.54
581.693	10.39
582.032	9.95
582.372	10
582.711	9.83
583.05	10.19
583.389	10.15
583.728	10.26
584.067	10.06
584.406	10.42
584.745	10.45
585.083	10.42
585.422	10.43
585.761	10.67
586.1	10.03
586.438	10.47
586.777	10.38
587.115	10.31
587.454	10.49
587.792	10.65
588.13	10.77
588.469	10.73
588.807	10.56
589.145	10.82
589.483	10.71
589.821	10.53
590.159	10.84
590.497	10.65
590.835	10.89
591.173	10.64
591.511	11.02
591.849	10.97
592.187	10.99
592.524	11.11
592.862	10.97
593.2	11.01
593.537	10.93
593.875	11.14
594.212	11.17
594.55	11.04
594.887	11.2
595.224	11.12
595.561	11.12
595.899	11.25
596.236	11.41
596.573	11.13
596.91	11.07
597.247	11.25
597.584	11.63
597.921	11.17
598.258	11.39
598.594	11.39
598.931	11.2
599.268	11.38
599.604	11.4
599.941	11.65
600.277	11.6
600.614	11.85
600.95	11.49
601.287	11.58
601.623	11.99
601.959	11.91
602.296	11.73
602.632	11.88
602.968	11.73
603.304	11.95
603.64	12
603.976	12.38
604.312	11.81
604.648	12
604.984	12
605.319	11.95
605.655	12.09
605.991	11.89
606.326	12.05
606.662	12.12
606.998	12.02
607.333	12.14
607.668	12.36
608.004	12.15
608.339	12.51
608.674	12.49
609.01	12.36
609.345	12.4
609.68	12.46
610.015	12.55
610.35	12.49
610.685	12.47
611.02	12.32
611.355	12.82
611.689	12.68
612.024	12.37
612.359	12.63
612.694	12.6
613.028	12.69
613.363	12.76
613.697	12.68
614.032	12.92
614.366	12.95
614.7	12.8
615.035	13.22
615.369	12.98
615.703	13.17
616.037	12.93
616.371	13.34
616.705	13.1
617.039	13.43
617.373	13.12
617.707	13.31
618.041	13.7
618.375	13.85
618.709	13.45
619.042	13.29
619.376	13.68
619.71	13.31
620.043	13.19
620.377	13.68
620.71	13.61
621.043	13.5
621.377	13.22
621.71	13.99
622.043	13.59
622.376	13.64
622.709	13.81
623.043	13.71
623.376	13.91
623.709	14.19
624.041	13.74
624.374	13.77
624.707	13.57
625.04	14.57
625.373	13.82
625.705	14.3
626.038	14.03
626.37	14.02
626.703	14.15
627.035	14.62
627.368	14.45
627.7	14.33
628.032	14.28
628.365	14.42
628.697	14.15
629.029	14.24
629.361	14.44
629.693	14.51
630.025	14.1
630.357	14.21
630.689	14.2
631.021	14.29
631.353	14.67
631.684	14.64
632.016	14.95
632.348	15.02
632.679	14.88
633.011	14.87
633.342	14.89
633.674	15.24
634.005	15.13
634.336	14.95
634.668	15.14
634.999	15.12
635.33	14.56
635.661	15.06
635.992	14.84
636.323	15.04
636.654	14.88
636.985	15.14
637.316	15.25
637.647	15.46
637.977	15.43
638.308	15.66
638.639	15.04
638.969	15.04
639.3	15.6
639.63	15.25
639.961	15.79
640.291	16.08
640.622	15.63
640.952	16.11
641.282	15.69
641.612	16.26
641.943	15.3
642.273	15.99
642.603	15.96
642.933	16.11
643.263	16.46
643.592	16.25
643.922	16.06
644.252	15.71
644.582	16.05
644.911	16.22
645.241	16.2
645.571	16.59
645.9	16.01
646.23	16.22
646.559	16.17
646.888	16.16
647.218	17.13
647.547	16.37
647.876	16.46
648.205	16.57
648.534	17.01
648.863	16.83
649.192	16.41
649.521	16.97
649.85	16.6
650.179	16.65
650.508	16.87
650.837	16.3
651.165	17.02
651.494	17.07
651.822	16.78
652.151	16.9
652.479	17.17
652.808	17.13
653.136	16.39
653.465	17.07
653.793	17.59
654.121	17.25
654.449	17.48
654.777	17.33
655.105	17.21
655.433	17.2
655.761	17
656.089	17.44
656.417	17.52
656.745	17.58
657.073	17.92
657.4	17.44
657.728	17.94
658.056	17.48
658.383	17.58
658.711	18.01
659.038	17.8
659.365	17.72
659.693	18.1
660.02	17.34
660.347	17.8
660.674	18.03
661.001	17.63
661.329	17.55
661.656	18.1
661.982	17.93
662.309	18.41
662.636	17.86
662.963	18.73
663.29	18.28
663.616	17.81
663.943	17.66
664.27	18.22
664.596	18.65
664.923	18.2
665.249	19.09
665.576	18.19
665.902	19.09
666.228	18.65
666.554	18.9
666.881	17.88
667.207	19.03
667.533	18.51
667.859	19.09
668.185	18.52
668.511	19.06
668.837	19.29
669.162	19.07
669.488	19.07
669.814	18.88
670.139	19.02
670.465	19.76
670.791	19.41
671.116	19.5
671.442	19.51
671.767	19.06
672.092	19.14
672.418	19.33
672.743	18.94
673.068	19.36
673.393	19.08
673.718	19.06
674.043	19.55
674.368	19.36
674.693	19.85
675.018	19.53
675.343	19.83
675.667	19.45
675.992	20.16
676.317	19.22
676.641	20
676.966	20.1
677.29	19.4
677.615	20.52
677.939	19.99
678.264	20.26
678.588	20.21
678.912	19.62
679.236	19.85
679.56	20
679.885	19.87
680.209	20.33
680.532	19.85
680.856	20.62
681.18	20.36
681.504	20.11
681.828	20.3
682.152	19.98
682.475	20.37
682.799	21.28
683.122	20.3
683.446	20.03
683.769	20.24
684.093	20.62
684.416	20.34
684.739	20.63
685.062	20.87
685.386	20.85
685.709	20.54
686.032	20.57
686.355	21.24
