Data from 0364_chest_Reflection__0__46.txt Node

Date: Mon Dec 11 18:12:09 CST 2023
User: ToomeyLab
Spectrometer: FLMS14357
Trigger mode: 0
Integration Time (sec): 1.000000E-2
Scans to average: 100
Electric dark correction enabled: true
Nonlinearity correction enabled: false
Boxcar width: 0
XAxis mode: Wavelengths
Number of Pixels in Spectrum: 2048
>>>>>Begin Spectral Data<<<<<
189.047	-547.71
189.435	-547.71
189.823	-547.71
190.211	2790.73
190.599	53.35
190.987	-203.59
191.375	85.96
191.763	100.63
192.151	-1047.14
192.538	151.64
192.926	39.25
193.314	73.15
193.702	42.55
194.089	65.87
194.477	139.02
194.864	63.4
195.252	28.29
195.639	-53.21
196.027	128.22
196.414	-42.42
196.801	20.5
197.189	262.85
197.576	75.7
197.963	32.5
198.351	-4.5
198.738	29.13
199.125	-30.65
199.512	45.49
199.899	-6.58
200.286	6.98
200.673	-49.6
201.06	38.34
201.447	-7.4
201.833	29.06
202.22	21.76
202.607	9.48
202.994	14.76
203.38	-54.94
203.767	38.43
204.154	40.21
204.54	-34.42
204.927	-36.97
205.313	19.97
205.699	-28
206.086	21.49
206.472	21.49
206.858	31.49
207.245	3.43
207.631	-4.16
208.017	6
208.403	24.53
208.789	-10.63
209.175	49.97
209.561	32.52
209.947	2.18
210.333	23.37
210.719	31.27
211.105	32.74
211.491	19.11
211.876	22.13
212.262	-5.26
212.648	7.61
213.034	10.72
213.419	12.64
213.805	6.54
214.19	29.77
214.576	25.54
214.961	32.01
215.346	50.09
215.732	25.86
216.117	-0.78
216.502	15.37
216.888	11.82
217.273	15.48
217.658	13.86
218.043	0.92
218.428	18.7
218.813	45.16
219.198	2.85
219.583	-4.36
219.968	-0.17
220.353	-6.44
220.738	33.68
221.122	-7.68
221.507	25.43
221.892	11.76
222.276	3.86
222.661	-3.86
223.046	0.54
223.43	11.17
223.815	2.72
224.199	7.18
224.583	-1.98
224.968	14.44
225.352	9.35
225.736	6.27
226.121	1.58
226.505	3.84
226.889	-1.27
227.273	4.92
227.657	16.17
228.041	7.05
228.425	5.34
228.809	2.69
229.193	4.02
229.577	3.36
229.961	3.7
230.344	3.72
230.728	3.86
231.112	2.94
231.495	3.66
231.879	3.39
232.263	3.14
232.646	2.5
233.03	1.94
233.413	4.12
233.797	4.07
234.18	2.75
234.563	0.96
234.946	4.58
235.33	5.24
235.713	3.78
236.096	3.82
236.479	4.07
236.862	2.05
237.245	1.52
237.628	4.08
238.011	4.14
238.394	4.84
238.777	3.68
239.16	3.29
239.543	3.93
239.925	4.13
240.308	2.98
240.691	2.45
241.073	2.96
241.456	5.23
241.838	4.9
242.221	4.8
242.603	3.34
242.986	3.56
243.368	3.11
243.75	3.8
244.133	3.7
244.515	3.12
244.897	3.78
245.279	3.44
245.661	3.93
246.043	4.18
246.425	4.1
246.807	3.6
247.189	4.78
247.571	3.85
247.953	3.26
248.335	4.06
248.717	3.93
249.098	3.65
249.48	3.78
249.862	3.92
250.243	3.89
250.625	3.56
251.006	3.59
251.388	3.9
251.769	4.24
252.151	5.53
252.532	4.42
252.913	4.11
253.295	4.29
253.676	4.14
254.057	3.86
254.438	4.3
254.819	3.9
255.2	2.64
255.581	3.66
255.962	3.49
256.343	4.52
256.724	3.88
257.105	3.33
257.486	3.78
257.867	4.96
258.247	3.24
258.628	5.06
259.009	4.82
259.389	4.74
259.77	2.97
260.15	3.79
260.531	4.15
260.911	3.32
261.292	3.52
261.672	3.67
262.052	3.85
262.432	3.72
262.813	3.69
263.193	3.41
263.573	3.65
263.953	3.54
264.333	3.1
264.713	4.09
265.093	3.63
265.473	3.82
265.853	4.45
266.233	3.48
266.612	3.79
266.992	4.21
267.372	3.95
267.752	4.26
268.131	4.19
268.511	3.61
268.89	3.9
269.27	3.98
269.649	3.83
270.029	3.79
270.408	3.65
270.787	2.94
271.167	2.8
271.546	3.45
271.925	3.56
272.304	3.77
272.683	3.87
273.062	3.01
273.441	3.32
273.82	3
274.199	3.01
274.578	3.82
274.957	3.57
275.336	3.45
275.715	3.25
276.093	3.98
276.472	3.68
276.851	4.05
277.229	3.97
277.608	3.21
277.986	3.99
278.365	3.6
278.743	3.41
279.122	3.59
279.5	3.87
279.878	3.32
280.257	3.23
280.635	3.29
281.013	3.12
281.391	3.28
281.769	3.25
282.147	3.26
282.525	2.84
282.903	3.77
283.281	3.19
283.659	3.19
284.037	3.24
284.415	3.08
284.792	3.66
285.17	3.39
285.548	3.51
285.925	3.24
286.303	3.47
286.68	3.18
287.058	3.15
287.435	3.58
287.813	3.8
288.19	3.58
288.567	3.59
288.945	3.85
289.322	3.05
289.699	3.25
290.076	3.34
290.453	3.63
290.83	4.07
291.207	3.72
291.584	3.78
291.961	3.74
292.338	3.85
292.715	3.85
293.092	3.65
293.469	4.26
293.845	3.65
294.222	3.68
294.599	3.87
294.975	3.94
295.352	3.86
295.728	4.27
296.105	4
296.481	4.16
296.858	4.35
297.234	4.47
297.61	4.69
297.986	4.34
298.363	4.47
298.739	4.33
299.115	4.17
299.491	4.29
299.867	4.16
300.243	4.76
300.619	4.22
300.995	4.22
301.371	4.71
301.746	4.29
302.122	4.17
302.498	4.73
302.874	5.05
303.249	4.9
303.625	4.76
304	5.19
304.376	5.06
304.751	4.88
305.127	5.31
305.502	5.34
305.878	4.45
306.253	5.01
306.628	4.68
307.003	5.2
307.378	4.77
307.754	4.9
308.129	4.73
308.504	4.59
308.879	5.24
309.254	5.62
309.629	5.14
310.003	5.35
310.378	4.93
310.753	5.22
311.128	5.46
311.502	5.41
311.877	5.5
312.252	5.66
312.626	5.47
313.001	5.19
313.375	4.94
313.75	5.28
314.124	4.98
314.498	5.49
314.873	5.39
315.247	5.31
315.621	6.08
315.995	5.75
316.369	5.57
316.743	5.83
317.117	5.59
317.491	5.61
317.865	5.64
318.239	5.84
318.613	5.89
318.987	6.1
319.361	6.2
319.734	6.03
320.108	5.41
320.482	5.83
320.855	5.75
321.229	5.6
321.602	5.69
321.976	6.54
322.349	5.84
322.723	5.73
323.096	6.4
323.469	6.75
323.843	6.32
324.216	6.6
324.589	6.13
324.962	6.05
325.335	6.02
325.708	6.05
326.081	6.58
326.454	6.25
326.827	5.78
327.2	5.93
327.573	6.16
327.945	6.71
328.318	6.19
328.691	6.14
329.063	5.69
329.436	5.43
329.809	5.71
330.181	6.77
330.553	6.22
330.926	6.01
331.298	6.95
331.671	6.22
332.043	6.84
332.415	6.46
332.787	6.46
333.159	6.54
333.532	6.71
333.904	6.16
334.276	6.78
334.648	6.77
335.02	6.57
335.391	6.1
335.763	5.81
336.135	6.27
336.507	6.18
336.879	6.55
337.25	6.31
337.622	5.96
337.993	5.97
338.365	6.46
338.736	6.6
339.108	6.78
339.479	6.16
339.851	6.16
340.222	6.99
340.593	6.34
340.964	6.48
341.336	6.62
341.707	6.25
342.078	6.79
342.449	6.62
342.82	6
343.191	6.31
343.562	6.47
343.933	6.64
344.303	6.08
344.674	6.64
345.045	6.58
345.416	6.6
345.786	6.96
346.157	6.18
346.527	6.64
346.898	6.66
347.268	6.22
347.639	6.67
348.009	6.44
348.38	6.45
348.75	6.46
349.12	7.19
349.49	6.22
349.861	6.24
350.231	6.72
350.601	7.06
350.971	7.29
351.341	6.15
351.711	6.46
352.081	6.04
352.45	6.89
352.82	6.11
353.19	6.68
353.56	6.27
353.929	6.65
354.299	7.11
354.669	7.26
355.038	6.57
355.408	6.34
355.777	6.55
356.147	6.81
356.516	6.56
356.885	6.58
357.254	6.76
357.624	6.74
357.993	6.23
358.362	6.89
358.731	6.65
359.1	6.67
359.469	6.59
359.838	6.86
360.207	6.48
360.576	6.73
360.945	6.71
361.314	6.91
361.682	6.65
362.051	6.8
362.42	6.69
362.788	6.42
363.157	6.57
363.525	6.27
363.894	6.6
364.262	6.69
364.631	6.79
364.999	6.9
365.367	7.15
365.735	6.84
366.104	6.48
366.472	6.91
366.84	6.63
367.208	6.81
367.576	7.03
367.944	6.73
368.312	6.91
368.68	6.96
369.048	6.91
369.416	6.79
369.783	6.72
370.151	7.26
370.519	7.32
370.886	6.76
371.254	7.08
371.621	6.97
371.989	7
372.356	7.03
372.724	7.23
373.091	7.13
373.458	6.87
373.826	7.12
374.193	7
374.56	6.92
374.927	7.23
375.294	7.25
375.661	7.17
376.028	7.23
376.395	7.3
376.762	6.7
377.129	7.42
377.496	7.07
377.863	7.05
378.229	6.7
378.596	7.38
378.963	7.28
379.329	6.91
379.696	7.25
380.062	6.71
380.429	7.21
380.795	7.41
381.161	6.73
381.528	7.49
381.894	7.39
382.26	7.3
382.626	7.22
382.993	7.33
383.359	7.12
383.725	7
384.091	7.19
384.457	7.03
384.823	7.51
385.188	7.14
385.554	6.94
385.92	6.91
386.286	7.24
386.651	6.93
387.017	7.34
387.383	7.2
387.748	7.24
388.114	7.09
388.479	7.13
388.845	7.06
389.21	7.33
389.575	7.3
389.94	7.25
390.306	7.35
390.671	7.18
391.036	7.47
391.401	7.57
391.766	7.28
392.131	7.22
392.496	7.4
392.861	7.4
393.226	7.53
393.591	7.41
393.956	7.38
394.32	7.27
394.685	7.4
395.05	7.45
395.414	7.4
395.779	7.41
396.143	7.22
396.508	7.35
396.872	7.77
397.236	7.6
397.601	7.14
397.965	7.73
398.329	7.37
398.694	7.26
399.058	7.5
399.422	7.39
399.786	7.65
400.15	7.38
400.514	7.51
400.878	7.64
401.242	7.46
401.605	7.54
401.969	7.37
402.333	7.38
402.697	7.24
403.06	7.43
403.424	7.59
403.787	7.65
404.151	7.53
404.514	7.5
404.878	7.46
405.241	7.51
405.604	7.42
405.968	7.51
406.331	7.39
406.694	7.27
407.057	7.53
407.42	7.68
407.783	7.42
408.146	7.64
408.509	7.79
408.872	7.65
409.235	7.39
409.598	7.5
409.961	7.76
410.323	7.79
410.686	7.43
411.049	7.82
411.411	7.85
411.774	7.69
412.136	7.69
412.499	8.09
412.861	7.55
413.223	7.64
413.586	7.83
413.948	7.94
414.31	7.53
414.672	7.53
415.035	7.66
415.397	7.78
415.759	7.88
416.121	7.68
416.483	7.79
416.845	7.75
417.206	7.6
417.568	7.8
417.93	8.02
418.292	7.59
418.653	7.64
419.015	7.63
419.377	7.66
419.738	7.72
420.1	7.59
420.461	7.61
420.822	7.51
421.184	7.66
421.545	7.66
421.906	7.51
422.267	7.56
422.629	7.6
422.99	7.62
423.351	7.64
423.712	7.47
424.073	7.71
424.434	7.71
424.795	7.68
425.155	7.75
425.516	7.62
425.877	7.6
426.238	7.66
426.598	7.75
426.959	7.68
427.32	7.74
427.68	7.9
428.041	7.72
428.401	7.75
428.761	7.84
429.122	7.71
429.482	7.87
429.842	7.91
430.202	7.7
430.563	8.11
430.923	7.89
431.283	7.92
431.643	7.98
432.003	8.04
432.363	7.92
432.722	8.03
433.082	8.08
433.442	8.06
433.802	7.88
434.161	8.27
434.521	7.92
434.881	7.99
435.24	8.01
435.6	7.98
435.959	8.05
436.319	7.92
436.678	8.05
437.037	7.91
437.396	8.09
437.756	8.2
438.115	8.24
438.474	8.18
438.833	7.96
439.192	8.06
439.551	7.98
439.91	8.06
440.269	8.18
440.628	7.93
440.987	8.32
441.345	8.08
441.704	8.11
442.063	8.08
442.421	7.93
442.78	8.06
443.138	8.09
443.497	7.93
443.855	7.99
444.214	8.13
444.572	7.98
444.93	8.31
445.288	8.19
445.647	8.28
446.005	7.93
446.363	8.25
446.721	8
447.079	8.13
447.437	8.13
447.795	8
448.153	8.19
448.51	8.09
448.868	7.86
449.226	7.95
449.584	8.1
449.941	8.22
450.299	8.16
450.656	8.19
451.014	8.23
451.371	8.19
451.729	8.36
452.086	8.35
452.443	8.49
452.801	8.38
453.158	8.32
453.515	8.33
453.872	8.38
454.229	8.45
454.586	8.38
454.943	8.34
455.3	8.48
455.657	8.35
456.014	8.34
456.371	8.59
456.727	8.37
457.084	8.33
457.441	8.47
457.797	8.37
458.154	8.63
458.51	8.51
458.867	8.13
459.223	8.48
459.58	8.42
459.936	8.52
460.292	8.49
460.648	8.5
461.005	8.5
461.361	8.45
461.717	8.26
462.073	8.2
462.429	8.37
462.785	8.28
463.141	8.37
463.496	8.56
463.852	8.43
464.208	8.49
464.564	8.61
464.919	8.58
465.275	8.56
465.631	8.38
465.986	8.73
466.342	8.67
466.697	8.73
467.052	8.62
467.408	9.04
467.763	8.53
468.118	8.61
468.473	8.71
468.829	8.7
469.184	8.8
469.539	8.76
469.894	8.55
470.249	8.86
470.603	8.65
470.958	8.75
471.313	8.69
471.668	8.82
472.023	8.76
472.377	8.86
472.732	8.93
473.086	8.8
473.441	8.84
473.795	9.07
474.15	8.89
474.504	8.77
474.859	8.87
475.213	8.9
475.567	8.83
475.921	8.86
476.275	8.94
476.63	8.9
476.984	8.97
477.338	8.75
477.692	8.72
478.045	8.94
478.399	8.73
478.753	8.86
479.107	8.93
479.461	9.05
479.814	8.91
480.168	8.84
480.521	8.93
480.875	8.75
481.228	8.85
481.582	9.07
481.935	8.93
482.289	8.99
482.642	8.89
482.995	8.95
483.348	8.9
483.701	8.85
484.055	8.9
484.408	8.74
484.761	8.84
485.114	8.66
485.466	8.57
485.819	8.45
486.172	8.43
486.525	8.44
486.878	8.54
487.23	8.63
487.583	8.72
487.936	8.9
488.288	8.88
488.641	8.82
488.993	8.68
489.345	8.72
489.698	8.61
490.05	8.67
490.402	8.66
490.754	8.74
491.107	8.88
491.459	8.89
491.811	8.96
492.163	9.15
492.515	9.08
492.866	9.02
493.218	8.8
493.57	8.73
493.922	8.82
494.274	8.83
494.625	8.94
494.977	9.02
495.328	9.11
495.68	9.32
496.031	9.21
496.383	9.1
496.734	9.35
497.086	9.37
497.437	9.32
497.788	9.39
498.139	9.22
498.49	9.29
498.842	9.36
499.193	9.32
499.544	9.27
499.894	9.35
500.245	9.28
500.596	9.44
500.947	9.33
501.298	9.46
501.648	9.36
501.999	9.27
502.35	9.41
502.7	9.37
503.051	9.44
503.401	9.46
503.752	9.44
504.102	9.59
504.452	9.51
504.803	9.73
505.153	9.62
505.503	9.86
505.853	9.73
506.203	9.47
506.553	9.5
506.903	9.59
507.253	9.66
507.603	9.51
507.953	9.86
508.303	9.68
508.652	9.8
509.002	9.62
509.352	9.8
509.701	9.69
510.051	9.71
510.4	9.68
510.75	9.66
511.099	9.58
511.449	9.82
511.798	9.76
512.147	9.78
512.496	9.69
512.846	9.75
513.195	9.86
513.544	9.81
513.893	9.79
514.242	9.77
514.591	9.74
514.939	9.81
515.288	9.91
515.637	9.81
515.986	9.81
516.334	10.07
516.683	10.02
517.032	10.11
517.38	10.08
517.729	9.98
518.077	10.15
518.426	10.04
518.774	10.05
519.122	10.15
519.47	9.93
519.819	9.89
520.167	9.92
520.515	9.92
520.863	9.82
521.211	9.94
521.559	9.83
521.907	10.02
522.255	10
522.602	10.06
522.95	10.18
523.298	10.21
523.645	10.18
523.993	10.13
524.341	10.27
524.688	10.13
525.036	10.24
525.383	10.38
525.73	10.31
526.078	10.4
526.425	10.46
526.772	10.3
527.119	10.28
527.466	10.19
527.814	10.22
528.161	10.06
528.508	10.22
528.854	10.17
529.201	10.19
529.548	10.17
529.895	10.13
530.242	10.02
530.588	9.98
530.935	9.97
531.282	10.01
531.628	10.04
531.975	10.13
532.321	10.21
532.667	10.25
533.014	10.31
533.36	10.41
533.706	10.48
534.052	10.38
534.399	10.47
534.745	10.49
535.091	10.24
535.437	10.28
535.783	10.39
536.129	10.46
536.474	10.49
536.82	10.53
537.166	10.64
537.512	10.63
537.857	10.75
538.203	10.69
538.549	10.68
538.894	10.62
539.239	10.7
539.585	10.71
539.93	10.63
540.276	10.76
540.621	10.97
540.966	10.95
541.311	10.98
541.656	10.92
542.001	11.03
542.346	10.95
542.691	10.79
543.036	10.68
543.381	10.6
543.726	10.64
544.071	10.71
544.415	10.76
544.76	10.8
545.105	10.92
545.449	10.91
545.794	10.97
546.138	11.12
546.483	11.04
546.827	11.23
547.171	11.1
547.516	11.22
547.86	11.3
548.204	11.21
548.548	11.27
548.892	11.14
549.236	11.27
549.58	11.4
549.924	11.4
550.268	11.38
550.612	11.5
550.956	11.5
551.3	11.53
551.643	11.64
551.987	11.82
552.33	11.72
552.674	11.6
553.017	11.72
553.361	11.59
553.704	11.61
554.048	11.68
554.391	11.61
554.734	11.72
555.077	11.77
555.42	11.91
555.764	11.7
556.107	11.97
556.45	11.78
556.793	11.95
557.135	11.93
557.478	11.92
557.821	12.06
558.164	12.21
558.507	12.07
558.849	12.11
559.192	12.15
559.534	12.07
559.877	12.33
560.219	12.12
560.562	12.23
560.904	12.17
561.246	12.17
561.589	12.27
561.931	12.23
562.273	12.09
562.615	12.22
562.957	12.3
563.299	12.24
563.641	12.32
563.983	12.35
564.325	12.42
564.667	12.53
565.008	12.41
565.35	12.65
565.692	12.55
566.033	12.43
566.375	12.72
566.716	12.49
567.058	12.46
567.399	12.53
567.741	12.43
568.082	12.57
568.423	12.6
568.764	12.58
569.105	12.66
569.447	12.66
569.788	12.7
570.129	12.77
570.47	12.65
570.811	12.6
571.151	12.74
571.492	13.02
571.833	12.89
572.174	12.95
572.514	13.03
572.855	12.86
573.195	12.81
573.536	12.95
573.876	12.93
574.217	12.91
574.557	12.84
574.898	13.07
575.238	12.92
575.578	13.15
575.918	13.05
576.258	13.12
576.598	13.2
576.938	13.38
577.278	13.14
577.618	13.24
577.958	13.1
578.298	13.53
578.638	13.3
578.977	13.45
579.317	13.47
579.657	13.23
579.996	13.12
580.336	13.49
580.675	13.59
581.014	13.54
581.354	13.49
581.693	13.64
582.032	13.37
582.372	13.72
582.711	13.62
583.05	13.7
583.389	13.82
583.728	13.92
584.067	13.81
584.406	13.59
584.745	13.86
585.083	13.94
585.422	13.88
585.761	14.03
586.1	13.99
586.438	13.95
586.777	13.97
587.115	13.77
587.454	14.2
587.792	14.06
588.13	14.21
588.469	14.04
588.807	14.23
589.145	14.46
589.483	14.25
589.821	14.07
590.159	14.24
590.497	14.39
590.835	14.32
591.173	14.36
591.511	14.27
591.849	14.36
592.187	14.12
592.524	14.38
592.862	14.38
593.2	14.3
593.537	14.36
593.875	14.47
594.212	14.56
594.55	14.69
594.887	14.76
595.224	14.76
595.561	14.59
595.899	14.75
596.236	14.62
596.573	14.75
596.91	14.4
597.247	14.73
597.584	14.45
597.921	14.68
598.258	14.77
598.594	14.82
598.931	14.67
599.268	14.81
599.604	14.8
599.941	14.84
600.277	14.89
600.614	15.1
600.95	14.97
601.287	15.18
601.623	15.18
601.959	15.38
602.296	15.14
602.632	15.05
602.968	15.01
603.304	15.41
603.64	15.19
603.976	15.33
604.312	15.24
604.648	15.34
604.984	15.05
605.319	15.15
605.655	15.14
605.991	15.27
606.326	15.35
606.662	15.17
606.998	15.19
607.333	15.34
607.668	15.33
608.004	15.21
608.339	15.66
608.674	15.46
609.01	15.42
609.345	15.47
609.68	15.6
610.015	15.68
610.35	15.65
610.685	15.75
611.02	15.72
611.355	15.74
611.689	15.79
612.024	15.68
612.359	15.66
612.694	15.88
613.028	15.55
613.363	15.84
613.697	15.91
614.032	15.98
614.366	15.75
614.7	15.95
615.035	16.13
615.369	15.98
615.703	16.05
616.037	16.29
616.371	16.43
616.705	16.33
617.039	16.36
617.373	16
617.707	16.67
618.041	16.38
618.375	16.74
618.709	15.9
619.042	16.56
619.376	16.9
619.71	16.61
620.043	16.48
620.377	16.45
620.71	16.55
621.043	16.27
621.377	16.5
621.71	16.53
622.043	16.5
622.376	17.18
622.709	16.88
623.043	17.05
623.376	16.77
623.709	17.04
624.041	16.76
624.374	17.01
624.707	16.83
625.04	17.39
625.373	16.91
625.705	17.39
626.038	17.06
626.37	16.99
626.703	17.49
627.035	16.81
627.368	17.28
627.7	17.01
628.032	17.02
628.365	17.02
628.697	16.76
629.029	16.91
629.361	16.89
629.693	17.22
630.025	17.02
630.357	17.04
630.689	17.22
631.021	17.3
631.353	16.88
631.684	17.41
632.016	17.74
632.348	17.72
632.679	17.87
633.011	17.53
633.342	17.74
633.674	17.95
634.005	17.77
634.336	17.54
634.668	17.39
634.999	17.9
635.33	17.21
635.661	18.24
635.992	17.84
636.323	17.64
636.654	17.39
636.985	17.38
637.316	17.68
637.647	17.87
637.977	17.91
638.308	18.06
638.639	17.76
638.969	17.46
639.3	17.89
639.63	17.85
639.961	17.8
640.291	18.33
640.622	18.1
640.952	18.63
641.282	18.24
641.612	18.43
641.943	18.05
642.273	18.33
642.603	18.27
642.933	18.6
643.263	18.3
643.592	18.58
643.922	18.3
644.252	17.8
644.582	18.57
644.911	18.98
645.241	18.6
645.571	18.84
645.9	18.32
646.23	18.16
646.559	18.31
646.888	18.41
647.218	18.72
647.547	18.92
647.876	18.61
648.205	18.83
648.534	18.71
648.863	18.68
649.192	18.98
649.521	18.89
649.85	18.9
650.179	18.69
650.508	19.15
650.837	18.51
651.165	19.16
651.494	18.78
651.822	19.44
652.151	19.27
652.479	18.92
652.808	19.34
653.136	18.54
653.465	18.79
653.793	19.39
654.121	19.11
654.449	19.5
654.777	19.55
655.105	18.82
655.433	19.13
655.761	18.95
656.089	19.31
656.417	19.21
656.745	20.03
657.073	19.71
657.4	19.38
657.728	19.9
658.056	19.52
658.383	19.59
658.711	19.64
659.038	19.74
659.365	19.72
659.693	19.42
660.02	19.64
660.347	19.38
660.674	19.68
661.001	19.17
661.329	19.69
661.656	19.85
661.982	19.68
662.309	19.75
662.636	19.64
662.963	19.97
663.29	19.7
663.616	19.38
663.943	19.29
664.27	19.41
664.596	20.08
664.923	19.73
665.249	19.88
665.576	19.5
665.902	19.58
666.228	19.81
666.554	20.39
666.881	19.79
667.207	20.21
667.533	19.87
667.859	20.3
668.185	20.33
668.511	20.25
668.837	20.56
669.162	20.29
669.488	20.15
669.814	20.28
670.139	20.35
670.465	20.23
670.791	20.69
671.116	20.87
671.442	20.45
671.767	20
672.092	20.06
672.418	20.6
672.743	19.84
673.068	20.57
673.393	20.3
673.718	20.5
674.043	20.6
674.368	20.72
674.693	20.57
675.018	21.04
675.343	20.88
675.667	21.08
675.992	21.77
676.317	20.63
676.641	21.17
676.966	21.35
677.29	20.52
677.615	21.3
677.939	20.44
678.264	20.76
678.588	21.28
678.912	20.78
679.236	21.17
679.56	20.99
679.885	20.81
680.209	21.3
680.532	21.74
680.856	20.86
681.18	21.52
681.504	20.98
681.828	21.01
