Data from 0364_crown_Reflection__3__54.txt Node

Date: Mon Dec 11 18:22:00 CST 2023
User: ToomeyLab
Spectrometer: FLMS14357
Trigger mode: 0
Integration Time (sec): 1.000000E-2
Scans to average: 100
Electric dark correction enabled: true
Nonlinearity correction enabled: false
Boxcar width: 0
XAxis mode: Wavelengths
Number of Pixels in Spectrum: 2048
>>>>>Begin Spectral Data<<<<<
189.047	144.44
189.435	144.44
189.823	144.44
190.211	-2901.32
190.599	9.43
190.987	-223.26
191.375	79.52
191.763	65.86
192.151	-81.82
192.538	142.22
192.926	-78.46
193.314	39.9
193.702	89.15
194.089	186.84
194.477	143.75
194.864	10.12
195.252	90.9
195.639	28.92
196.027	67.77
196.414	49.58
196.801	7.12
197.189	17.36
197.576	91.5
197.963	15.07
198.351	-1.31
198.738	-7.04
199.125	-66.23
199.512	-2.76
199.899	-13.78
200.286	-6.92
200.673	-70.15
201.06	31.74
201.447	14.16
201.833	21.96
202.22	27.24
202.607	-27.68
202.994	-19.55
203.38	-54.77
203.767	48.65
204.154	18.74
204.54	0.82
204.927	-13.85
205.313	14.92
205.699	-8.77
206.086	-18.03
206.472	31.11
206.858	16.62
207.245	9.37
207.631	-9.68
208.017	22.09
208.403	23.23
208.789	-8.09
209.175	14.02
209.561	-8.47
209.947	14.49
210.333	26.38
210.719	13.27
211.105	14.74
211.491	11.46
211.876	16.54
212.262	24.62
212.648	7.71
213.034	-0.51
213.419	8.68
213.805	-55.35
214.19	0.77
214.576	-15.5
214.961	14.19
215.346	-8.75
215.732	18.53
216.117	19.67
216.502	6.07
216.888	15.18
217.273	13.89
217.658	1.04
218.043	9.85
218.428	7.76
218.813	13.63
219.198	-3.08
219.583	9.94
219.968	-8.94
220.353	-14.62
220.738	29.54
221.122	25.2
221.507	16.44
221.892	8.82
222.276	4.66
222.661	-0.05
223.046	-6.68
223.43	11.51
223.815	1.53
224.199	15.89
224.583	-0.7
224.968	3.13
225.352	11.07
225.736	4.38
226.121	4.21
226.505	-4.07
226.889	7.42
227.273	8.51
227.657	13.29
228.041	6.68
228.425	4.54
228.809	1.47
229.193	4.54
229.577	6.06
229.961	5.72
230.344	5.9
230.728	5.13
231.112	4.46
231.495	5.81
231.879	5.14
232.263	5.48
232.646	5.63
233.03	4.07
233.413	4.21
233.797	6.35
234.18	3.82
234.563	4.5
234.946	4.97
235.33	9.12
235.713	4.64
236.096	6.05
236.479	5.92
236.862	5.92
237.245	4.17
237.628	6.44
238.011	5.33
238.394	3.8
238.777	4.49
239.16	5.04
239.543	6.42
239.925	5.12
240.308	4.29
240.691	5.63
241.073	6.39
241.456	6.18
241.838	7.77
242.221	5.69
242.603	4.68
242.986	4.46
243.368	5
243.75	5.24
244.133	5.3
244.515	5.1
244.897	4.83
245.279	5.16
245.661	5.23
246.043	5.42
246.425	5.51
246.807	6.21
247.189	5.08
247.571	5.48
247.953	5.56
248.335	5.48
248.717	4.94
249.098	4.87
249.48	4.9
249.862	5.59
250.243	5.49
250.625	5.2
251.006	4.94
251.388	5.34
251.769	5.1
252.151	6.02
252.532	5.76
252.913	4.98
253.295	5.91
253.676	5.09
254.057	5.43
254.438	4.92
254.819	4.55
255.2	4.19
255.581	4.47
255.962	4.79
256.343	5.21
256.724	5.53
257.105	5.07
257.486	4.81
257.867	5.23
258.247	4.68
258.628	4.81
259.009	6.09
259.389	5.4
259.77	4.32
260.15	4.25
260.531	4.84
260.911	4.63
261.292	4.66
261.672	4.72
262.052	4.82
262.432	4.76
262.813	4.91
263.193	5.21
263.573	4.91
263.953	4.89
264.333	4.51
264.713	5.29
265.093	4.81
265.473	5.79
265.853	4.43
266.233	4.75
266.612	4.8
266.992	5.23
267.372	6.48
267.752	4.98
268.131	5.27
268.511	4.94
268.89	5.13
269.27	5.3
269.649	4.94
270.029	5.07
270.408	4.89
270.787	4.39
271.167	4.01
271.546	4.81
271.925	4.76
272.304	4.41
272.683	4.6
273.062	4.42
273.441	4.79
273.82	4.33
274.199	4.39
274.578	5.05
274.957	4.62
275.336	4.55
275.715	4.34
276.093	5.11
276.472	4.92
276.851	4.96
277.229	4.67
277.608	4.55
277.986	5.34
278.365	4.44
278.743	4.81
279.122	4.86
279.5	5.42
279.878	4.74
280.257	4.4
280.635	4.41
281.013	4.06
281.391	4.77
281.769	4.18
282.147	4.56
282.525	4.4
282.903	4.74
283.281	4.15
283.659	4
284.037	4.17
284.415	4.26
284.792	4.64
285.17	4.54
285.548	4.43
285.925	4.17
286.303	4.74
286.68	4.36
287.058	4.03
287.435	4.66
287.813	4.86
288.19	4.16
288.567	4.37
288.945	4.4
289.322	4.35
289.699	4.46
290.076	4.19
290.453	4.55
290.83	4.75
291.207	4.5
291.584	4.45
291.961	4.39
292.338	4.23
292.715	4.86
293.092	4.21
293.469	4.83
293.845	4.71
294.222	4.75
294.599	4.24
294.975	3.86
295.352	4.3
295.728	4.54
296.105	4.37
296.481	4.22
296.858	4.25
297.234	4.49
297.61	4.85
297.986	4.71
298.363	4.66
298.739	4.51
299.115	4.32
299.491	4.38
299.867	4.47
300.243	4.57
300.619	4.55
300.995	4.14
301.371	4.15
301.746	4.31
302.122	4.55
302.498	4.59
302.874	4.67
303.249	4.41
303.625	4.6
304	4.28
304.376	4.77
304.751	3.98
305.127	4.49
305.502	4.45
305.878	4.45
306.253	4.66
306.628	4.58
307.003	4.99
307.378	4.35
307.754	4.94
308.129	4.35
308.504	4.42
308.879	4.49
309.254	4.3
309.629	4.68
310.003	4.83
310.378	4.33
310.753	4.89
311.128	4.55
311.502	4.14
311.877	4.44
312.252	4.71
312.626	4.73
313.001	4.62
313.375	4.26
313.75	4.39
314.124	4.66
314.498	4.27
314.873	4.73
315.247	4.37
315.621	4.88
315.995	4.92
316.369	4.43
316.743	4.51
317.117	4.33
317.491	4.84
317.865	4.82
318.239	5.09
318.613	4.45
318.987	4.69
319.361	4.49
319.734	4.43
320.108	4.46
320.482	4.23
320.855	4.26
321.229	4.06
321.602	4.11
321.976	5.41
322.349	4.73
322.723	4.25
323.096	5.03
323.469	5.15
323.843	4.34
324.216	4.82
324.589	5.25
324.962	4.77
325.335	4.68
325.708	4.72
326.081	4.9
326.454	4.8
326.827	4.55
327.2	3.74
327.573	4.5
327.945	4.58
328.318	4.75
328.691	4.38
329.063	4.34
329.436	4.66
329.809	4.55
330.181	4.66
330.553	4.79
330.926	4.58
331.298	4.95
331.671	4.29
332.043	5.08
332.415	4.59
332.787	4.91
333.159	4.65
333.532	4.14
333.904	4.18
334.276	5.23
334.648	4.65
335.02	4.52
335.391	4.16
335.763	4.71
336.135	4.56
336.507	4.76
336.879	4.7
337.25	4.31
337.622	4.63
337.993	4.64
338.365	4.29
338.736	4.76
339.108	4.7
339.479	4.23
339.851	4.65
340.222	4.66
340.593	4.32
340.964	4.45
341.336	4.54
341.707	4.23
342.078	4.76
342.449	4.08
342.82	4.14
343.191	4.46
343.562	4.21
343.933	4.19
344.303	4.06
344.674	4.85
345.045	4.68
345.416	3.82
345.786	4.88
346.157	4.78
346.527	4.11
346.898	4.78
347.268	4.67
347.639	4.3
348.009	4.65
348.38	4.32
348.75	4.45
349.12	4.72
349.49	4.02
349.861	4.24
350.231	3.95
350.601	4.66
350.971	4.58
351.341	3.4
351.711	4.49
352.081	4.3
352.45	4.43
352.82	3.78
353.19	4.2
353.56	4.53
353.929	4.42
354.299	4.61
354.669	4.48
355.038	4.5
355.408	4.34
355.777	4.41
356.147	4.7
356.516	4.35
356.885	4.25
357.254	4.27
357.624	4.39
357.993	4.06
358.362	4.7
358.731	4.27
359.1	4.41
359.469	4.35
359.838	4.64
360.207	4.59
360.576	4.83
360.945	4.63
361.314	4.64
361.682	4.33
362.051	4.69
362.42	4.41
362.788	3.77
363.157	4.29
363.525	4.19
363.894	4.49
364.262	4.35
364.631	4.45
364.999	4.38
365.367	4.67
365.735	4.5
366.104	4.17
366.472	4.87
366.84	4.25
367.208	4.39
367.576	4.72
367.944	4.65
368.312	4.11
368.68	4.42
369.048	4.5
369.416	4.15
369.783	4.45
370.151	4.66
370.519	4.86
370.886	4.39
371.254	4.62
371.621	4.45
371.989	4.45
372.356	4.53
372.724	4.58
373.091	5.01
373.458	4.55
373.826	4.66
374.193	4.37
374.56	4.78
374.927	4.68
375.294	4.64
375.661	4.47
376.028	4.41
376.395	4.66
376.762	4.3
377.129	4.99
377.496	4.49
377.863	4.77
378.229	4.46
378.596	4.71
378.963	4.69
379.329	4.61
379.696	4.55
380.062	4.25
380.429	4.56
380.795	4.8
381.161	4.54
381.528	4.92
381.894	4.72
382.26	4.77
382.626	4.5
382.993	4.78
383.359	4.8
383.725	4.27
384.091	4.26
384.457	4.57
384.823	5.28
385.188	4.55
385.554	4.1
385.92	4.62
386.286	4.35
386.651	4.45
387.017	4.69
387.383	4.48
387.748	4.48
388.114	4.69
388.479	4.5
388.845	4.47
389.21	4.58
389.575	4.73
389.94	4.54
390.306	4.58
390.671	4.38
391.036	4.55
391.401	4.76
391.766	4.44
392.131	4.64
392.496	4.74
392.861	4.75
393.226	4.74
393.591	4.61
393.956	4.51
394.32	4.63
394.685	4.44
395.05	4.79
395.414	4.68
395.779	4.46
396.143	4.48
396.508	4.57
396.872	4.73
397.236	4.7
397.601	4.5
397.965	4.82
398.329	4.8
398.694	4.46
399.058	4.58
399.422	4.6
399.786	4.64
400.15	4.63
400.514	4.7
400.878	4.87
401.242	4.77
401.605	4.77
401.969	4.51
402.333	4.35
402.697	4.68
403.06	4.71
403.424	4.65
403.787	4.9
404.151	4.28
404.514	4.59
404.878	4.66
405.241	4.49
405.604	4.57
405.968	4.7
406.331	4.53
406.694	4.66
407.057	4.66
407.42	4.95
407.783	4.61
408.146	4.61
408.509	4.43
408.872	4.59
409.235	4.44
409.598	4.77
409.961	4.58
410.323	4.62
410.686	4.73
411.049	4.69
411.411	4.6
411.774	4.88
412.136	4.76
412.499	4.91
412.861	4.57
413.223	4.42
413.586	4.78
413.948	4.92
414.31	4.69
414.672	4.44
415.035	4.64
415.397	4.56
415.759	4.53
416.121	4.58
416.483	4.69
416.845	4.76
417.206	4.69
417.568	4.87
417.93	4.84
418.292	4.74
418.653	4.46
419.015	4.6
419.377	4.75
419.738	4.57
420.1	4.6
420.461	4.55
420.822	4.59
421.184	4.58
421.545	4.57
421.906	4.64
422.267	4.7
422.629	4.63
422.99	4.69
423.351	4.44
423.712	4.62
424.073	4.68
424.434	4.61
424.795	4.74
425.155	4.52
425.516	4.62
425.877	4.54
426.238	4.5
426.598	4.57
426.959	4.65
427.32	4.64
427.68	4.6
428.041	4.7
428.401	4.52
428.761	4.81
429.122	4.7
429.482	4.77
429.842	4.6
430.202	4.61
430.563	4.76
430.923	4.83
431.283	4.72
431.643	4.69
432.003	4.9
432.363	4.63
432.722	4.73
433.082	4.88
433.442	4.82
433.802	4.58
434.161	4.74
434.521	4.53
434.881	4.94
435.24	4.68
435.6	4.66
435.959	4.76
436.319	4.74
436.678	4.89
437.037	4.7
437.396	4.88
437.756	4.83
438.115	4.89
438.474	4.91
438.833	4.86
439.192	4.71
439.551	4.9
439.91	4.86
440.269	4.85
440.628	4.63
440.987	4.9
441.345	4.73
441.704	4.69
442.063	4.65
442.421	4.75
442.78	4.64
443.138	4.79
443.497	4.7
443.855	4.7
444.214	4.73
444.572	4.78
444.93	4.77
445.288	4.77
445.647	4.83
446.005	4.6
446.363	4.81
446.721	4.73
447.079	4.63
447.437	4.76
447.795	4.65
448.153	4.81
448.51	4.76
448.868	4.7
449.226	4.62
449.584	4.76
449.941	4.83
450.299	4.69
450.656	4.81
451.014	4.88
451.371	4.85
451.729	4.98
452.086	4.75
452.443	4.93
452.801	4.88
453.158	4.82
453.515	4.73
453.872	4.69
454.229	4.77
454.586	4.78
454.943	4.82
455.3	5
455.657	4.92
456.014	4.84
456.371	5.03
456.727	4.89
457.084	4.83
457.441	4.89
457.797	4.75
458.154	4.87
458.51	5
458.867	4.63
459.223	4.93
459.58	4.8
459.936	4.91
460.292	4.81
460.648	4.79
461.005	4.79
461.361	4.81
461.717	4.79
462.073	4.78
462.429	4.83
462.785	4.74
463.141	4.81
463.496	4.92
463.852	4.83
464.208	4.73
464.564	4.96
464.919	4.96
465.275	4.79
465.631	4.76
465.986	5.22
466.342	5.01
466.697	4.91
467.052	4.98
467.408	4.94
467.763	4.89
468.118	4.95
468.473	4.81
468.829	5.18
469.184	5.18
469.539	5.06
469.894	4.91
470.249	4.97
470.603	4.87
470.958	4.95
471.313	4.92
471.668	5.01
472.023	5.07
472.377	4.96
472.732	4.86
473.086	4.95
473.441	4.93
473.795	4.91
474.15	5.1
474.504	4.97
474.859	5.05
475.213	4.97
475.567	4.87
475.921	4.77
476.275	5
476.63	4.88
476.984	5.03
477.338	4.94
477.692	4.91
478.045	5.03
478.399	4.74
478.753	4.81
479.107	4.91
479.461	4.89
479.814	4.9
480.168	4.97
480.521	5.01
480.875	4.92
481.228	4.91
481.582	5.1
481.935	4.96
482.289	5.07
482.642	4.91
482.995	4.88
483.348	4.82
483.701	4.83
484.055	4.93
484.408	4.9
484.761	4.91
485.114	4.78
485.466	4.73
485.819	4.66
486.172	4.61
486.525	4.65
486.878	4.72
487.23	4.73
487.583	4.84
487.936	4.82
488.288	4.92
488.641	4.78
488.993	4.71
489.345	4.81
489.698	4.73
490.05	4.75
490.402	4.74
490.754	4.76
491.107	4.76
491.459	4.85
491.811	4.88
492.163	4.98
492.515	4.93
492.866	4.88
493.218	4.77
493.57	4.72
493.922	4.73
494.274	4.83
494.625	4.91
494.977	4.9
495.328	4.95
495.68	5.07
496.031	4.93
496.383	4.98
496.734	5.08
497.086	5.15
497.437	5.13
497.788	5.05
498.139	5.18
498.49	5.1
498.842	5.15
499.193	5.05
499.544	4.94
499.894	4.91
500.245	5.02
500.596	5.16
500.947	4.98
501.298	5.09
501.648	5.04
501.999	5.09
502.35	5.04
502.7	5.17
503.051	4.97
503.401	5.16
503.752	5.06
504.102	4.93
504.452	5.18
504.803	5.25
505.153	5.13
505.503	5.19
505.853	5.12
506.203	5
506.553	5.16
506.903	5.11
507.253	5.11
507.603	5.13
507.953	5.14
508.303	5.05
508.652	5.17
509.002	5.11
509.352	5.19
509.701	5.01
510.051	5.07
510.4	4.99
510.75	5.07
511.099	5.04
511.449	5.08
511.798	5.01
512.147	5.22
512.496	4.94
512.846	5.12
513.195	5.12
513.544	5.14
513.893	5.04
514.242	5.07
514.591	5.04
514.939	5.01
515.288	5.29
515.637	5.12
515.986	5.09
516.334	5.14
516.683	5.23
517.032	5.27
517.38	5.19
517.729	5.11
518.077	5.17
518.426	5.25
518.774	5.14
519.122	5.13
519.47	5.11
519.819	5.05
520.167	5.08
520.515	5
520.863	5.01
521.211	5.15
521.559	5.15
521.907	5.12
522.255	5.05
522.602	5.19
522.95	5.07
523.298	5.12
523.645	5.45
523.993	5.15
524.341	5.27
524.688	5.15
525.036	5.18
525.383	5.12
525.73	5.34
526.078	5.29
526.425	5.09
526.772	5.19
527.119	5.16
527.466	5.09
527.814	5.1
528.161	5.05
528.508	5.12
528.854	5.1
529.201	5.03
529.548	5.05
529.895	4.95
530.242	4.94
530.588	4.92
530.935	4.93
531.282	4.97
531.628	4.98
531.975	5.09
532.321	5.08
532.667	5.07
533.014	5.07
533.36	5.08
533.706	5.19
534.052	5.08
534.399	5.2
534.745	5.13
535.091	5.05
535.437	5.04
535.783	5.08
536.129	5.1
536.474	5.15
536.82	5.12
537.166	5.17
537.512	5.13
537.857	5.25
538.203	5.09
538.549	5.22
538.894	5.15
539.239	5.14
539.585	5.15
539.93	5.12
540.276	5.09
540.621	5.25
540.966	5.31
541.311	5.31
541.656	5.18
542.001	5.29
542.346	5.32
542.691	5.16
543.036	5.02
543.381	5.02
543.726	5.08
544.071	5.08
544.415	5.1
544.76	5.19
545.105	5.21
545.449	5.14
545.794	5.17
546.138	5.21
546.483	5.27
546.827	5.31
547.171	5.19
547.516	5.24
547.86	5.29
548.204	5.38
548.548	5.19
548.892	5.21
549.236	5.2
549.58	5.33
549.924	5.36
550.268	5.26
550.612	5.3
550.956	5.18
551.3	5.2
551.643	5.38
551.987	5.51
552.33	5.56
552.674	5.54
553.017	5.27
553.361	5.29
553.704	5.33
554.048	5.49
554.391	5.19
554.734	5.42
555.077	5.32
555.42	5.46
555.764	5.5
556.107	5.49
556.45	5.37
556.793	5.23
557.135	5.31
557.478	5.47
557.821	5.32
558.164	5.74
558.507	5.24
558.849	5.42
559.192	5.29
559.534	5.36
559.877	5.28
560.219	5.47
560.562	5.48
560.904	5.3
561.246	5.38
561.589	5.37
561.931	5.36
562.273	5.48
562.615	5.22
562.957	5.59
563.299	5.5
563.641	5.36
563.983	5.57
564.325	5.72
564.667	5.58
565.008	5.43
565.35	5.6
565.692	5.35
566.033	5.35
566.375	5.52
566.716	5.44
567.058	5.41
567.399	5.52
567.741	5.43
568.082	5.5
568.423	5.36
568.764	5.47
569.105	5.54
569.447	5.54
569.788	5.38
570.129	5.37
570.47	5.3
570.811	5.3
571.151	5.4
571.492	5.44
571.833	5.55
572.174	5.74
572.514	5.35
572.855	5.38
573.195	5.33
573.536	5.29
573.876	5.42
574.217	5.43
574.557	5.47
574.898	5.39
575.238	5.54
575.578	5.39
575.918	5.55
576.258	5.51
576.598	5.61
576.938	5.57
577.278	5.4
577.618	5.41
577.958	5.43
578.298	5.63
578.638	5.58
578.977	5.72
579.317	5.59
579.657	5.38
579.996	5.39
580.336	5.57
580.675	5.7
581.014	5.38
581.354	5.33
581.693	5.65
582.032	5.27
582.372	5.84
582.711	5.46
583.05	5.67
583.389	5.55
583.728	5.73
584.067	5.36
584.406	5.43
584.745	5.61
585.083	5.59
585.422	5.46
585.761	5.71
586.1	5.47
586.438	5.56
586.777	5.58
587.115	5.29
587.454	5.46
587.792	5.71
588.13	5.64
588.469	5.56
588.807	5.81
589.145	5.81
589.483	5.57
589.821	5.16
590.159	5.42
590.497	5.61
590.835	5.56
591.173	5.68
591.511	5.88
591.849	5.73
592.187	5.33
592.524	5.74
592.862	5.37
593.2	5.52
593.537	5.5
593.875	5.38
594.212	5.67
594.55	5.38
594.887	5.68
595.224	5.76
595.561	5.42
595.899	5.47
596.236	5.71
596.573	5.44
596.91	5.45
597.247	5.4
597.584	5.43
597.921	5.33
598.258	5.5
598.594	5.59
598.931	5.32
599.268	5.65
599.604	5.57
599.941	5.75
600.277	5.57
600.614	5.61
600.95	5.47
601.287	5.44
601.623	5.61
601.959	5.55
602.296	5.77
602.632	5.4
602.968	5.44
603.304	5.84
603.64	5.74
603.976	5.76
604.312	5.71
604.648	5.66
604.984	5.72
605.319	5.64
605.655	5.65
605.991	5.33
606.326	5.43
606.662	5.34
606.998	5.47
607.333	5.75
607.668	5.58
608.004	5.49
608.339	5.8
608.674	5.68
609.01	5.42
609.345	5.4
609.68	5.68
610.015	5.69
610.35	5.71
610.685	5.42
611.02	5.61
611.355	5.46
611.689	5.78
612.024	5.48
612.359	5.62
612.694	5.38
613.028	5.39
613.363	5.48
613.697	5.3
614.032	5.64
614.366	5.68
614.7	5.82
615.035	5.53
615.369	5.76
615.703	5.65
616.037	5.61
616.371	5.87
616.705	5.45
617.039	5.91
617.373	5.61
617.707	5.74
618.041	5.79
618.375	5.94
618.709	5.67
619.042	5.25
619.376	5.78
619.71	5.71
620.043	5.42
620.377	5.57
620.71	5.61
621.043	6.03
621.377	5.35
621.71	5.65
622.043	5.25
622.376	5.73
622.709	5.78
623.043	5.83
623.376	5.82
623.709	6.07
624.041	5.37
624.374	5.4
624.707	5.86
625.04	6.09
625.373	5.77
625.705	5.68
626.038	5.51
626.37	5.97
626.703	6.18
627.035	5.76
627.368	5.87
627.7	5.58
628.032	5.84
628.365	5.63
628.697	5.45
629.029	5.8
629.361	5.57
629.693	5.83
630.025	5.66
630.357	5.78
630.689	5.51
631.021	5.61
631.353	5.6
631.684	5.73
632.016	5.82
632.348	6.05
632.679	6.13
633.011	5.81
633.342	5.77
633.674	5.91
634.005	6.07
634.336	5.7
634.668	5.79
634.999	5.73
635.33	5.8
635.661	5.56
635.992	5.93
636.323	5.76
636.654	5.94
636.985	5.74
637.316	5.52
637.647	5.55
637.977	6.03
638.308	5.77
638.639	5.51
638.969	5.46
639.3	5.54
639.63	5.56
639.961	5.81
640.291	6.22
640.622	5.93
640.952	6.35
641.282	5.81
641.612	6.6
641.943	5.54
642.273	5.58
642.603	6.4
642.933	6.04
643.263	5.67
643.592	5.58
643.922	5.89
644.252	5.43
644.582	5.92
644.911	6.15
645.241	5.7
645.571	6.3
645.9	5.86
646.23	6.07
646.559	5.87
646.888	5.97
647.218	6.44
647.547	5.68
647.876	5.75
648.205	5.32
648.534	5.99
648.863	5.71
649.192	5.57
649.521	6.2
649.85	5.85
650.179	5.9
650.508	6.22
650.837	5.37
651.165	6.45
651.494	6.01
651.822	5.78
652.151	6.18
652.479	5.58
652.808	6.28
653.136	5.74
653.465	5.56
653.793	5.93
654.121	5.81
654.449	5.96
654.777	6.08
655.105	5.84
655.433	5.87
655.761	5.92
656.089	5.74
656.417	6.15
656.745	6.04
657.073	5.97
657.4	6.3
657.728	6.61
658.056	6.25
658.383	6.07
658.711	5.89
659.038	6.13
659.365	6.25
659.693	6.09
660.02	5.79
660.347	5.82
660.674	5.82
661.001	5.47
661.329	5.71
661.656	6.31
661.982	5.99
662.309	6.02
662.636	5.81
662.963	6.25
663.29	5.68
663.616	5.73
663.943	5.53
664.27	5.71
664.596	6.21
664.923	5.86
665.249	6.22
665.576	5.94
665.902	6
666.228	6.31
666.554	6.12
666.881	6.01
667.207	6.52
667.533	5.85
667.859	5.42
668.185	6.34
668.511	6.28
668.837	6.14
669.162	6.46
669.488	6.36
669.814	5.77
670.139	6.69
670.465	6.14
670.791	5.97
671.116	6.55
671.442	6.62
671.767	6.32
672.092	6.16
672.418	6.19
672.743	5.42
673.068	5.7
673.393	5.84
673.718	5.72
674.043	6.83
674.368	5.84
674.693	5.89
675.018	5.9
675.343	5.89
675.667	5.28
675.992	7.32
676.317	6.17
676.641	6.8
676.966	6.66
677.29	5.19
677.615	6.69
677.939	5.46
678.264	6.48
678.588	6.38
678.912	6.26
679.236	5.9
679.56	6.31
679.885	5.89
680.209	6.24
680.532	6.63
680.856	6.05
681.18	5.91
681.504	6.21
681.828	5.81
682.152	5.71
682.475	5.98
682.799	6.23
683.122	6.28
683.446	5.6
683.769	5.96
684.093	6.38
684.416	5.94
684.739	6.67
685.062	6.82
685.386	6.74
685.709	6.48
686.032	6.06
686.355	6.2
686.678	5.79
687.001	6.76
687.324	5.27
687.646	5.54
687.969	6.38
688.292	7.08
688.614	6.7
688.937	6.67
689.26	6.01
689.582	5.82
689.904	6.51
690.227	6.58
690.549	6.84
690.871	6.27
691.194	5.91
691.516	5.77
691.838	6.2
692.16	6.77
692.482	6.88
