Data from 0364_chest_Reflection__3__49.txt Node

Date: Mon Dec 11 18:12:41 CST 2023
User: ToomeyLab
Spectrometer: FLMS14357
Trigger mode: 0
Integration Time (sec): 1.000000E-2
Scans to average: 100
Electric dark correction enabled: true
Nonlinearity correction enabled: false
Boxcar width: 0
XAxis mode: Wavelengths
Number of Pixels in Spectrum: 2048
>>>>>Begin Spectral Data<<<<<
189.047	3078.43
189.435	3078.43
189.823	3078.43
190.211	-2292.72
190.599	42.94
190.987	-32.71
191.375	49.16
191.763	4.02
192.151	583.84
192.538	82.87
192.926	366.86
193.314	74.55
193.702	53.4
194.089	36.74
194.477	210.49
194.864	57.76
195.252	38.14
195.639	88.54
196.027	106.17
196.414	-0.71
196.801	5.33
197.189	207.37
197.576	198.66
197.963	-26.98
198.351	-14.65
198.738	-6.13
199.125	-76.69
199.512	-18.29
199.899	-3.18
200.286	17.9
200.673	-132.16
201.06	21.9
201.447	23.55
201.833	-0.05
202.22	18.71
202.607	9.81
202.994	-34.94
203.38	-41.73
203.767	42.15
204.154	4.55
204.54	-11.5
204.927	17.34
205.313	7.61
205.699	-6.43
206.086	-14.58
206.472	45.58
206.858	-0.51
207.245	4.98
207.631	13.25
208.017	-1.92
208.403	16.16
208.789	-5.73
209.175	25.23
209.561	8.07
209.947	39.79
210.333	18.86
210.719	-6.28
211.105	23.26
211.491	6.77
211.876	1.73
212.262	15.87
212.648	10.89
213.034	-4.59
213.419	-14.95
213.805	-30.69
214.19	11.65
214.576	-5.47
214.961	9.03
215.346	5.32
215.732	30.47
216.117	25.57
216.502	11.24
216.888	12.94
217.273	37.14
217.658	30.38
218.043	-44.11
218.428	21.07
218.813	-17.08
219.198	-13.25
219.583	30.79
219.968	-1.28
220.353	-29.84
220.738	32.59
221.122	21.21
221.507	23.72
221.892	-9.16
222.276	-2.39
222.661	-10.99
223.046	16.08
223.43	17.57
223.815	-10.39
224.199	-1.4
224.583	-4.74
224.968	14.26
225.352	11
225.736	6.09
226.121	1.2
226.505	1.13
226.889	5.39
227.273	6.05
227.657	8.33
228.041	4.93
228.425	5.79
228.809	3.51
229.193	3.13
229.577	5.23
229.961	5.92
230.344	4.02
230.728	3.42
231.112	4.53
231.495	4.85
231.879	4.05
232.263	4.25
232.646	4.67
233.03	3.29
233.413	4.83
233.797	5.96
234.18	3.85
234.563	4.09
234.946	3.52
235.33	6.23
235.713	5.16
236.096	4.65
236.479	5.42
236.862	3.59
237.245	4.95
237.628	3.64
238.011	2.59
238.394	4.41
238.777	3.18
239.16	5.47
239.543	5.07
239.925	4.3
240.308	4.79
240.691	4.47
241.073	5.41
241.456	6.02
241.838	6.34
242.221	5.2
242.603	3.63
242.986	3.92
243.368	3.83
243.75	4.61
244.133	4.55
244.515	4.16
244.897	4.17
245.279	4.32
245.661	4.49
246.043	4.42
246.425	4.76
246.807	5.33
247.189	5.24
247.571	4.38
247.953	3.92
248.335	4.36
248.717	4.38
249.098	4.5
249.48	4.41
249.862	4.31
250.243	4.46
250.625	4.26
251.006	3.91
251.388	4.36
251.769	4.93
252.151	5.73
252.532	4.24
252.913	5.34
253.295	4.63
253.676	4
254.057	4.71
254.438	4.61
254.819	4.05
255.2	3.89
255.581	3.45
255.962	4
256.343	3.84
256.724	4.45
257.105	4.43
257.486	3.21
257.867	5.54
258.247	2.98
258.628	4.28
259.009	5.41
259.389	4.6
259.77	4.36
260.15	3.81
260.531	3.97
260.911	3.51
261.292	3.76
261.672	3.85
262.052	4.24
262.432	4.14
262.813	4.1
263.193	3.98
263.573	4.23
263.953	3.9
264.333	3.92
264.713	4.5
265.093	4.14
265.473	4.77
265.853	4.05
266.233	4.3
266.612	4.63
266.992	4.01
267.372	4.57
267.752	4.24
268.131	3.48
268.511	3.44
268.89	4.64
269.27	4.58
269.649	4.35
270.029	4.49
270.408	4.49
270.787	3.77
271.167	3.28
271.546	4.03
271.925	3.85
272.304	3.87
272.683	4.07
273.062	3.59
273.441	4.16
273.82	3.38
274.199	3.43
274.578	3.78
274.957	3.99
275.336	4.18
275.715	3.98
276.093	4.52
276.472	4.26
276.851	4.14
277.229	4.01
277.608	3.97
277.986	4.35
278.365	3.63
278.743	4.02
279.122	4.09
279.5	3.74
279.878	3.73
280.257	3.5
280.635	3.84
281.013	3.59
281.391	3.85
281.769	3.77
282.147	3.68
282.525	3.47
282.903	4.08
283.281	3.57
283.659	3.81
284.037	3.48
284.415	3.99
284.792	4.07
285.17	3.86
285.548	3.5
285.925	3.71
286.303	3.31
286.68	3.62
287.058	3.52
287.435	4.17
287.813	4.15
288.19	3.34
288.567	3.47
288.945	3.76
289.322	3.07
289.699	3.29
290.076	3.21
290.453	4.5
290.83	4.25
291.207	3.98
291.584	3.76
291.961	3.91
292.338	3.83
292.715	3.73
293.092	3.26
293.469	3.89
293.845	4.07
294.222	4.18
294.599	3.9
294.975	3.77
295.352	3.42
295.728	3.71
296.105	3.88
296.481	3.57
296.858	3.92
297.234	4.41
297.61	4.37
297.986	4.38
298.363	4.01
298.739	4.04
299.115	3.75
299.491	4.08
299.867	3.95
300.243	4.29
300.619	3.93
300.995	3.9
301.371	3.82
301.746	4.03
302.122	4.26
302.498	4.4
302.874	3.84
303.249	4.35
303.625	3.85
304	4.42
304.376	4.19
304.751	4.34
305.127	4.05
305.502	4.31
305.878	4.09
306.253	4.4
306.628	4.37
307.003	4.12
307.378	4.31
307.754	4.4
308.129	3.96
308.504	4.51
308.879	3.6
309.254	4.27
309.629	4.67
310.003	4.77
310.378	4.16
310.753	4.36
311.128	4.01
311.502	3.78
311.877	4.28
312.252	4.22
312.626	4.64
313.001	4.29
313.375	3.85
313.75	3.91
314.124	4.39
314.498	4.39
314.873	4.22
315.247	3.73
315.621	4.53
315.995	4.6
316.369	4.37
316.743	4.15
317.117	4.43
317.491	4.69
317.865	3.98
318.239	5.02
318.613	4.52
318.987	4.66
319.361	5.22
319.734	4.72
320.108	4.39
320.482	4.16
320.855	4.19
321.229	3.6
321.602	4.37
321.976	4.58
322.349	4.63
322.723	4.03
323.096	4.8
323.469	5
323.843	4.56
324.216	4.93
324.589	4.67
324.962	3.98
325.335	4.33
325.708	4.72
326.081	5.24
326.454	4.77
326.827	4.74
327.2	4.59
327.573	4.63
327.945	5.11
328.318	4.71
328.691	4.77
329.063	4.81
329.436	4.74
329.809	4.35
330.181	4.48
330.553	4.51
330.926	4.55
331.298	4.77
331.671	4.15
332.043	5.04
332.415	4.94
332.787	5.02
333.159	4.49
333.532	4.75
333.904	4.49
334.276	5.09
334.648	4.87
335.02	4.41
335.391	4.47
335.763	4.5
336.135	4.76
336.507	4.49
336.879	5.03
337.25	4.5
337.622	4.5
337.993	4.23
338.365	4.65
338.736	4.97
339.108	5.11
339.479	4.4
339.851	5.1
340.222	4.89
340.593	4.56
340.964	5.12
341.336	4.86
341.707	4.66
342.078	4.62
342.449	4.67
342.82	4.28
343.191	4.81
343.562	4.25
343.933	4.5
344.303	4.01
344.674	4.56
345.045	4.58
345.416	4.2
345.786	4.92
346.157	4.55
346.527	4.95
346.898	4.81
347.268	4.8
347.639	4.4
348.009	4.52
348.38	4.34
348.75	4.46
349.12	4.86
349.49	4.37
349.861	4.41
350.231	4.44
350.601	4.96
350.971	5.02
351.341	4.31
351.711	4.63
352.081	4.35
352.45	4.85
352.82	4.35
353.19	4.34
353.56	4.51
353.929	4.94
354.299	4.98
354.669	5.07
355.038	4.75
355.408	4.2
355.777	4.43
356.147	4.63
356.516	4.47
356.885	4.57
357.254	5.18
357.624	4.73
357.993	4.47
358.362	4.82
358.731	4.43
359.1	4.54
359.469	4.48
359.838	4.52
360.207	4.56
360.576	4.68
360.945	5.03
361.314	5.13
361.682	4.48
362.051	4.68
362.42	4.57
362.788	4.74
363.157	4.64
363.525	4.38
363.894	4.7
364.262	4.84
364.631	4.73
364.999	4.52
365.367	4.87
365.735	4.49
366.104	4.37
366.472	4.68
366.84	4.68
367.208	4.67
367.576	4.92
367.944	4.85
368.312	4.71
368.68	4.82
369.048	4.77
369.416	4.32
369.783	4.7
370.151	4.94
370.519	5.49
370.886	4.52
371.254	4.86
371.621	5.14
371.989	4.82
372.356	5.06
372.724	5.14
373.091	5.37
373.458	4.81
373.826	5.08
374.193	4.81
374.56	5.07
374.927	4.83
375.294	4.7
375.661	4.84
376.028	4.88
376.395	4.94
376.762	5.13
377.129	5.23
377.496	4.76
377.863	5.16
378.229	4.82
378.596	4.95
378.963	5.15
379.329	4.59
379.696	5.12
380.062	4.8
380.429	4.81
380.795	5.02
381.161	4.8
381.528	4.99
381.894	5.05
382.26	4.84
382.626	4.91
382.993	4.9
383.359	5.11
383.725	4.64
384.091	5.01
384.457	4.67
384.823	5.14
385.188	5.03
385.554	4.86
385.92	4.96
386.286	5.22
386.651	4.84
387.017	5.03
387.383	4.91
387.748	5.02
388.114	4.93
388.479	4.94
388.845	4.77
389.21	4.72
389.575	4.94
389.94	4.92
390.306	5.01
390.671	5.09
391.036	5.26
391.401	4.99
391.766	4.92
392.131	5.19
392.496	5.13
392.861	5.13
393.226	5.2
393.591	5.24
393.956	4.95
394.32	5.06
394.685	4.87
395.05	5.04
395.414	5.09
395.779	4.99
396.143	4.74
396.508	5.15
396.872	4.9
397.236	5.05
397.601	5.03
397.965	5.04
398.329	5.11
398.694	5.04
399.058	5.03
399.422	5.09
399.786	5.18
400.15	5.02
400.514	5.28
400.878	5.16
401.242	5.1
401.605	5.51
401.969	5.1
402.333	5.03
402.697	4.88
403.06	5.2
403.424	5.18
403.787	5.31
404.151	4.98
404.514	4.76
404.878	5.41
405.241	4.94
405.604	5.06
405.968	5.17
406.331	4.94
406.694	4.96
407.057	5.06
407.42	5.27
407.783	5.13
408.146	5.27
408.509	4.85
408.872	5.08
409.235	4.97
409.598	5.29
409.961	5.23
410.323	5.15
410.686	4.99
411.049	5.16
411.411	4.98
411.774	5.06
412.136	5.06
412.499	5.35
412.861	5.01
413.223	4.97
413.586	5.28
413.948	5.34
414.31	5.09
414.672	4.85
415.035	5.11
415.397	5.25
415.759	5.26
416.121	5.27
416.483	5.16
416.845	5.26
417.206	5.28
417.568	5.38
417.93	5.25
418.292	5.21
418.653	5.16
419.015	4.97
419.377	5.28
419.738	5.17
420.1	5.15
420.461	5.11
420.822	5.03
421.184	5.06
421.545	5.11
421.906	5.15
422.267	5.24
422.629	5.01
422.99	5.14
423.351	5.06
423.712	4.97
424.073	5.02
424.434	5.17
424.795	5.18
425.155	5.08
425.516	5.11
425.877	5.09
426.238	5.03
426.598	5.1
426.959	5.09
427.32	5.15
427.68	5.17
428.041	5.02
428.401	5.11
428.761	5.16
429.122	5.18
429.482	5.13
429.842	5.22
430.202	5.36
430.563	5.21
430.923	5.32
431.283	5.12
431.643	5.32
432.003	5.32
432.363	5.29
432.722	5.2
433.082	5.37
433.442	5.4
433.802	5.17
434.161	5.42
434.521	5.18
434.881	5.38
435.24	5.27
435.6	5.14
435.959	5.17
436.319	5.31
436.678	5.46
437.037	5.27
437.396	5.45
437.756	5.41
438.115	5.54
438.474	5.55
438.833	5.33
439.192	5.16
439.551	5.39
439.91	5.35
440.269	5.31
440.628	5.09
440.987	5.52
441.345	5.31
441.704	5.43
442.063	5.25
442.421	5.23
442.78	5.29
443.138	5.39
443.497	5.25
443.855	5.17
444.214	5.42
444.572	5.3
444.93	5.4
445.288	5.39
445.647	5.44
446.005	5.21
446.363	5.44
446.721	5.36
447.079	5.32
447.437	5.42
447.795	5.28
448.153	5.38
448.51	5.37
448.868	5.23
449.226	5.22
449.584	5.36
449.941	5.39
450.299	5.36
450.656	5.32
451.014	5.35
451.371	5.21
451.729	5.47
452.086	5.48
452.443	5.61
452.801	5.48
453.158	5.49
453.515	5.43
453.872	5.46
454.229	5.38
454.586	5.57
454.943	5.54
455.3	5.47
455.657	5.71
456.014	5.47
456.371	5.65
456.727	5.45
457.084	5.51
457.441	5.65
457.797	5.45
458.154	5.41
458.51	5.56
458.867	5.33
459.223	5.54
459.58	5.31
459.936	5.59
460.292	5.44
460.648	5.49
461.005	5.43
461.361	5.32
461.717	5.51
462.073	5.29
462.429	5.37
462.785	5.42
463.141	5.51
463.496	5.66
463.852	5.49
464.208	5.4
464.564	5.48
464.919	5.62
465.275	5.37
465.631	5.26
465.986	5.63
466.342	5.77
466.697	5.43
467.052	5.72
467.408	5.61
467.763	5.73
468.118	5.55
468.473	5.63
468.829	5.68
469.184	5.75
469.539	5.74
469.894	5.58
470.249	5.7
470.603	5.52
470.958	5.75
471.313	5.58
471.668	5.75
472.023	5.78
472.377	5.73
472.732	5.66
473.086	5.79
473.441	5.76
473.795	5.72
474.15	5.8
474.504	5.6
474.859	5.76
475.213	5.6
475.567	5.73
475.921	5.61
476.275	5.68
476.63	5.74
476.984	5.71
477.338	5.58
477.692	5.71
478.045	5.74
478.399	5.72
478.753	5.47
479.107	5.56
479.461	5.73
479.814	5.67
480.168	5.67
480.521	5.97
480.875	5.7
481.228	5.72
481.582	5.9
481.935	5.68
482.289	5.72
482.642	5.71
482.995	5.75
483.348	5.7
483.701	5.61
484.055	5.65
484.408	5.64
484.761	5.64
485.114	5.62
485.466	5.5
485.819	5.41
486.172	5.45
486.525	5.44
486.878	5.51
487.23	5.57
487.583	5.64
487.936	5.66
488.288	5.74
488.641	5.55
488.993	5.5
489.345	5.61
489.698	5.52
490.05	5.55
490.402	5.54
490.754	5.59
491.107	5.64
491.459	5.76
491.811	5.82
492.163	5.89
492.515	5.88
492.866	5.73
493.218	5.59
493.57	5.54
493.922	5.64
494.274	5.72
494.625	5.68
494.977	5.83
495.328	5.92
495.68	5.94
496.031	5.93
496.383	5.77
496.734	5.96
497.086	6.04
497.437	6.05
497.788	5.98
498.139	5.85
498.49	5.91
498.842	6.1
499.193	5.99
499.544	5.98
499.894	6.04
500.245	5.97
500.596	6.07
500.947	6.14
501.298	6.05
501.648	6.12
501.999	5.88
502.35	5.94
502.7	6.14
503.051	6.08
503.401	6.04
503.752	5.99
504.102	6.08
504.452	6.05
504.803	6.24
505.153	6.37
505.503	6.27
505.853	6.14
506.203	6.21
506.553	6.23
506.903	6.01
507.253	6.18
507.603	5.99
507.953	6.34
508.303	6.17
508.652	6.12
509.002	6.26
509.352	6.36
509.701	6.14
510.051	6.15
510.4	6.11
510.75	6.1
511.099	6.1
511.449	6.35
511.798	6.15
512.147	6.24
512.496	6.1
512.846	6.2
513.195	6.27
513.544	6.31
513.893	6.25
514.242	6.29
514.591	6.14
514.939	6.24
515.288	6.34
515.637	6.19
515.986	6.29
516.334	6.39
516.683	6.49
517.032	6.35
517.38	6.39
517.729	6.31
518.077	6.44
518.426	6.48
518.774	6.43
519.122	6.37
519.47	6.34
519.819	6.38
520.167	6.34
520.515	6.28
520.863	6.3
521.211	6.36
521.559	6.37
521.907	6.38
522.255	6.44
522.602	6.45
522.95	6.53
523.298	6.5
523.645	6.71
523.993	6.6
524.341	6.64
524.688	6.6
525.036	6.53
525.383	6.6
525.73	6.86
526.078	6.66
526.425	6.62
526.772	6.65
527.119	6.63
527.466	6.54
527.814	6.51
528.161	6.54
528.508	6.59
528.854	6.53
529.201	6.55
529.548	6.48
529.895	6.41
530.242	6.44
530.588	6.39
530.935	6.44
531.282	6.5
531.628	6.49
531.975	6.6
532.321	6.67
532.667	6.7
533.014	6.64
533.36	6.84
533.706	6.84
534.052	6.79
534.399	6.82
534.745	6.77
535.091	6.62
535.437	6.7
535.783	6.69
536.129	6.85
536.474	6.92
536.82	6.88
537.166	6.87
537.512	6.92
537.857	6.95
538.203	6.93
538.549	6.97
538.894	6.95
539.239	7.05
539.585	7.06
539.93	6.97
540.276	7.04
540.621	7.16
540.966	7.25
541.311	7.12
541.656	7.18
542.001	7.33
542.346	7.18
542.691	7.03
543.036	7.04
543.381	6.97
543.726	7.01
544.071	7.06
544.415	7.06
544.76	7.11
545.105	7.15
545.449	7.23
545.794	7.29
546.138	7.3
546.483	7.34
546.827	7.47
547.171	7.39
547.516	7.38
547.86	7.34
548.204	7.48
548.548	7.38
548.892	7.45
549.236	7.47
549.58	7.54
549.924	7.45
550.268	7.57
550.612	7.61
550.956	7.66
551.3	7.71
551.643	7.87
551.987	7.83
552.33	7.8
552.674	7.88
553.017	7.84
553.361	7.66
553.704	7.71
554.048	8.07
554.391	7.96
554.734	7.9
555.077	8.09
555.42	7.94
555.764	8
556.107	7.99
556.45	8.07
556.793	7.93
557.135	8.19
557.478	8.05
557.821	7.99
558.164	8.26
558.507	7.87
558.849	8.31
559.192	8.22
559.534	8.21
559.877	8.14
560.219	8.31
560.562	8.46
560.904	8.48
561.246	8.35
561.589	8.56
561.931	8.33
562.273	8.31
562.615	8.49
562.957	8.5
563.299	8.42
563.641	8.42
563.983	8.74
564.325	8.74
564.667	8.56
565.008	8.81
565.35	9
565.692	8.66
566.033	8.57
566.375	8.82
566.716	8.74
567.058	8.71
567.399	8.85
567.741	8.53
568.082	8.74
568.423	8.79
568.764	8.84
569.105	8.78
569.447	8.94
569.788	8.83
570.129	8.95
570.47	8.73
570.811	8.91
571.151	8.93
571.492	9.06
571.833	9.08
572.174	9.27
572.514	9.16
572.855	9.07
573.195	9.24
573.536	9.22
573.876	9.35
574.217	9.36
574.557	9.21
574.898	9.34
575.238	9.44
575.578	9.35
575.918	9.6
576.258	9.37
576.598	9.55
576.938	9.54
577.278	9.51
577.618	9.74
577.958	9.59
578.298	9.56
578.638	9.7
578.977	9.96
579.317	9.62
579.657	9.57
579.996	9.67
580.336	9.87
580.675	9.76
581.014	9.98
581.354	9.94
581.693	9.92
582.032	9.79
582.372	9.89
582.711	9.82
583.05	10.01
583.389	10.22
583.728	10.45
584.067	10.14
584.406	10.03
584.745	10.16
585.083	10.43
585.422	10.14
585.761	10.31
586.1	10.43
586.438	10.33
586.777	10.35
587.115	10.24
587.454	10.21
587.792	10.46
588.13	10.62
588.469	10.67
588.807	10.5
589.145	10.69
589.483	10.75
589.821	10.54
590.159	10.77
590.497	10.86
590.835	10.85
591.173	10.82
591.511	10.84
591.849	10.8
592.187	10.8
592.524	10.84
592.862	10.76
593.2	11.09
593.537	10.78
593.875	11.14
594.212	11.04
594.55	10.88
594.887	11.26
595.224	11.24
595.561	11.11
595.899	11.02
596.236	11.22
596.573	11.17
596.91	11.03
597.247	11.19
597.584	10.97
597.921	11.4
598.258	11.39
598.594	11.42
598.931	11.41
599.268	11.61
599.604	11.43
599.941	11.64
600.277	11.57
600.614	11.96
600.95	11.61
601.287	11.71
601.623	11.79
601.959	12.12
602.296	11.99
602.632	11.97
602.968	12
603.304	12
603.64	12.03
603.976	12.1
604.312	11.93
604.648	12.22
604.984	12.21
605.319	12.13
605.655	12.11
605.991	12.03
606.326	12.31
606.662	12.24
606.998	12.22
607.333	12.36
607.668	12.23
608.004	12.15
608.339	12.63
608.674	12.63
609.01	12.38
609.345	12.57
609.68	12.87
610.015	12.68
610.35	12.87
610.685	12.41
611.02	12.62
611.355	12.78
611.689	12.78
612.024	12.85
612.359	12.85
612.694	12.83
613.028	12.9
613.363	12.98
613.697	12.74
614.032	13.11
614.366	13.12
614.7	13.06
615.035	13.23
615.369	13.21
615.703	13.39
616.037	13.4
616.371	13.48
616.705	13.37
617.039	13.77
617.373	13.4
617.707	13.69
618.041	13.69
618.375	14
618.709	14.03
619.042	13.82
619.376	13.67
619.71	13.85
620.043	13.66
620.377	13.84
620.71	14.25
621.043	13.97
621.377	13.49
621.71	14.02
622.043	13.64
622.376	14.14
622.709	14.04
623.043	14.09
623.376	14.19
623.709	14.58
624.041	14.24
624.374	14.46
624.707	14.17
625.04	14.82
625.373	14.26
625.705	14.19
626.038	13.98
626.37	14.56
626.703	14.8
627.035	14.6
627.368	14.85
627.7	14.57
628.032	14.74
628.365	14.86
628.697	14.53
629.029	14.85
629.361	14.73
629.693	14.98
630.025	14.97
630.357	14.92
630.689	15.02
631.021	15.12
631.353	15.22
631.684	15.34
632.016	15.31
632.348	15.52
632.679	15.55
633.011	15.45
633.342	15.65
633.674	15.43
634.005	15.54
634.336	15.74
634.668	15.24
634.999	16.09
635.33	15.47
635.661	15.85
635.992	16.1
636.323	15.56
636.654	15.93
636.985	15.64
637.316	15.67
637.647	16.15
637.977	16.08
638.308	16.47
638.639	15.85
638.969	15.89
639.3	16.03
639.63	16.07
639.961	16.44
640.291	16.74
640.622	16.13
640.952	16.29
641.282	16.36
641.612	16.91
641.943	16.57
642.273	16.63
642.603	16.85
642.933	16.52
643.263	16.85
643.592	16.64
643.922	16.41
644.252	16.35
644.582	16.65
644.911	16.75
645.241	16.73
645.571	17.67
645.9	16.72
646.23	17.16
646.559	17.16
646.888	17.02
647.218	17.52
647.547	17.12
647.876	17.5
648.205	16.94
648.534	17.51
648.863	17.25
649.192	17.1
649.521	17.65
649.85	17.6
650.179	17.67
650.508	17.93
650.837	16.97
651.165	18.11
651.494	17.63
651.822	17.33
652.151	17.78
652.479	18.3
652.808	18.26
653.136	17.76
653.465	18.24
653.793	17.75
654.121	18.45
654.449	17.89
654.777	18.14
655.105	18.17
655.433	18.66
655.761	17.99
656.089	18.52
656.417	18.44
656.745	18.68
657.073	18.6
657.4	18.59
657.728	18.45
658.056	18.11
658.383	18.53
658.711	19.02
659.038	18.88
659.365	19.14
659.693	19.31
660.02	18.55
660.347	18.85
660.674	18.92
661.001	18.85
661.329	19
661.656	18.86
661.982	19.14
662.309	19.05
662.636	19.03
662.963	19.42
663.29	19.31
663.616	18.94
663.943	19.8
664.27	19.39
664.596	19.73
664.923	19.41
665.249	19.23
665.576	19.56
665.902	19.24
666.228	19.12
666.554	19.69
666.881	19.65
667.207	20.33
667.533	19.66
667.859	19.72
668.185	19.86
668.511	19.77
668.837	19.87
669.162	19.84
669.488	20.27
669.814	20.39
670.139	19.76
670.465	20.45
670.791	20.84
671.116	21.2
671.442	20.66
671.767	20.33
672.092	20.59
672.418	20.56
672.743	19.68
673.068	19.82
673.393	20.68
673.718	20.29
674.043	21.11
674.368	20.62
674.693	21.06
675.018	21.44
675.343	20.35
675.667	20.31
675.992	20.92
676.317	20.73
676.641	21.05
676.966	21.22
677.29	21
677.615	21.82
677.939	21.19
678.264	21.61
678.588	20.98
678.912	20.94
679.236	21.24
679.56	21.49
679.885	21.43
680.209	21.61
680.532	22.35
680.856	21.82
681.18	22.05
681.504	21.21
681.828	20.73
682.152	21.05
682.475	21.66
682.799	21.86
683.122	21.89
683.446	21.56
683.769	21.77
684.093	21.96
684.416	21.84
684.739	21.98
