Data from 0364_chest_Reflection__1__47.txt Node

Date: Mon Dec 11 18:12:18 CST 2023
User: ToomeyLab
Spectrometer: FLMS14357
Trigger mode: 0
Integration Time (sec): 1.000000E-2
Scans to average: 100
Electric dark correction enabled: true
Nonlinearity correction enabled: false
Boxcar width: 0
XAxis mode: Wavelengths
Number of Pixels in Spectrum: 2048
>>>>>Begin Spectral Data<<<<<
189.047	2360.13
189.435	2360.13
189.823	2360.13
190.211	-2412.58
190.599	66.03
190.987	-41.2
191.375	47.93
191.763	82.41
192.151	472.39
192.538	42.94
192.926	141.44
193.314	19.74
193.702	119.87
194.089	8.22
194.477	100.9
194.864	34.25
195.252	-10.77
195.639	-122.29
196.027	18.11
196.414	-59.81
196.801	70.59
197.189	-381.28
197.576	100.76
197.963	32.87
198.351	13.04
198.738	8.44
199.125	-45.79
199.512	7.05
199.899	15.63
200.286	39.76
200.673	-75.95
201.06	37.21
201.447	33.99
201.833	23.78
202.22	42.39
202.607	-0.39
202.994	-12.12
203.38	-19.35
203.767	18.75
204.154	56.88
204.54	8.31
204.927	-1.03
205.313	9.09
205.699	-11.78
206.086	8.76
206.472	49.36
206.858	56.85
207.245	25.75
207.631	9.38
208.017	21.66
208.403	15.74
208.789	-9.69
209.175	40.12
209.561	9.81
209.947	28.49
210.333	19.49
210.719	64.02
211.105	32.63
211.491	26.57
211.876	20.97
212.262	19.09
212.648	28.15
213.034	-16.01
213.419	14.46
213.805	4.22
214.19	11.72
214.576	-2.35
214.961	26.15
215.346	0.7
215.732	2.9
216.117	18.78
216.502	17.18
216.888	13.55
217.273	27.31
217.658	9.14
218.043	12.07
218.428	12.76
218.813	19.11
219.198	16
219.583	9.26
219.968	4.7
220.353	1.71
220.738	30.15
221.122	22.49
221.507	26.65
221.892	24.38
222.276	4.33
222.661	-0.48
223.046	7.62
223.43	5.77
223.815	-2.66
224.199	9.86
224.583	12.56
224.968	10.86
225.352	11.68
225.736	10.03
226.121	10.51
226.505	2.62
226.889	7.14
227.273	5.75
227.657	13.99
228.041	7.78
228.425	6.88
228.809	4.08
229.193	5.87
229.577	4.94
229.961	4.12
230.344	4.67
230.728	4.01
231.112	4.7
231.495	5.52
231.879	4
232.263	4.11
232.646	3.8
233.03	4.75
233.413	4.55
233.797	5.29
234.18	6.05
234.563	4.82
234.946	5.46
235.33	5.41
235.713	3.23
236.096	5.37
236.479	5.55
236.862	3.7
237.245	4.6
237.628	5.24
238.011	5.88
238.394	3.5
238.777	3.45
239.16	5.79
239.543	5.46
239.925	4.83
240.308	5.21
240.691	4.19
241.073	5.42
241.456	5.6
241.838	6.96
242.221	5.78
242.603	4.37
242.986	4.44
243.368	3.96
243.75	4.64
244.133	4.48
244.515	4.09
244.897	4.21
245.279	4.56
245.661	5.38
246.043	4.54
246.425	4.95
246.807	4.37
247.189	5.05
247.571	5.55
247.953	4.34
248.335	4.4
248.717	4.77
249.098	4.33
249.48	4.18
249.862	4.64
250.243	4.61
250.625	4.46
251.006	3.98
251.388	5.17
251.769	4.84
252.151	6.22
252.532	5.79
252.913	5.07
253.295	4.76
253.676	4.21
254.057	4.24
254.438	4.67
254.819	3.8
255.2	4.01
255.581	3.82
255.962	5.39
256.343	4.81
256.724	4.26
257.105	4.16
257.486	4.24
257.867	6.8
258.247	3.78
258.628	5.66
259.009	5.24
259.389	6.31
259.77	4.69
260.15	4.17
260.531	4.89
260.911	4.07
261.292	3.78
261.672	4.16
262.052	4.19
262.432	4.06
262.813	4.16
263.193	4.24
263.573	4.72
263.953	3.98
264.333	4.21
264.713	4.32
265.093	3.97
265.473	4.07
265.853	4.39
266.233	3.94
266.612	4.49
266.992	4.85
267.372	5.29
267.752	5.07
268.131	4.28
268.511	4.2
268.89	4.72
269.27	4.85
269.649	4.2
270.029	4.52
270.408	4.71
270.787	3.73
271.167	3.44
271.546	4.22
271.925	4.15
272.304	4.51
272.683	3.74
273.062	3.83
273.441	3.88
273.82	3.55
274.199	4.06
274.578	4.01
274.957	4.23
275.336	3.66
275.715	3.99
276.093	4.82
276.472	4.02
276.851	4.18
277.229	4.58
277.608	4.2
277.986	4.67
278.365	3.71
278.743	3.82
279.122	3.92
279.5	4.12
279.878	3.89
280.257	3.88
280.635	4
281.013	4.17
281.391	4.16
281.769	4.17
282.147	3.83
282.525	4
282.903	4.13
283.281	3.61
283.659	3.75
284.037	3.49
284.415	3.61
284.792	4.48
285.17	4.05
285.548	4.04
285.925	3.63
286.303	3.75
286.68	3.93
287.058	3.74
287.435	3.88
287.813	4.35
288.19	4
288.567	3.71
288.945	3.95
289.322	3.23
289.699	3.48
290.076	3.51
290.453	4.12
290.83	4.16
291.207	4.31
291.584	3.74
291.961	4.24
292.338	4.19
292.715	4.45
293.092	4.13
293.469	4.33
293.845	4.18
294.222	4.65
294.599	3.95
294.975	4.21
295.352	3.58
295.728	4.05
296.105	4.14
296.481	3.92
296.858	3.89
297.234	4.3
297.61	4.71
297.986	4.04
298.363	4.34
298.739	4.44
299.115	3.9
299.491	4.3
299.867	4.35
300.243	4.24
300.619	4.36
300.995	4.3
301.371	3.99
301.746	4.12
302.122	4.09
302.498	4.66
302.874	4.95
303.249	4.25
303.625	4.16
304	4.23
304.376	4.5
304.751	4.04
305.127	4.52
305.502	4.17
305.878	4.37
306.253	5.03
306.628	4.75
307.003	5.02
307.378	4.69
307.754	4.76
308.129	3.94
308.504	4.31
308.879	4.19
309.254	4.63
309.629	5.39
310.003	4.38
310.378	4.8
310.753	4.81
311.128	4.34
311.502	4.05
311.877	4.66
312.252	4.53
312.626	4.75
313.001	4.51
313.375	4.21
313.75	4.37
314.124	4.78
314.498	4.61
314.873	4.89
315.247	4.5
315.621	4.82
315.995	4.75
316.369	4.48
316.743	5.06
317.117	4.79
317.491	4.71
317.865	4.27
318.239	4.64
318.613	5.25
318.987	4.68
319.361	5
319.734	4.66
320.108	4.51
320.482	5.04
320.855	4.72
321.229	4.4
321.602	4.6
321.976	5.29
322.349	4.89
322.723	4.42
323.096	4.91
323.469	5.05
323.843	4.84
324.216	5.34
324.589	5.4
324.962	4.78
325.335	4.7
325.708	4.78
326.081	5.22
326.454	5.42
326.827	4.87
327.2	4.03
327.573	4.71
327.945	4.95
328.318	4.87
328.691	4.47
329.063	4.53
329.436	4.46
329.809	4.35
330.181	5.04
330.553	4.99
330.926	4.38
331.298	5
331.671	4.9
332.043	5.41
332.415	4.76
332.787	4.75
333.159	4.89
333.532	4.85
333.904	4.71
334.276	4.91
334.648	4.89
335.02	4.75
335.391	5.21
335.763	4.53
336.135	4.73
336.507	4.88
336.879	4.98
337.25	4.45
337.622	4.42
337.993	4.9
338.365	4.8
338.736	5.01
339.108	5.15
339.479	5.15
339.851	5.19
340.222	4.77
340.593	4.81
340.964	5.18
341.336	4.84
341.707	4.76
342.078	5.43
342.449	5.03
342.82	4.72
343.191	4.82
343.562	4.98
343.933	4.62
344.303	4.72
344.674	5.02
345.045	5.23
345.416	4.66
345.786	5.52
346.157	4.81
346.527	5.06
346.898	4.9
347.268	4.77
347.639	5.02
348.009	4.69
348.38	4.68
348.75	4.51
349.12	5.13
349.49	4.51
349.861	5.02
350.231	4.87
350.601	4.97
350.971	5.06
351.341	4.09
351.711	5.02
352.081	4.47
352.45	4.79
352.82	4.45
353.19	4.63
353.56	5.03
353.929	4.98
354.299	5.13
354.669	5.16
355.038	4.93
355.408	4.44
355.777	4.7
356.147	4.84
356.516	4.67
356.885	5.06
357.254	5.16
357.624	4.9
357.993	5.08
358.362	4.84
358.731	4.77
359.1	5
359.469	4.83
359.838	4.7
360.207	4.82
360.576	4.96
360.945	5.09
361.314	5.23
361.682	4.78
362.051	4.97
362.42	4.8
362.788	4.37
363.157	4.73
363.525	4.43
363.894	4.85
364.262	4.8
364.631	4.95
364.999	4.73
365.367	4.95
365.735	4.85
366.104	4.69
366.472	4.84
366.84	4.56
367.208	4.46
367.576	5.17
367.944	5.02
368.312	5.04
368.68	4.9
369.048	4.6
369.416	4.5
369.783	4.88
370.151	4.94
370.519	5.5
370.886	4.66
371.254	5.35
371.621	5.5
371.989	5.03
372.356	5.08
372.724	5.4
373.091	5.33
373.458	4.86
373.826	4.77
374.193	4.95
374.56	5.16
374.927	5.11
375.294	5.2
375.661	4.95
376.028	5.3
376.395	4.87
376.762	5.06
377.129	4.95
377.496	4.82
377.863	5.2
378.229	4.79
378.596	4.92
378.963	4.96
379.329	5
379.696	4.96
380.062	4.82
380.429	4.68
380.795	5.29
381.161	4.93
381.528	5.16
381.894	5.07
382.26	5.11
382.626	5.24
382.993	5.2
383.359	5.14
383.725	4.84
384.091	4.67
384.457	4.89
384.823	5.44
385.188	5.11
385.554	4.91
385.92	4.76
386.286	5.13
386.651	5.23
387.017	5.15
387.383	5.12
387.748	5.11
388.114	5.19
388.479	4.99
388.845	5.09
389.21	5.35
389.575	5.29
389.94	5.39
390.306	5.36
390.671	5.2
391.036	5.39
391.401	5.4
391.766	4.94
392.131	5.12
392.496	5.29
392.861	5.52
393.226	5.29
393.591	5.16
393.956	4.94
394.32	5.12
394.685	5.2
395.05	5.41
395.414	5.36
395.779	5.04
396.143	4.98
396.508	5.06
396.872	5.16
397.236	5.1
397.601	4.9
397.965	5.25
398.329	5.3
398.694	5.24
399.058	5.08
399.422	5.29
399.786	5.24
400.15	5.02
400.514	5.32
400.878	5.07
401.242	5.32
401.605	5.25
401.969	4.92
402.333	5.1
402.697	5.32
403.06	5.07
403.424	5.09
403.787	5.48
404.151	5.07
404.514	4.96
404.878	5.4
405.241	5.23
405.604	5.34
405.968	5.07
406.331	4.97
406.694	5.17
407.057	5.11
407.42	5.31
407.783	5.08
408.146	5.32
408.509	5.22
408.872	5.26
409.235	5.04
409.598	5.04
409.961	5.58
410.323	5.54
410.686	5.13
411.049	5.13
411.411	5.14
411.774	5.33
412.136	5.15
412.499	5.37
412.861	5.27
413.223	5.24
413.586	5.28
413.948	5.27
414.31	5.31
414.672	4.97
415.035	5.12
415.397	5.19
415.759	5.37
416.121	5.42
416.483	5.31
416.845	5.47
417.206	5.17
417.568	5.41
417.93	5.5
418.292	5.36
418.653	5.18
419.015	5.09
419.377	5.43
419.738	5.27
420.1	5.29
420.461	5.17
420.822	5.15
421.184	5.24
421.545	5.22
421.906	5.26
422.267	5.36
422.629	5.07
422.99	5.18
423.351	5.07
423.712	5.15
424.073	5.28
424.434	5.23
424.795	5.3
425.155	5.3
425.516	5.25
425.877	5.19
426.238	5.22
426.598	5.18
426.959	5.35
427.32	5.35
427.68	5.43
428.041	5.28
428.401	5.25
428.761	5.26
429.122	5.39
429.482	5.2
429.842	5.47
430.202	5.43
430.563	5.36
430.923	5.38
431.283	5.46
431.643	5.58
432.003	5.64
432.363	5.38
432.722	5.37
433.082	5.44
433.442	5.26
433.802	5.3
434.161	5.72
434.521	5.32
434.881	5.41
435.24	5.3
435.6	5.39
435.959	5.39
436.319	5.52
436.678	5.37
437.037	5.5
437.396	5.51
437.756	5.52
438.115	5.48
438.474	5.43
438.833	5.4
439.192	5.5
439.551	5.5
439.91	5.66
440.269	5.66
440.628	5.43
440.987	5.64
441.345	5.59
441.704	5.55
442.063	5.55
442.421	5.47
442.78	5.45
443.138	5.47
443.497	5.44
443.855	5.39
444.214	5.59
444.572	5.5
444.93	5.55
445.288	5.58
445.647	5.61
446.005	5.39
446.363	5.65
446.721	5.45
447.079	5.55
447.437	5.64
447.795	5.38
448.153	5.57
448.51	5.46
448.868	5.36
449.226	5.36
449.584	5.51
449.941	5.62
450.299	5.47
450.656	5.63
451.014	5.72
451.371	5.48
451.729	5.69
452.086	5.69
452.443	5.74
452.801	5.69
453.158	5.6
453.515	5.68
453.872	5.55
454.229	5.67
454.586	5.53
454.943	5.79
455.3	5.94
455.657	5.75
456.014	5.68
456.371	5.78
456.727	5.87
457.084	5.6
457.441	5.95
457.797	5.6
458.154	5.75
458.51	5.82
458.867	5.55
459.223	5.75
459.58	5.53
459.936	5.92
460.292	5.68
460.648	5.69
461.005	5.59
461.361	5.79
461.717	5.69
462.073	5.72
462.429	5.64
462.785	5.71
463.141	5.71
463.496	5.76
463.852	5.81
464.208	5.76
464.564	5.91
464.919	5.84
465.275	5.81
465.631	5.66
465.986	5.8
466.342	5.9
466.697	5.87
467.052	5.83
467.408	5.97
467.763	5.95
468.118	5.84
468.473	5.81
468.829	5.88
469.184	6.14
469.539	5.73
469.894	5.75
470.249	5.67
470.603	5.71
470.958	5.98
471.313	5.87
471.668	6.07
472.023	5.9
472.377	5.96
472.732	5.87
473.086	6.1
473.441	5.88
473.795	6.13
474.15	6.07
474.504	5.92
474.859	5.98
475.213	5.99
475.567	5.91
475.921	5.84
476.275	6.03
476.63	5.91
476.984	5.98
477.338	5.87
477.692	6.07
478.045	5.94
478.399	6.02
478.753	5.86
479.107	5.92
479.461	6
479.814	6.07
480.168	5.95
480.521	6.12
480.875	5.94
481.228	5.86
481.582	6.23
481.935	6.07
482.289	6.1
482.642	5.97
482.995	6.04
483.348	5.99
483.701	5.91
484.055	6.05
484.408	5.94
484.761	5.88
485.114	5.81
485.466	5.78
485.819	5.75
486.172	5.7
486.525	5.69
486.878	5.75
487.23	5.81
487.583	5.88
487.936	5.91
488.288	5.9
488.641	5.89
488.993	5.88
489.345	5.9
489.698	5.82
490.05	5.87
490.402	5.87
490.754	5.9
491.107	5.85
491.459	6.04
491.811	6.08
492.163	6.15
492.515	6.15
492.866	6.06
493.218	6
493.57	5.98
493.922	5.95
494.274	5.93
494.625	6.03
494.977	6.13
495.328	6.21
495.68	6.24
496.031	6.19
496.383	6.22
496.734	6.25
497.086	6.3
497.437	6.45
497.788	6.29
498.139	6.32
498.49	6.3
498.842	6.26
499.193	6.25
499.544	6.24
499.894	6.39
500.245	6.3
500.596	6.58
500.947	6.31
501.298	6.38
501.648	6.3
501.999	6.22
502.35	6.5
502.7	6.54
503.051	6.46
503.401	6.45
503.752	6.47
504.102	6.41
504.452	6.42
504.803	6.65
505.153	6.5
505.503	6.53
505.853	6.64
506.203	6.47
506.553	6.53
506.903	6.47
507.253	6.62
507.603	6.61
507.953	6.6
508.303	6.56
508.652	6.57
509.002	6.61
509.352	6.76
509.701	6.62
510.051	6.62
510.4	6.6
510.75	6.58
511.099	6.59
511.449	6.56
511.798	6.59
512.147	6.78
512.496	6.55
512.846	6.72
513.195	6.75
513.544	6.67
513.893	6.61
514.242	6.76
514.591	6.63
514.939	6.6
515.288	6.87
515.637	6.82
515.986	6.77
516.334	6.93
516.683	6.83
517.032	6.89
517.38	6.99
517.729	6.74
518.077	6.84
518.426	6.9
518.774	7.01
519.122	6.87
519.47	6.82
519.819	6.86
520.167	6.86
520.515	6.81
520.863	6.75
521.211	6.91
521.559	6.75
521.907	6.83
522.255	6.85
522.602	6.87
522.95	7.04
523.298	7.08
523.645	7.07
523.993	6.98
524.341	7.17
524.688	7.01
525.036	7.1
525.383	7.06
525.73	7.16
526.078	7.18
526.425	7.02
526.772	7.04
527.119	7.16
527.466	6.97
527.814	7.1
528.161	7
528.508	7.11
528.854	7.03
529.201	7.02
529.548	7.03
529.895	7.03
530.242	7.01
530.588	6.94
530.935	6.97
531.282	6.98
531.628	6.98
531.975	7.11
532.321	7.16
532.667	7.11
533.014	7.2
533.36	7.22
533.706	7.35
534.052	7.29
534.399	7.37
534.745	7.3
535.091	7.25
535.437	7.27
535.783	7.32
536.129	7.3
536.474	7.39
536.82	7.36
537.166	7.58
537.512	7.45
537.857	7.55
538.203	7.58
538.549	7.66
538.894	7.57
539.239	7.65
539.585	7.61
539.93	7.58
540.276	7.61
540.621	7.74
540.966	7.84
541.311	7.81
541.656	7.68
542.001	7.78
542.346	7.86
542.691	7.69
543.036	7.68
543.381	7.58
543.726	7.6
544.071	7.62
544.415	7.66
544.76	7.69
545.105	7.78
545.449	7.82
545.794	7.75
546.138	7.81
546.483	7.91
546.827	8.01
547.171	7.95
547.516	8.03
547.86	8.13
548.204	8.1
548.548	8.13
548.892	8.11
549.236	8.01
549.58	8.22
549.924	8.29
550.268	8.32
550.612	8.21
550.956	8.16
551.3	8.44
551.643	8.42
551.987	8.55
552.33	8.69
552.674	8.43
553.017	8.34
553.361	8.52
553.704	8.42
554.048	8.66
554.391	8.47
554.734	8.57
555.077	8.63
555.42	8.65
555.764	8.68
556.107	8.73
556.45	8.68
556.793	8.71
557.135	8.72
557.478	8.76
557.821	8.78
558.164	8.86
558.507	8.8
558.849	8.95
559.192	8.87
559.534	8.96
559.877	8.99
560.219	9
560.562	8.99
560.904	9.1
561.246	9.08
561.589	9.14
561.931	9.06
562.273	9.06
562.615	9.02
562.957	9.03
563.299	9.33
563.641	9.26
563.983	9.39
564.325	9.45
564.667	9.52
565.008	9.46
565.35	9.47
565.692	9.34
566.033	9.26
566.375	9.51
566.716	9.59
567.058	9.43
567.399	9.49
567.741	9.36
568.082	9.56
568.423	9.64
568.764	9.52
569.105	9.55
569.447	9.52
569.788	9.57
570.129	9.62
570.47	9.62
570.811	9.55
571.151	9.65
571.492	9.87
571.833	9.82
572.174	9.81
572.514	9.77
572.855	9.95
573.195	9.98
573.536	9.81
573.876	9.69
574.217	9.91
574.557	9.78
574.898	9.94
575.238	10.14
575.578	10.12
575.918	10.12
576.258	10.24
576.598	10.29
576.938	10.46
577.278	10.11
577.618	10.3
577.958	10.25
578.298	10.3
578.638	10.46
578.977	10.55
579.317	10.36
579.657	10.3
579.996	10.44
580.336	10.52
580.675	10.41
581.014	10.79
581.354	10.61
581.693	10.81
582.032	10.55
582.372	10.88
582.711	10.88
583.05	10.94
583.389	10.88
583.728	11.12
584.067	10.82
584.406	10.74
584.745	10.97
585.083	10.76
585.422	10.99
585.761	11.33
586.1	10.95
586.438	11.26
586.777	11.26
587.115	10.98
587.454	11.11
587.792	11.25
588.13	11.16
588.469	11.32
588.807	11.46
589.145	11.38
589.483	11.59
589.821	11.32
590.159	11.71
590.497	11.71
590.835	11.45
591.173	11.66
591.511	11.42
591.849	11.76
592.187	11.29
592.524	11.62
592.862	11.62
593.2	11.51
593.537	11.61
593.875	11.76
594.212	11.77
594.55	12
594.887	12.15
595.224	11.9
595.561	11.83
595.899	12.06
596.236	12.09
596.573	11.98
596.91	11.95
597.247	12.04
597.584	12.11
597.921	11.89
598.258	12.15
598.594	12.26
598.931	12.19
599.268	12.31
599.604	12.32
599.941	12.54
600.277	12.3
600.614	12.6
600.95	12.1
601.287	12.16
601.623	12.63
601.959	12.64
602.296	12.57
602.632	12.44
602.968	12.41
603.304	12.9
603.64	12.72
603.976	13.07
604.312	12.81
604.648	13.17
604.984	12.92
605.319	12.76
605.655	12.75
605.991	12.83
606.326	12.84
606.662	13
606.998	12.8
607.333	13.11
607.668	12.9
608.004	13
608.339	13.22
608.674	13.3
609.01	13.37
609.345	12.95
609.68	13.27
610.015	13.39
610.35	13.51
610.685	13.37
611.02	13.33
611.355	13.54
611.689	13.61
612.024	13.58
612.359	13.54
612.694	13.48
613.028	13.61
613.363	13.4
613.697	13.39
614.032	13.92
614.366	13.85
614.7	13.67
615.035	13.79
615.369	13.83
615.703	13.89
616.037	13.89
616.371	14.04
616.705	13.78
617.039	14.19
617.373	14.13
617.707	14.36
618.041	14.26
618.375	14.18
618.709	14.59
619.042	14.25
619.376	14.45
619.71	14.44
620.043	14.11
620.377	14.54
620.71	14.53
621.043	14.24
621.377	13.99
621.71	14.51
622.043	14.21
622.376	14.66
622.709	14.58
623.043	14.68
623.376	14.86
623.709	14.85
624.041	14.8
624.374	14.9
624.707	14.92
625.04	15.38
625.373	15.13
625.705	15.37
626.038	15.07
626.37	15.31
626.703	15.15
627.035	14.92
627.368	15.03
627.7	14.89
628.032	15.27
628.365	15.39
628.697	15.08
629.029	15.31
629.361	15.2
629.693	15.34
630.025	15.37
630.357	15.3
630.689	15.3
631.021	15.81
631.353	15.48
631.684	15.7
632.016	15.85
632.348	15.71
632.679	15.76
633.011	15.58
633.342	15.8
633.674	16.17
634.005	15.77
634.336	16.31
634.668	15.9
634.999	16.38
635.33	15.63
635.661	16.14
635.992	16.27
636.323	16.03
636.654	16.17
636.985	15.82
637.316	16.14
637.647	16.55
637.977	16.8
638.308	16.61
638.639	16.32
638.969	16.26
639.3	16.07
639.63	16.57
639.961	16.7
640.291	17.05
640.622	16.3
640.952	16.75
641.282	16.59
641.612	16.69
641.943	16.5
642.273	16.64
642.603	16.95
642.933	17.53
643.263	16.85
643.592	17.06
643.922	17.09
644.252	16.65
644.582	17.28
644.911	17.55
645.241	16.82
645.571	17.71
645.9	16.95
646.23	17.25
646.559	17.39
646.888	16.67
647.218	17.5
647.547	16.77
647.876	17.01
648.205	17.26
648.534	17.63
648.863	17.52
649.192	17.6
649.521	17.18
649.85	17.27
650.179	17.73
650.508	17.56
650.837	17
651.165	17.92
651.494	17.57
651.822	17.95
652.151	18.15
652.479	18.01
652.808	17.69
653.136	17.78
653.465	17.78
653.793	17.89
654.121	18.31
654.449	18.41
654.777	18.4
655.105	18.16
655.433	18.22
655.761	18.29
656.089	18.21
656.417	18.26
656.745	18.52
657.073	18.45
657.4	18.45
657.728	18.73
658.056	18.5
658.383	18.7
658.711	18.46
659.038	18.5
659.365	18.65
659.693	18.71
660.02	18.12
660.347	18.77
660.674	18.93
661.001	18.51
661.329	18.71
661.656	18.83
661.982	18.72
662.309	18.58
662.636	18.95
662.963	18.96
663.29	18.98
663.616	19.01
663.943	18.78
664.27	19.47
664.596	19.07
664.923	19
665.249	19.21
665.576	18.89
665.902	18.88
666.228	19.68
666.554	19.27
666.881	18.52
667.207	19.69
667.533	19.24
667.859	20.06
668.185	19.7
668.511	18.78
668.837	19.65
669.162	19.8
669.488	20.1
669.814	19.46
670.139	19.94
670.465	20.05
670.791	20.16
671.116	20.15
671.442	20.08
671.767	19.7
672.092	20.03
672.418	20.08
672.743	19.63
673.068	20.04
673.393	20
673.718	19.73
674.043	20.45
674.368	20.02
674.693	20.25
675.018	21.02
675.343	20.36
675.667	20.08
675.992	21.3
676.317	20.53
676.641	20.41
676.966	20.76
677.29	20.05
677.615	21.29
677.939	19.65
678.264	20.39
678.588	21.32
678.912	20.26
679.236	20.28
679.56	20.94
679.885	20.66
680.209	20.55
680.532	21.44
680.856	21.37
681.18	20.63
681.504	20.93
681.828	20.42
682.152	20.85
682.475	21.42
682.799	21.61
683.122	21.5
683.446	20.46
683.769	21
684.093	21.36
684.416	21.1
684.739	21.6
685.062	21.63
685.386	21.63
685.709	20.95
686.032	21.58
