Data from 0364_crown_Reflection__4__55.txt Node

Date: Mon Dec 11 18:22:09 CST 2023
User: ToomeyLab
Spectrometer: FLMS14357
Trigger mode: 0
Integration Time (sec): 1.000000E-2
Scans to average: 100
Electric dark correction enabled: true
Nonlinearity correction enabled: false
Boxcar width: 0
XAxis mode: Wavelengths
Number of Pixels in Spectrum: 2048
>>>>>Begin Spectral Data<<<<<
189.047	159.48
189.435	159.48
189.823	159.48
190.211	92.72
190.599	131.54
190.987	45.55
191.375	67.94
191.763	43.98
192.151	130.64
192.538	37.71
192.926	206.97
193.314	14.81
193.702	54.42
194.089	-136.54
194.477	148.84
194.864	37.85
195.252	54.7
195.639	-104.73
196.027	18.92
196.414	-41.27
196.801	9.3
197.189	-312.32
197.576	201.48
197.963	-38.37
198.351	-20.53
198.738	1.43
199.125	-37.76
199.512	-1.36
199.899	26.89
200.286	-7.93
200.673	-79.09
201.06	11.46
201.447	8.93
201.833	-13.5
202.22	40.99
202.607	0.98
202.994	-1.49
203.38	-61.98
203.767	34.47
204.154	58.49
204.54	-21.33
204.927	-41.08
205.313	-11
205.699	-24.6
206.086	-54.18
206.472	14.98
206.858	13.65
207.245	24.17
207.631	-0.28
208.017	23.03
208.403	-3.58
208.789	-41.15
209.175	3.42
209.561	0.1
209.947	-22.56
210.333	35.31
210.719	31.4
211.105	-5.85
211.491	18.4
211.876	26.93
212.262	2.02
212.648	-56.37
213.034	-0.2
213.419	3.05
213.805	-13.26
214.19	6.24
214.576	-7.62
214.961	-15.35
215.346	15.42
215.732	21.22
216.117	3.08
216.502	13.82
216.888	10.39
217.273	14
217.658	-28.63
218.043	-27.2
218.428	3.56
218.813	2.41
219.198	15.69
219.583	8.31
219.968	8.87
220.353	-30.97
220.738	16.98
221.122	4.26
221.507	16.05
221.892	-4.54
222.276	18.31
222.661	-2.12
223.046	-7.27
223.43	-1.25
223.815	-8.34
224.199	4.42
224.583	6.01
224.968	7.13
225.352	11.49
225.736	10.51
226.121	1.53
226.505	-0.9
226.889	8.98
227.273	7.25
227.657	12.18
228.041	1.48
228.425	3.91
228.809	-3.14
229.193	3.43
229.577	7.14
229.961	3.47
230.344	5.42
230.728	4.04
231.112	5.13
231.495	5.43
231.879	5.08
232.263	3.62
232.646	3.46
233.03	2.99
233.413	4.57
233.797	7.41
234.18	4.35
234.563	4.12
234.946	5.56
235.33	7.68
235.713	3.99
236.096	5.66
236.479	4.25
236.862	2.92
237.245	4.92
237.628	4.18
238.011	5.99
238.394	3.89
238.777	4.85
239.16	4.63
239.543	5.12
239.925	2.99
240.308	4.63
240.691	4.9
241.073	4.93
241.456	4.5
241.838	5.61
242.221	4.9
242.603	4.43
242.986	4.26
243.368	4.9
243.75	5.15
244.133	4.93
244.515	4.54
244.897	5.06
245.279	5.14
245.661	4.57
246.043	4.99
246.425	4.98
246.807	4.69
247.189	4.94
247.571	4.75
247.953	4.82
248.335	4.95
248.717	4.91
249.098	4.66
249.48	4.68
249.862	5.06
250.243	4.91
250.625	4.94
251.006	4.48
251.388	4.2
251.769	5.08
252.151	5.06
252.532	4.72
252.913	4.86
253.295	5.7
253.676	4.85
254.057	5.04
254.438	5.13
254.819	4.31
255.2	3.88
255.581	3.82
255.962	5.16
256.343	5.19
256.724	5.9
257.105	3.63
257.486	4.06
257.867	3.9
258.247	4.49
258.628	4.05
259.009	5.02
259.389	5.41
259.77	3.85
260.15	4.08
260.531	4.84
260.911	3.89
261.292	4.35
261.672	4.44
262.052	4.59
262.432	4.61
262.813	4.84
263.193	4.69
263.573	4.41
263.953	4.74
264.333	4.17
264.713	4.62
265.093	4.44
265.473	4.67
265.853	4.13
266.233	4.52
266.612	5.28
266.992	4.47
267.372	5.33
267.752	5.09
268.131	4.76
268.511	4.58
268.89	4.23
269.27	4.63
269.649	4.52
270.029	4.83
270.408	4.27
270.787	4.45
271.167	3.75
271.546	4.41
271.925	4
272.304	4.41
272.683	4.54
273.062	4.15
273.441	4.18
273.82	4.04
274.199	4.35
274.578	4.32
274.957	4.4
275.336	4.42
275.715	4.52
276.093	5.01
276.472	4.39
276.851	4.67
277.229	4.34
277.608	4.55
277.986	4.85
278.365	3.95
278.743	4.35
279.122	4.34
279.5	5.04
279.878	4.07
280.257	4.47
280.635	4.37
281.013	4.12
281.391	4.71
281.769	4.42
282.147	4.04
282.525	3.85
282.903	4.27
283.281	4.07
283.659	3.93
284.037	4.41
284.415	4.15
284.792	4.28
285.17	4.05
285.548	3.92
285.925	3.76
286.303	4.4
286.68	4.16
287.058	4.42
287.435	4.35
287.813	4.36
288.19	4.22
288.567	4.35
288.945	4.18
289.322	3.85
289.699	4.06
290.076	3.9
290.453	4.49
290.83	4.39
291.207	4.38
291.584	4.27
291.961	4.39
292.338	4.31
292.715	4.52
293.092	4.33
293.469	4.35
293.845	4.29
294.222	4.08
294.599	4.14
294.975	4.11
295.352	3.56
295.728	4.39
296.105	3.91
296.481	4.32
296.858	3.99
297.234	4.08
297.61	3.95
297.986	4.02
298.363	4.39
298.739	4.39
299.115	4.21
299.491	4.07
299.867	4.3
300.243	4.42
300.619	4.09
300.995	3.96
301.371	4.04
301.746	3.91
302.122	4.35
302.498	4.53
302.874	4.28
303.249	4.63
303.625	4.66
304	4.01
304.376	4.45
304.751	4.1
305.127	4.42
305.502	5.07
305.878	4.35
306.253	4.4
306.628	4.32
307.003	4.25
307.378	4.07
307.754	3.84
308.129	4.28
308.504	3.92
308.879	3.46
309.254	4.58
309.629	4.16
310.003	4.48
310.378	3.9
310.753	4.59
311.128	4.64
311.502	4.1
311.877	4.37
312.252	4.33
312.626	4.14
313.001	4.39
313.375	3.86
313.75	4.18
314.124	4.52
314.498	3.92
314.873	4.16
315.247	4.31
315.621	4.92
315.995	4.46
316.369	3.85
316.743	4.66
317.117	4.51
317.491	4.4
317.865	4.02
318.239	4.24
318.613	4.21
318.987	4.5
319.361	4.45
319.734	4.29
320.108	4.31
320.482	4.92
320.855	3.67
321.229	4.16
321.602	4.26
321.976	4.52
322.349	4.16
322.723	3.8
323.096	4.4
323.469	4.66
323.843	4.6
324.216	4.32
324.589	4.82
324.962	4.65
325.335	3.95
325.708	4.7
326.081	4.58
326.454	4.58
326.827	4.24
327.2	3.57
327.573	4.52
327.945	4.55
328.318	4.36
328.691	3.81
329.063	4.04
329.436	3.95
329.809	4.28
330.181	4.48
330.553	3.99
330.926	4.13
331.298	4.37
331.671	4.29
332.043	4.94
332.415	4.51
332.787	4.7
333.159	4.53
333.532	4.52
333.904	4.36
334.276	4.48
334.648	5.04
335.02	4.48
335.391	4.38
335.763	4.36
336.135	4.3
336.507	4.26
336.879	4.26
337.25	4.29
337.622	3.92
337.993	4.37
338.365	4.27
338.736	4.38
339.108	4.5
339.479	4.04
339.851	4.3
340.222	4.04
340.593	4.21
340.964	4.64
341.336	4.17
341.707	3.77
342.078	4.64
342.449	4.04
342.82	4.16
343.191	4.07
343.562	4.03
343.933	4.19
344.303	4.2
344.674	4.47
345.045	4.58
345.416	3.93
345.786	4.44
346.157	4.65
346.527	4.58
346.898	4.61
347.268	4.25
347.639	4.43
348.009	4.52
348.38	4.15
348.75	3.97
349.12	4.58
349.49	4.35
349.861	4.17
350.231	4.04
350.601	4.6
350.971	4.37
351.341	3.76
351.711	4.25
352.081	3.93
352.45	4.09
352.82	4.13
353.19	4.37
353.56	4.33
353.929	4.18
354.299	4.79
354.669	4.39
355.038	4.43
355.408	3.61
355.777	4.16
356.147	4.68
356.516	4.18
356.885	4.39
357.254	4.25
357.624	4.21
357.993	3.94
358.362	4.49
358.731	4.26
359.1	4.46
359.469	3.97
359.838	4.28
360.207	4.19
360.576	4.02
360.945	4.7
361.314	4.56
361.682	4.23
362.051	4.48
362.42	4.16
362.788	4.02
363.157	4.15
363.525	3.92
363.894	4.16
364.262	4.19
364.631	4.22
364.999	4.23
365.367	4.34
365.735	4.43
366.104	4.18
366.472	4.37
366.84	4.15
367.208	4.06
367.576	4.45
367.944	4.3
368.312	4.17
368.68	4.39
369.048	3.88
369.416	3.91
369.783	4.37
370.151	4.5
370.519	4.61
370.886	4.42
371.254	4.64
371.621	4.38
371.989	4.52
372.356	4.41
372.724	4.65
373.091	4.37
373.458	4.17
373.826	4.38
374.193	4.27
374.56	4.57
374.927	4.35
375.294	4.47
375.661	4.35
376.028	4.67
376.395	4.45
376.762	4.09
377.129	4.64
377.496	4.22
377.863	4.46
378.229	4.19
378.596	4.33
378.963	4.31
379.329	4.23
379.696	4.76
380.062	4.15
380.429	4.24
380.795	4.65
381.161	3.99
381.528	4.4
381.894	4.5
382.26	4.22
382.626	4.18
382.993	4.45
383.359	4.02
383.725	4.1
384.091	4.08
384.457	4.26
384.823	4.62
385.188	4.43
385.554	4.18
385.92	4.35
386.286	4.47
386.651	4.25
387.017	4.47
387.383	4.33
387.748	4.53
388.114	4.42
388.479	4.15
388.845	4.28
389.21	4.45
389.575	4.46
389.94	4.46
390.306	4.48
390.671	4.3
391.036	4.06
391.401	4.75
391.766	4.28
392.131	4.6
392.496	4.7
392.861	4.47
393.226	4.4
393.591	4.56
393.956	4.31
394.32	4.47
394.685	4.37
395.05	4.47
395.414	4.9
395.779	4.27
396.143	4.49
396.508	4.32
396.872	4.34
397.236	4.32
397.601	4.28
397.965	4.47
398.329	4.56
398.694	4.35
399.058	4.31
399.422	4.61
399.786	4.38
400.15	4.38
400.514	4.68
400.878	4.5
401.242	4.21
401.605	4.67
401.969	4.35
402.333	4.3
402.697	4.31
403.06	4.42
403.424	4.6
403.787	4.75
404.151	4.22
404.514	4.24
404.878	4.6
405.241	4.57
405.604	4.58
405.968	4.48
406.331	4.33
406.694	4.44
407.057	4.37
407.42	4.64
407.783	4.28
408.146	4.48
408.509	4.38
408.872	4.36
409.235	4.35
409.598	4.42
409.961	4.83
410.323	4.51
410.686	4.55
411.049	4.5
411.411	4.59
411.774	4.45
412.136	4.45
412.499	4.51
412.861	4.23
413.223	4.36
413.586	4.68
413.948	4.57
414.31	4.49
414.672	4.26
415.035	4.39
415.397	4.35
415.759	4.53
416.121	4.53
416.483	4.38
416.845	4.51
417.206	4.57
417.568	4.58
417.93	4.72
418.292	4.5
418.653	4.44
419.015	4.45
419.377	4.43
419.738	4.38
420.1	4.41
420.461	4.41
420.822	4.4
421.184	4.35
421.545	4.41
421.906	4.46
422.267	4.46
422.629	4.31
422.99	4.48
423.351	4.36
423.712	4.36
424.073	4.43
424.434	4.34
424.795	4.43
425.155	4.45
425.516	4.39
425.877	4.27
426.238	4.34
426.598	4.44
426.959	4.42
427.32	4.45
427.68	4.54
428.041	4.33
428.401	4.53
428.761	4.52
429.122	4.36
429.482	4.52
429.842	4.68
430.202	4.6
430.563	4.5
430.923	4.72
431.283	4.61
431.643	4.75
432.003	4.45
432.363	4.62
432.722	4.66
433.082	4.66
433.442	4.61
433.802	4.4
434.161	4.79
434.521	4.24
434.881	4.55
435.24	4.54
435.6	4.46
435.959	4.49
436.319	4.47
436.678	4.63
437.037	4.44
437.396	4.64
437.756	4.69
438.115	4.82
438.474	4.66
438.833	4.71
439.192	4.62
439.551	4.73
439.91	4.69
440.269	4.74
440.628	4.42
440.987	4.71
441.345	4.56
441.704	4.71
442.063	4.58
442.421	4.59
442.78	4.52
443.138	4.54
443.497	4.4
443.855	4.42
444.214	4.68
444.572	4.58
444.93	4.64
445.288	4.5
445.647	4.8
446.005	4.32
446.363	4.67
446.721	4.6
447.079	4.52
447.437	4.58
447.795	4.49
448.153	4.81
448.51	4.63
448.868	4.48
449.226	4.41
449.584	4.53
449.941	4.66
450.299	4.64
450.656	4.58
451.014	4.58
451.371	4.61
451.729	4.64
452.086	4.63
452.443	4.79
452.801	4.71
453.158	4.58
453.515	4.46
453.872	4.69
454.229	4.58
454.586	4.52
454.943	4.8
455.3	4.77
455.657	4.71
456.014	4.74
456.371	4.66
456.727	4.86
457.084	4.83
457.441	4.91
457.797	4.75
458.154	4.76
458.51	4.78
458.867	4.51
459.223	4.62
459.58	4.72
459.936	4.78
460.292	4.76
460.648	4.78
461.005	4.65
461.361	4.67
461.717	4.66
462.073	4.64
462.429	4.58
462.785	4.66
463.141	4.7
463.496	4.79
463.852	4.67
464.208	4.74
464.564	4.69
464.919	4.65
465.275	4.78
465.631	4.69
465.986	4.9
466.342	4.82
466.697	4.77
467.052	4.88
467.408	4.81
467.763	4.76
468.118	4.51
468.473	4.71
468.829	4.98
469.184	5.02
469.539	5
469.894	4.73
470.249	4.85
470.603	4.65
470.958	4.97
471.313	4.7
471.668	5.05
472.023	4.93
472.377	4.72
472.732	4.66
473.086	5.01
473.441	4.74
473.795	4.86
474.15	4.81
474.504	4.95
474.859	4.98
475.213	4.79
475.567	4.99
475.921	4.82
476.275	4.85
476.63	4.79
476.984	4.87
477.338	4.63
477.692	4.7
478.045	4.88
478.399	4.62
478.753	4.54
479.107	4.8
479.461	4.7
479.814	4.73
480.168	4.76
480.521	4.95
480.875	4.77
481.228	4.73
481.582	4.86
481.935	4.74
482.289	4.88
482.642	4.87
482.995	4.81
483.348	4.75
483.701	4.63
484.055	4.84
484.408	4.69
484.761	4.76
485.114	4.61
485.466	4.56
485.819	4.47
486.172	4.49
486.525	4.53
486.878	4.62
487.23	4.66
487.583	4.69
487.936	4.75
488.288	4.75
488.641	4.66
488.993	4.61
489.345	4.69
489.698	4.68
490.05	4.64
490.402	4.64
490.754	4.7
491.107	4.75
491.459	4.73
491.811	4.81
492.163	4.77
492.515	4.82
492.866	4.87
493.218	4.72
493.57	4.65
493.922	4.7
494.274	4.72
494.625	4.76
494.977	4.85
495.328	4.92
495.68	5
496.031	4.88
496.383	4.91
496.734	4.87
497.086	4.93
497.437	4.92
497.788	4.97
498.139	4.9
498.49	4.98
498.842	4.88
499.193	4.9
499.544	4.85
499.894	5.01
500.245	4.99
500.596	5.01
500.947	4.93
501.298	5.06
501.648	4.96
501.999	4.89
502.35	5.08
502.7	5.08
503.051	4.95
503.401	4.92
503.752	4.86
504.102	5
504.452	4.95
504.803	4.99
505.153	5.03
505.503	5.1
505.853	4.98
506.203	4.88
506.553	5.14
506.903	5.01
507.253	5
507.603	4.93
507.953	5.03
508.303	4.98
508.652	5.13
509.002	4.91
509.352	5.18
509.701	5.13
510.051	5.03
510.4	5.03
510.75	5.04
511.099	5.01
511.449	4.97
511.798	5.14
512.147	5.11
512.496	4.95
512.846	5.02
513.195	5.23
513.544	5.02
513.893	4.97
514.242	5.01
514.591	5.01
514.939	4.93
515.288	5.18
515.637	4.93
515.986	5.08
516.334	5.08
516.683	5.17
517.032	5.09
517.38	5.19
517.729	5.09
518.077	5.12
518.426	5.2
518.774	5.06
519.122	5.13
519.47	5.01
519.819	4.91
520.167	5.11
520.515	4.96
520.863	4.89
521.211	5.05
521.559	5.04
521.907	5.02
522.255	5.03
522.602	5.01
522.95	5.08
523.298	5.16
523.645	5.22
523.993	5.08
524.341	5.15
524.688	5.06
525.036	5.09
525.383	5.24
525.73	5.17
526.078	5.23
526.425	5.1
526.772	5.1
527.119	5.02
527.466	5.09
527.814	5.08
528.161	5.04
528.508	5
528.854	5.02
529.201	5.1
529.548	5.07
529.895	4.97
530.242	4.96
530.588	4.89
530.935	4.93
531.282	4.91
531.628	4.93
531.975	4.96
532.321	5.07
532.667	5.1
533.014	5.02
533.36	5.05
533.706	5.25
534.052	5.08
534.399	5.16
534.745	5.07
535.091	5.04
535.437	4.98
535.783	4.97
536.129	5.09
536.474	5.13
536.82	5.24
537.166	5.09
537.512	5.02
537.857	5.24
538.203	5.12
538.549	5.14
538.894	5.1
539.239	5.2
539.585	5.13
539.93	5.17
540.276	5.24
540.621	5.27
540.966	5.27
541.311	5.16
541.656	5.2
542.001	5.28
542.346	5.21
542.691	5.18
543.036	5.04
543.381	4.98
543.726	4.99
544.071	5.04
544.415	5.05
544.76	5.2
545.105	5.14
545.449	5.12
545.794	5.17
546.138	5.18
546.483	5.2
546.827	5.31
547.171	5.22
547.516	5.28
547.86	5.42
548.204	5.19
548.548	5.24
548.892	5.24
549.236	5.33
549.58	5.3
549.924	5.41
550.268	5.24
550.612	5.37
550.956	5.36
551.3	5.41
551.643	5.43
551.987	5.32
552.33	5.39
552.674	5.35
553.017	5.24
553.361	5.27
553.704	5.28
554.048	5.44
554.391	5.28
554.734	5.4
555.077	5.39
555.42	5.39
555.764	5.33
556.107	5.44
556.45	5.34
556.793	5.31
557.135	5.43
557.478	5.31
557.821	5.27
558.164	5.48
558.507	5.32
558.849	5.29
559.192	5.37
559.534	5.38
559.877	5.45
560.219	5.33
560.562	5.49
560.904	5.47
561.246	5.31
561.589	5.52
561.931	5.44
562.273	5.33
562.615	5.36
562.957	5.44
563.299	5.55
563.641	5.26
563.983	5.71
564.325	5.6
564.667	5.41
565.008	5.31
565.35	5.59
565.692	5.55
566.033	5.38
566.375	5.67
566.716	5.46
567.058	5.3
567.399	5.59
567.741	5.43
568.082	5.53
568.423	5.36
568.764	5.42
569.105	5.37
569.447	5.46
569.788	5.47
570.129	5.49
570.47	5.32
570.811	5.27
571.151	5.49
571.492	5.56
571.833	5.51
572.174	5.59
572.514	5.57
572.855	5.39
573.195	5.58
573.536	5.46
573.876	5.45
574.217	5.53
574.557	5.44
574.898	5.46
575.238	5.66
575.578	5.5
575.918	5.64
576.258	5.58
576.598	5.54
576.938	5.58
577.278	5.61
577.618	5.59
577.958	5.49
578.298	5.52
578.638	5.6
578.977	5.64
579.317	5.56
579.657	5.36
579.996	5.45
580.336	5.65
580.675	5.51
581.014	5.58
581.354	5.46
581.693	5.78
582.032	5.48
582.372	5.6
582.711	5.55
583.05	5.49
583.389	5.69
583.728	5.67
584.067	5.56
584.406	5.44
584.745	5.58
585.083	5.66
585.422	5.93
585.761	5.64
586.1	5.54
586.438	5.6
586.777	5.63
587.115	5.61
587.454	5.59
587.792	5.56
588.13	5.74
588.469	5.49
588.807	5.69
589.145	5.78
589.483	5.64
589.821	5.36
590.159	5.51
590.497	5.62
590.835	5.76
591.173	5.88
591.511	5.95
591.849	5.78
592.187	5.58
592.524	5.81
592.862	5.61
593.2	5.4
593.537	5.76
593.875	5.69
594.212	5.92
594.55	5.53
594.887	5.58
595.224	5.68
595.561	5.88
595.899	5.63
596.236	5.9
596.573	5.59
596.91	5.59
597.247	5.79
597.584	5.54
597.921	5.5
598.258	5.68
598.594	5.91
598.931	5.53
599.268	5.65
599.604	5.77
599.941	5.88
600.277	5.73
600.614	5.73
600.95	5.77
601.287	5.65
601.623	5.71
601.959	5.78
602.296	5.62
602.632	5.72
602.968	5.7
603.304	5.61
603.64	5.75
603.976	6.1
604.312	5.95
604.648	5.68
604.984	5.78
605.319	5.77
605.655	5.52
605.991	5.57
606.326	5.83
606.662	5.71
606.998	5.67
607.333	5.79
607.668	5.8
608.004	5.6
608.339	5.87
608.674	5.78
609.01	5.74
609.345	5.75
609.68	5.96
610.015	5.91
610.35	5.83
610.685	5.93
611.02	5.78
611.355	5.89
611.689	5.95
612.024	5.91
612.359	5.65
612.694	5.6
613.028	6.01
613.363	5.93
613.697	5.83
614.032	5.72
614.366	5.94
614.7	5.96
615.035	6.06
615.369	5.93
615.703	5.86
616.037	5.78
616.371	6.22
616.705	5.82
617.039	5.99
617.373	5.64
617.707	5.87
618.041	5.98
618.375	6.13
618.709	6.01
619.042	5.93
619.376	6.27
619.71	5.85
620.043	6.08
620.377	5.83
620.71	6.17
621.043	5.77
621.377	5.53
621.71	6.11
622.043	5.79
622.376	5.89
622.709	5.96
623.043	6.18
623.376	6.08
623.709	6.16
624.041	5.75
624.374	5.66
624.707	5.94
625.04	6.55
625.373	5.98
625.705	6.21
626.038	5.91
626.37	5.87
626.703	6.44
627.035	6.02
627.368	6.04
627.7	5.8
628.032	5.76
628.365	6.25
628.697	6.05
629.029	5.98
629.361	5.61
629.693	6.02
630.025	6.07
630.357	5.68
630.689	5.73
631.021	5.95
631.353	5.81
631.684	5.86
632.016	6.08
632.348	6.23
632.679	6.21
633.011	5.94
633.342	6.34
633.674	6.58
634.005	6.34
634.336	6.2
634.668	6.09
634.999	6.3
635.33	5.66
635.661	6.13
635.992	6.29
636.323	5.74
636.654	6.26
636.985	6.13
637.316	5.78
637.647	6.29
637.977	6.31
638.308	6.2
638.639	6.23
638.969	6.02
639.3	6.1
639.63	5.94
639.961	6.07
640.291	6.73
640.622	6.07
640.952	6.55
641.282	6.03
641.612	6.46
641.943	6.04
642.273	6.13
642.603	6.56
642.933	6.44
643.263	6.33
643.592	6.12
643.922	5.96
644.252	5.57
644.582	5.96
644.911	6.65
645.241	6.56
645.571	6.66
645.9	5.73
646.23	6
646.559	6.32
646.888	6.1
647.218	6.54
647.547	5.99
647.876	6.15
648.205	5.95
648.534	6.14
648.863	6.89
649.192	5.96
649.521	6.44
649.85	6.23
650.179	6.32
650.508	6.43
650.837	6.13
651.165	6.75
651.494	6.22
651.822	6.34
652.151	6.56
652.479	6.71
652.808	6.8
653.136	6.45
653.465	6.34
653.793	6.16
654.121	6.39
654.449	6.28
654.777	6.3
655.105	5.81
655.433	6.5
655.761	6.1
656.089	6.23
656.417	6.66
656.745	6.39
657.073	6.86
657.4	6.77
657.728	6.66
658.056	6.95
658.383	6.28
658.711	6.49
659.038	6.05
659.365	6.63
659.693	6.58
660.02	6.35
660.347	6.41
660.674	6.18
661.001	6.09
661.329	6.33
661.656	6.69
661.982	6.39
662.309	6.4
662.636	6.61
662.963	7.01
663.29	6.18
663.616	5.61
663.943	5.81
664.27	6.67
664.596	6.59
664.923	6.89
665.249	6.92
665.576	6.21
665.902	5.93
666.228	5.85
666.554	6.45
666.881	5.6
667.207	6.54
667.533	6.75
667.859	7.11
668.185	6.9
668.511	6.41
668.837	6.47
669.162	6.29
669.488	6.4
669.814	6.88
670.139	6.53
670.465	6.95
670.791	6.67
671.116	6.94
671.442	6.73
671.767	6.36
672.092	6.91
672.418	6.6
672.743	6.03
673.068	6.37
673.393	7.01
673.718	6.12
674.043	6.76
674.368	6.55
674.693	6.46
675.018	7.21
675.343	6.53
675.667	6.92
675.992	7.08
676.317	6.76
676.641	6.63
676.966	7
677.29	6.58
677.615	6.86
677.939	6.48
678.264	6.8
678.588	7.23
678.912	6.53
679.236	6.71
679.56	7.03
679.885	6.81
680.209	6.79
680.532	6.8
680.856	7.3
681.18	6.38
681.504	6.2
681.828	6.8
682.152	5.63
682.475	7.12
682.799	6.86
683.122	6.42
683.446	6.28
683.769	6.35
684.093	7.29
684.416	6.47
684.739	6.8
685.062	6.89
685.386	6.98
685.709	7.32
686.032	7.69
686.355	7.3
686.678	7.19
687.001	6.94
687.324	4.92
687.646	6.33
687.969	7.14
688.292	6.86
688.614	7.59
688.937	7.2
689.26	6.58
689.582	6.15
689.904	6.89
690.227	7.01
690.549	6.47
690.871	6.61
691.194	6.37
691.516	6.78
691.838	6.98
692.16	7.63
692.482	7.62
