Data from 0364_forehead_Reflection__2__58.txt Node

Date: Mon Dec 11 18:23:15 CST 2023
User: ToomeyLab
Spectrometer: FLMS14357
Trigger mode: 0
Integration Time (sec): 1.000000E-2
Scans to average: 100
Electric dark correction enabled: true
Nonlinearity correction enabled: false
Boxcar width: 0
XAxis mode: Wavelengths
Number of Pixels in Spectrum: 2048
>>>>>Begin Spectral Data<<<<<
189.047	1528.76
189.435	1528.76
189.823	1528.76
190.211	-362.25
190.599	-20.47
190.987	-347.62
191.375	46.95
191.763	58.89
192.151	146.46
192.538	28.66
192.926	238.9
193.314	19.34
193.702	101.1
194.089	94.26
194.477	216.84
194.864	58.24
195.252	67.49
195.639	4.73
196.027	100.85
196.414	165.61
196.801	12.85
197.189	-306.01
197.576	147.08
197.963	113.56
198.351	-0.16
198.738	22.02
199.125	-34.14
199.512	27.17
199.899	27.69
200.286	-1.09
200.673	-148.55
201.06	52.31
201.447	27.36
201.833	23.29
202.22	40.09
202.607	-17.29
202.994	0.59
203.38	-21.62
203.767	22.64
204.154	53.13
204.54	-45.63
204.927	-31.36
205.313	21.32
205.699	7.86
206.086	16.82
206.472	33.21
206.858	24.76
207.245	23.01
207.631	-13.82
208.017	18.07
208.403	17.27
208.789	-18.15
209.175	21.8
209.561	6.44
209.947	-1.8
210.333	22.85
210.719	14.28
211.105	21.44
211.491	1.56
211.876	29.06
212.262	22.04
212.648	19.2
213.034	15.14
213.419	19.22
213.805	34.46
214.19	19.9
214.576	3.34
214.961	10.95
215.346	25.91
215.732	21.61
216.117	33.5
216.502	22.36
216.888	11.86
217.273	31.65
217.658	13.42
218.043	-24.54
218.428	6.26
218.813	36.67
219.198	11.94
219.583	11.88
219.968	-12.99
220.353	-4.2
220.738	37.11
221.122	-9.79
221.507	30.76
221.892	8.99
222.276	-10.5
222.661	9.96
223.046	16.22
223.43	1.63
223.815	0.86
224.199	8.15
224.583	12.93
224.968	9.27
225.352	-1.44
225.736	1.32
226.121	9.42
226.505	-2.23
226.889	6.91
227.273	6.05
227.657	13.35
228.041	3.11
228.425	4.17
228.809	-1.68
229.193	6.04
229.577	4.89
229.961	3.52
230.344	3.25
230.728	2.33
231.112	2.86
231.495	3.31
231.879	1.59
232.263	2.23
232.646	3.16
233.03	2.93
233.413	1.56
233.797	4.88
234.18	3.03
234.563	3.18
234.946	3.58
235.33	5.21
235.713	2.52
236.096	2.73
236.479	3.25
236.862	1.69
237.245	2.41
237.628	3.23
238.011	2.24
238.394	2.94
238.777	2.25
239.16	4.33
239.543	4.57
239.925	2.42
240.308	3.23
240.691	1.86
241.073	4.21
241.456	4.26
241.838	6
242.221	3.73
242.603	2.79
242.986	2.68
243.368	2.35
243.75	3.16
244.133	3.42
244.515	2.99
244.897	3.02
245.279	2.95
245.661	3.18
246.043	3.5
246.425	4.38
246.807	3.99
247.189	4.57
247.571	2.55
247.953	3.16
248.335	3.53
248.717	3.19
249.098	3.33
249.48	3.1
249.862	3.6
250.243	3.43
250.625	3.89
251.006	3.2
251.388	3.76
251.769	3.79
252.151	4.67
252.532	4.48
252.913	3.44
253.295	3.87
253.676	4.16
254.057	3.32
254.438	3.61
254.819	3.21
255.2	2.95
255.581	2.81
255.962	3.33
256.343	4.14
256.724	4.17
257.105	3.67
257.486	3.39
257.867	3.97
258.247	2.86
258.628	4.25
259.009	4.58
259.389	3.46
259.77	2.94
260.15	3.86
260.531	3.02
260.911	2.85
261.292	3.24
261.672	3.31
262.052	3.25
262.432	3.28
262.813	3.71
263.193	3.16
263.573	3.4
263.953	3.19
264.333	2.97
264.713	4.05
265.093	3.12
265.473	3.53
265.853	3.26
266.233	3.13
266.612	3.87
266.992	3.24
267.372	4.08
267.752	3.77
268.131	3.06
268.511	3.23
268.89	3.75
269.27	3.91
269.649	3.57
270.029	3.75
270.408	3.12
270.787	2.89
271.167	2.7
271.546	3.59
271.925	3.43
272.304	2.66
272.683	3.61
273.062	2.71
273.441	2.93
273.82	3.35
274.199	3.39
274.578	3.24
274.957	3.48
275.336	2.8
275.715	2.79
276.093	3.68
276.472	3.56
276.851	4.3
277.229	3.36
277.608	3.43
277.986	3.41
278.365	3.06
278.743	3.36
279.122	2.96
279.5	3.81
279.878	3.49
280.257	2.97
280.635	3.46
281.013	2.93
281.391	3.2
281.769	3.36
282.147	3.41
282.525	3
282.903	3.6
283.281	3.11
283.659	2.76
284.037	2.93
284.415	2.97
284.792	3.63
285.17	3.69
285.548	3.35
285.925	3.08
286.303	3.21
286.68	2.9
287.058	3.41
287.435	3.21
287.813	3.51
288.19	3.02
288.567	3.1
288.945	3.31
289.322	3.16
289.699	3.13
290.076	3.26
290.453	3.68
290.83	3.93
291.207	3.41
291.584	3.37
291.961	3.23
292.338	3.21
292.715	3.7
293.092	3.48
293.469	3.79
293.845	4.01
294.222	3.74
294.599	3.59
294.975	3.18
295.352	3.59
295.728	3.73
296.105	3.56
296.481	3.36
296.858	3.96
297.234	3.9
297.61	4.01
297.986	4.36
298.363	3.98
298.739	4.17
299.115	4.02
299.491	4.27
299.867	4.14
300.243	4.22
300.619	4.26
300.995	4.41
301.371	4.36
301.746	3.8
302.122	4.2
302.498	4.94
302.874	4.53
303.249	4.53
303.625	4.45
304	5.14
304.376	4.85
304.751	4.83
305.127	4.76
305.502	4.92
305.878	4.68
306.253	4.86
306.628	4.95
307.003	5.31
307.378	4.76
307.754	4.91
308.129	5.23
308.504	5.1
308.879	4.94
309.254	5.93
309.629	5.75
310.003	5.56
310.378	5.03
310.753	5.54
311.128	5.2
311.502	5.42
311.877	5.47
312.252	5.76
312.626	5.87
313.001	5.81
313.375	5.78
313.75	5.8
314.124	6.04
314.498	5.8
314.873	6.03
315.247	6.09
315.621	5.93
315.995	6.48
316.369	6.45
316.743	6.16
317.117	6.44
317.491	6.5
317.865	6.48
318.239	6.76
318.613	6.13
318.987	7.16
319.361	7.29
319.734	6.66
320.108	6.27
320.482	6.5
320.855	6.97
321.229	6.79
321.602	6.65
321.976	7.56
322.349	6.92
322.723	7.21
323.096	7.51
323.469	7.17
323.843	8.05
324.216	7.34
324.589	8.2
324.962	6.73
325.335	7.77
325.708	7.46
326.081	7.9
326.454	7.62
326.827	7.62
327.2	6.77
327.573	7.4
327.945	7.8
328.318	8.08
328.691	7.45
329.063	7.69
329.436	7.73
329.809	7.46
330.181	8.12
330.553	8.54
330.926	7.86
331.298	8.12
331.671	8.22
332.043	8.51
332.415	8.55
332.787	8.57
333.159	7.98
333.532	8.21
333.904	8.42
334.276	8.46
334.648	9.09
335.02	8.32
335.391	8.49
335.763	8.78
336.135	8.98
336.507	8.97
336.879	8.8
337.25	8.59
337.622	8.59
337.993	9.1
338.365	8.33
338.736	8.45
339.108	9
339.479	8.67
339.851	8.67
340.222	8.95
340.593	8.72
340.964	9.32
341.336	9.04
341.707	9.18
342.078	9.3
342.449	9.22
342.82	8.83
343.191	8.89
343.562	9.24
343.933	9.02
344.303	8.77
344.674	9.4
345.045	9.6
345.416	9.18
345.786	9.43
346.157	9.67
346.527	9.42
346.898	9.91
347.268	9.69
347.639	9.54
348.009	9.63
348.38	9.07
348.75	9.7
349.12	10.02
349.49	9.75
349.861	9.61
350.231	9.55
350.601	10.3
350.971	9.77
351.341	9.62
351.711	9.88
352.081	9.56
352.45	10.3
352.82	9.5
353.19	9.85
353.56	10.19
353.929	9.95
354.299	10.41
354.669	10.19
355.038	10.23
355.408	10.21
355.777	10.04
356.147	10.43
356.516	9.85
356.885	10.43
357.254	10.39
357.624	10.41
357.993	10.49
358.362	10.58
358.731	10.35
359.1	10.88
359.469	10.51
359.838	10.14
360.207	10.56
360.576	10.89
360.945	11.2
361.314	10.88
361.682	11.08
362.051	10.6
362.42	10.51
362.788	10.62
363.157	11.09
363.525	10.59
363.894	10.9
364.262	10.76
364.631	10.82
364.999	10.93
365.367	11.39
365.735	11.21
366.104	10.94
366.472	11.19
366.84	10.96
367.208	11
367.576	11.8
367.944	11.32
368.312	11.31
368.68	11.63
369.048	11.63
369.416	11.16
369.783	11.27
370.151	11.84
370.519	12.09
370.886	11.64
371.254	11.81
371.621	11.91
371.989	11.8
372.356	11.91
372.724	12.25
373.091	12.38
373.458	11.73
373.826	11.88
374.193	11.95
374.56	12.32
374.927	12.27
375.294	12.2
375.661	12.11
376.028	12.27
376.395	12.15
376.762	12.45
377.129	12.53
377.496	12.2
377.863	12.41
378.229	12.37
378.596	12.33
378.963	12.72
379.329	12.21
379.696	12.5
380.062	12.24
380.429	12.48
380.795	12.92
381.161	12.44
381.528	13.12
381.894	12.9
382.26	12.84
382.626	12.72
382.993	12.86
383.359	12.91
383.725	13.05
384.091	12.9
384.457	12.75
384.823	13.42
385.188	12.92
385.554	13.12
385.92	13.1
386.286	13
386.651	13.2
387.017	13.19
387.383	13.02
387.748	13.22
388.114	13.47
388.479	13.27
388.845	13.48
389.21	13.57
389.575	13.61
389.94	13.46
390.306	13.69
390.671	13.89
391.036	13.84
391.401	13.79
391.766	13.76
392.131	13.77
392.496	14.12
392.861	14.16
393.226	13.85
393.591	13.89
393.956	13.79
394.32	14.07
394.685	13.81
395.05	14.05
395.414	14.28
395.779	14.07
396.143	13.95
396.508	14.04
396.872	14.04
397.236	14.17
397.601	14.2
397.965	14.39
398.329	14.29
398.694	14.2
399.058	14.33
399.422	14.37
399.786	14.21
400.15	14.45
400.514	14.66
400.878	14.69
401.242	14.66
401.605	14.78
401.969	14.56
402.333	14.77
402.697	14.62
403.06	14.36
403.424	14.59
403.787	14.71
404.151	14.87
404.514	14.63
404.878	14.81
405.241	14.88
405.604	15.06
405.968	15.18
406.331	14.99
406.694	14.88
407.057	15.03
407.42	15.09
407.783	15.1
408.146	15.21
408.509	15.14
408.872	15.26
409.235	15.29
409.598	15.03
409.961	15.21
410.323	15.55
410.686	15.24
411.049	15.57
411.411	15.49
411.774	15.46
412.136	15.36
412.499	15.56
412.861	15.28
413.223	15.61
413.586	15.68
413.948	15.53
414.31	15.56
414.672	15.51
415.035	15.79
415.397	15.91
415.759	15.85
416.121	15.67
416.483	15.76
416.845	15.97
417.206	15.94
417.568	16.1
417.93	16.43
418.292	16.02
418.653	15.79
419.015	15.78
419.377	16.16
419.738	16.2
420.1	15.88
420.461	15.99
420.822	16.13
421.184	16.16
421.545	16.24
421.906	16.02
422.267	16.16
422.629	16.05
422.99	16.06
423.351	16.01
423.712	16.1
424.073	16.19
424.434	16.28
424.795	16.45
425.155	16.57
425.516	16.42
425.877	16.24
426.238	16.56
426.598	16.49
426.959	16.47
427.32	16.72
427.68	16.73
428.041	16.66
428.401	16.77
428.761	16.99
429.122	16.88
429.482	17.16
429.842	17.33
430.202	17.08
430.563	17.05
430.923	17.4
431.283	17.4
431.643	17.43
432.003	17.7
432.363	17.3
432.722	17.43
433.082	17.51
433.442	17.58
433.802	17.56
434.161	17.75
434.521	17.42
434.881	17.54
435.24	17.57
435.6	17.61
435.959	17.59
436.319	17.41
436.678	17.85
437.037	17.93
437.396	17.82
437.756	17.76
438.115	18.06
438.474	18.04
438.833	17.93
439.192	18.01
439.551	18.34
439.91	18.23
440.269	18.13
440.628	17.93
440.987	18.19
441.345	18.19
441.704	18.36
442.063	18.37
442.421	18.21
442.78	18.14
443.138	18.18
443.497	18.14
443.855	18.44
444.214	18.5
444.572	18.38
444.93	18.82
445.288	18.64
445.647	18.9
446.005	18.51
446.363	18.75
446.721	18.68
447.079	18.64
447.437	18.58
447.795	18.54
448.153	18.77
448.51	18.64
448.868	18.6
449.226	18.56
449.584	18.85
449.941	18.94
450.299	18.79
450.656	19.04
451.014	19.17
451.371	19.18
451.729	19.27
452.086	19.34
452.443	19.51
452.801	19.36
453.158	19.43
453.515	19.3
453.872	19.48
454.229	19.45
454.586	19.51
454.943	19.51
455.3	19.65
455.657	19.74
456.014	19.83
456.371	19.77
456.727	19.88
457.084	19.89
457.441	19.98
457.797	20.07
458.154	20.05
458.51	20.13
458.867	19.88
459.223	20.05
459.58	20.04
459.936	20.35
460.292	20.1
460.648	20.19
461.005	20.01
461.361	20.1
461.717	19.86
462.073	20
462.429	19.98
462.785	20.31
463.141	20.41
463.496	20.5
463.852	20.43
464.208	20.69
464.564	20.61
464.919	20.78
465.275	20.61
465.631	20.68
465.986	21.01
466.342	20.94
466.697	20.87
467.052	20.99
467.408	21.11
467.763	21.14
468.118	21.02
468.473	21.21
468.829	21.29
469.184	21.27
469.539	21.37
469.894	21.11
470.249	21.3
470.603	21.16
470.958	21.44
471.313	21.38
471.668	21.6
472.023	21.65
472.377	21.52
472.732	21.49
473.086	21.62
473.441	21.71
473.795	21.83
474.15	21.87
474.504	21.76
474.859	21.88
475.213	21.78
475.567	21.76
475.921	21.96
476.275	21.92
476.63	22.03
476.984	21.91
477.338	21.87
477.692	21.94
478.045	21.93
478.399	22.05
478.753	22.05
479.107	22.22
479.461	22.15
479.814	22.25
480.168	22.2
480.521	22.35
480.875	22.34
481.228	22.39
481.582	22.58
481.935	22.44
482.289	22.4
482.642	22.5
482.995	22.6
483.348	22.37
483.701	22.4
484.055	22.34
484.408	22.34
484.761	22.19
485.114	22
485.466	21.67
485.819	21.54
486.172	21.67
486.525	21.78
486.878	21.98
487.23	22.04
487.583	22.28
487.936	22.51
488.288	22.47
488.641	22.42
488.993	22.21
489.345	22.32
489.698	22.19
490.05	22.26
490.402	22.4
490.754	22.53
491.107	22.63
491.459	22.84
491.811	23.03
492.163	23.2
492.515	23.22
492.866	23.14
493.218	22.72
493.57	22.66
493.922	22.72
494.274	22.85
494.625	23.12
494.977	23.4
495.328	23.49
495.68	23.76
496.031	23.88
496.383	23.76
496.734	23.96
497.086	24.09
497.437	24.15
497.788	24.28
498.139	24.12
498.49	23.97
498.842	24.14
499.193	24.12
499.544	24.2
499.894	24.29
500.245	24.4
500.596	24.51
500.947	24.42
501.298	24.52
501.648	24.54
501.999	24.5
502.35	24.69
502.7	24.89
503.051	24.89
503.401	24.79
503.752	24.99
504.102	24.84
504.452	24.88
504.803	25.27
505.153	25.23
505.503	25.28
505.853	25.19
506.203	24.97
506.553	25.05
506.903	25.08
507.253	25.39
507.603	25.26
507.953	25.6
508.303	25.38
508.652	25.39
509.002	25.48
509.352	25.58
509.701	25.4
510.051	25.59
510.4	25.39
510.75	25.4
511.099	25.52
511.449	25.67
511.798	25.61
512.147	25.78
512.496	25.89
512.846	25.89
513.195	25.98
513.544	25.87
513.893	25.74
514.242	25.88
514.591	26.02
514.939	25.87
515.288	26.12
515.637	26.09
515.986	26.19
516.334	26.38
516.683	26.31
517.032	26.37
517.38	26.43
517.729	26.45
518.077	26.38
518.426	26.57
518.774	26.69
519.122	26.44
519.47	26.44
519.819	26.46
520.167	26.34
520.515	26.29
520.863	26.29
521.211	26.42
521.559	26.4
521.907	26.48
522.255	26.62
522.602	26.88
522.95	27.08
523.298	27.09
523.645	27.18
523.993	27.16
524.341	27.23
524.688	27.18
525.036	27.38
525.383	27.23
525.73	27.34
526.078	27.38
526.425	27.44
526.772	27.36
527.119	27.33
527.466	26.95
527.814	27.07
528.161	27
528.508	27.22
528.854	27.08
529.201	27.23
529.548	27.17
529.895	26.94
530.242	26.85
530.588	26.62
530.935	26.7
531.282	26.94
531.628	27.01
531.975	27.11
532.321	27.3
532.667	27.48
533.014	27.57
533.36	27.68
533.706	27.81
534.052	27.78
534.399	28.03
534.745	27.76
535.091	27.48
535.437	27.46
535.783	27.7
536.129	27.84
536.474	27.92
536.82	28.02
537.166	28.25
537.512	28.35
537.857	28.3
538.203	28.27
538.549	28.32
538.894	28.39
539.239	28.44
539.585	28.56
539.93	28.61
540.276	28.79
540.621	29.11
540.966	29.08
541.311	29.08
541.656	29.24
542.001	29.26
542.346	28.93
542.691	28.76
543.036	28.57
543.381	28.42
543.726	28.58
544.071	28.61
544.415	28.67
544.76	28.94
545.105	28.99
545.449	29.03
545.794	29.17
546.138	29.25
546.483	29.47
546.827	29.67
547.171	29.67
547.516	29.7
547.86	29.8
548.204	29.84
548.548	29.67
548.892	29.75
549.236	29.83
549.58	29.97
549.924	30.12
550.268	30.16
550.612	30.37
550.956	30.31
551.3	30.24
551.643	30.68
551.987	30.82
552.33	30.6
552.674	30.85
553.017	30.7
553.361	30.83
553.704	30.69
554.048	30.79
554.391	30.81
554.734	30.66
555.077	30.99
555.42	31.08
555.764	31.07
556.107	31.19
556.45	31.21
556.793	31.29
557.135	31.25
557.478	31.59
557.821	31.47
558.164	31.58
558.507	31.57
558.849	31.52
559.192	31.75
559.534	31.79
559.877	31.92
560.219	31.85
560.562	31.56
560.904	32
561.246	31.96
561.589	32.15
561.931	32.05
562.273	32.01
562.615	31.97
562.957	32.11
563.299	32.07
563.641	31.9
563.983	32.38
564.325	32.27
564.667	32.35
565.008	32.47
565.35	32.63
565.692	32.47
566.033	32.49
566.375	32.81
566.716	32.67
567.058	32.62
567.399	32.78
567.741	32.36
568.082	32.64
568.423	32.41
568.764	32.5
569.105	32.67
569.447	32.79
569.788	32.78
570.129	33.02
570.47	32.88
570.811	32.97
571.151	32.97
571.492	33.22
571.833	33.15
572.174	33.2
572.514	33.04
572.855	33.08
573.195	33.31
573.536	33.15
573.876	33.03
574.217	33.29
574.557	33.12
574.898	33.21
575.238	33.24
575.578	33.43
575.918	33.66
576.258	33.78
576.598	33.59
576.938	33.76
577.278	33.77
577.618	33.53
577.958	33.71
578.298	33.94
578.638	33.88
578.977	34.2
579.317	34.04
579.657	33.98
579.996	34.14
580.336	34.49
580.675	34.31
581.014	34.5
581.354	34.46
581.693	34.71
582.032	34.63
582.372	34.48
582.711	34.68
583.05	34.66
583.389	34.87
583.728	35.01
584.067	34.94
584.406	34.71
584.745	35.14
585.083	34.97
585.422	35.14
585.761	35.34
586.1	35.12
586.438	35.34
586.777	35.22
587.115	35.48
587.454	35.22
587.792	35.47
588.13	35.36
588.469	35.61
588.807	35.59
589.145	35.71
589.483	35.72
589.821	35.55
590.159	35.91
590.497	35.84
590.835	36.13
591.173	35.81
591.511	35.99
591.849	35.84
592.187	35.57
592.524	35.94
592.862	36.15
593.2	35.86
593.537	36.11
593.875	36.43
594.212	36.48
594.55	36.36
594.887	36.46
595.224	36.19
595.561	36.27
595.899	36.31
596.236	36.39
596.573	36.22
596.91	36.41
597.247	36.48
597.584	36.29
597.921	36.45
598.258	36.33
598.594	36.19
598.931	36.14
599.268	36.27
599.604	36.5
599.941	36.45
600.277	36.57
600.614	36.71
600.95	36.85
601.287	36.99
601.623	36.95
601.959	36.97
602.296	37.18
602.632	36.84
602.968	37.14
603.304	37.34
603.64	37.6
603.976	37.28
604.312	37.32
604.648	37.39
604.984	37.37
605.319	37.07
605.655	37.19
605.991	37.27
606.326	37.38
606.662	37.2
606.998	37.28
607.333	37.37
607.668	37.19
608.004	37.53
608.339	37.64
608.674	37.77
609.01	37.8
609.345	37.93
609.68	37.96
610.015	38.12
610.35	37.95
610.685	38.06
611.02	38.01
611.355	37.84
611.689	37.59
612.024	38.04
612.359	38.42
612.694	37.97
613.028	38.15
613.363	38.4
613.697	38.46
614.032	38.36
614.366	38.64
614.7	38.81
615.035	38.89
615.369	38.82
615.703	39.01
616.037	38.79
616.371	38.9
616.705	38.95
617.039	39
617.373	39.04
617.707	39.34
618.041	39.43
618.375	39.26
618.709	39.21
619.042	39.27
619.376	39.29
619.71	39.12
620.043	38.8
620.377	39.35
620.71	39.79
621.043	38.92
621.377	39.09
621.71	39.23
622.043	39.32
622.376	39.67
622.709	39.93
623.043	40
623.376	39.57
623.709	39.75
624.041	39.65
624.374	39.77
624.707	39.85
625.04	40.11
625.373	40.07
625.705	39.95
626.038	39.74
626.37	39.87
626.703	40.29
627.035	40.07
627.368	40.11
627.7	40.45
628.032	40.17
628.365	40.42
628.697	39.85
629.029	40.39
629.361	40.07
629.693	40.3
630.025	40.22
630.357	40.69
630.689	40
631.021	40.53
631.353	40.22
631.684	40.86
632.016	40.59
632.348	41.28
632.679	41.26
633.011	41.06
633.342	40.94
633.674	40.82
634.005	40.83
634.336	41.4
634.668	41.09
634.999	41.32
635.33	41.16
635.661	40.88
635.992	41.13
636.323	41.34
636.654	41.1
636.985	41.23
637.316	41.17
637.647	41.12
637.977	41.98
638.308	41.64
638.639	41.25
638.969	41.75
639.3	41.65
639.63	41.93
639.961	42.08
640.291	42.05
640.622	41.66
640.952	42.02
641.282	42.1
641.612	42.27
641.943	41.21
642.273	41.22
642.603	42.31
642.933	42.1
643.263	42.41
643.592	42.01
643.922	41.81
644.252	42.16
644.582	42.18
644.911	42.45
645.241	41.98
645.571	42.31
645.9	42.65
646.23	41.89
646.559	42.6
646.888	42.26
647.218	42.78
647.547	42.2
647.876	42.48
648.205	42.35
648.534	42.97
648.863	42.96
649.192	42.84
649.521	42.99
649.85	42.92
650.179	42.86
650.508	42.95
650.837	42.57
651.165	42.59
651.494	42.82
651.822	42.85
652.151	43.13
652.479	42.51
652.808	43.03
653.136	43.21
653.465	43.13
653.793	43.01
654.121	43.19
654.449	43.62
654.777	43.79
655.105	43.64
655.433	43.8
655.761	43.75
656.089	43.61
656.417	44.08
656.745	43.92
657.073	44.36
657.4	43.84
657.728	43.69
658.056	43.62
658.383	43.35
658.711	43.94
659.038	43.55
659.365	43.81
659.693	43.76
660.02	43.93
660.347	44.15
660.674	43.72
661.001	44.02
661.329	44.02
661.656	43.95
661.982	43.64
662.309	44.24
662.636	44.33
662.963	44.88
663.29	44.62
663.616	44.03
663.943	44.95
664.27	44.47
664.596	45.52
664.923	44.31
665.249	44.71
665.576	43.49
665.902	44.59
666.228	43.99
666.554	45.39
666.881	44.09
667.207	45.1
667.533	45.39
667.859	44.62
668.185	44.75
668.511	44.2
668.837	45.27
669.162	44.92
669.488	44.79
669.814	44.62
670.139	44.68
670.465	45.42
670.791	44.94
671.116	45.17
