Data from 0005_forehead_Reflection__1__373.txt Node

Date: Thu Dec 15 19:30:49 CST 2022
User: ToomeyLab
Spectrometer: FLMS14357
Trigger mode: 0
Integration Time (sec): 1.000000E-2
Scans to average: 100
Electric dark correction enabled: true
Nonlinearity correction enabled: false
Boxcar width: 0
XAxis mode: Wavelengths
Number of Pixels in Spectrum: 2048
>>>>>Begin Spectral Data<<<<<
189.047	-34.19
189.435	-34.19
189.823	-34.19
190.211	-32.98
190.599	96.03
190.987	400.63
191.375	50.67
191.763	15.84
192.151	-69.96
192.538	-77.83
192.926	-23.46
193.314	856.33
193.702	82.79
194.089	-417.08
194.477	-9.56
194.864	364.26
195.252	54.15
195.639	78.64
196.027	-867.86
196.414	517.19
196.801	3.64
197.189	523.81
197.576	-82.38
197.963	-123.63
198.351	-20.69
198.738	-97.99
199.125	-32.48
199.512	5.58
199.899	-56.36
200.286	-49.32
200.673	46.75
201.06	-15.98
201.447	10.83
201.833	-13.73
202.22	44.18
202.607	-5.89
202.994	96.38
203.38	2.35
203.767	-2.64
204.154	-5
204.54	14.74
204.927	-32.71
205.313	24.27
205.699	11.35
206.086	12.17
206.472	0.6
206.858	-0.73
207.245	-27.26
207.631	-5.07
208.017	26.54
208.403	-61.44
208.789	37.75
209.175	-5.51
209.561	-67.06
209.947	-9.7
210.333	2.53
210.719	-8.3
211.105	28.99
211.491	4.29
211.876	0.86
212.262	20.94
212.648	1.15
213.034	6.52
213.419	24.66
213.805	-13.81
214.19	5.21
214.576	-51.72
214.961	12.12
215.346	-37.7
215.732	-7.93
216.117	-36.44
216.502	-6.78
216.888	-9.94
217.273	6.8
217.658	-5.21
218.043	-21.62
218.428	-52.34
218.813	20.4
219.198	-11.73
219.583	-2.72
219.968	12.66
220.353	13.68
220.738	-2.35
221.122	-7.54
221.507	-12.05
221.892	-33.9
222.276	-21.03
222.661	-8.98
223.046	-2.18
223.43	0.78
223.815	4.71
224.199	11.05
224.583	2.55
224.968	-0.74
225.352	-8.43
225.736	-3.31
226.121	-1.59
226.505	1.78
226.889	-0.46
227.273	0.06
227.657	3.4
228.041	4.46
228.425	1.6
228.809	1.3
229.193	3.98
229.577	2.85
229.961	2.19
230.344	4.11
230.728	4.35
231.112	4.58
231.495	2.32
231.879	3.59
232.263	4.48
232.646	3.49
233.03	5.41
233.413	4.07
233.797	1.94
234.18	2.98
234.563	3.69
234.946	2.04
235.33	4.62
235.713	3.94
236.096	3.42
236.479	3.86
236.862	3.4
237.245	3.43
237.628	4.78
238.011	3.7
238.394	1.68
238.777	5.07
239.16	4.93
239.543	4.4
239.925	4.57
240.308	3.56
240.691	3.51
241.073	3.69
241.456	3.86
241.838	2.76
242.221	3.81
242.603	3.69
242.986	3.43
243.368	3.92
243.75	3.83
244.133	4.31
244.515	3.83
244.897	3.72
245.279	3.9
245.661	3.91
246.043	3.68
246.425	3.88
246.807	3.62
247.189	3.47
247.571	4.2
247.953	4.07
248.335	4.08
248.717	4.11
249.098	3.84
249.48	3.69
249.862	4.19
250.243	3.87
250.625	4.27
251.006	4.47
251.388	3.83
251.769	3.74
252.151	4
252.532	4.01
252.913	3.07
253.295	3.6
253.676	3.98
254.057	3.53
254.438	3.96
254.819	3.94
255.2	4.45
255.581	4.04
255.962	4.1
256.343	3.63
256.724	4.44
257.105	3.74
257.486	2.34
257.867	3.46
258.247	3.39
258.628	4.2
259.009	4.11
259.389	3.55
259.77	3.52
260.15	4.26
260.531	3.76
260.911	3.77
261.292	3.89
261.672	3.83
262.052	3.99
262.432	3.81
262.813	3.91
263.193	3.52
263.573	4.01
263.953	3.54
264.333	3.54
264.713	3.77
265.093	3.48
265.473	4.82
265.853	3.89
266.233	4.25
266.612	3.75
266.992	3.51
267.372	3.55
267.752	4.05
268.131	3.86
268.511	3.64
268.89	4.38
269.27	3.43
269.649	3.59
270.029	3.85
270.408	3.59
270.787	4.01
271.167	3.94
271.546	4.3
271.925	3.67
272.304	3.65
272.683	3.68
273.062	3.86
273.441	3.62
273.82	4
274.199	3.69
274.578	3.99
274.957	3.82
275.336	3.72
275.715	3.88
276.093	3.62
276.472	3.66
276.851	3.44
277.229	3.52
277.608	3.21
277.986	3.52
278.365	4.1
278.743	3.74
279.122	3.5
279.5	3.54
279.878	3.57
280.257	3.79
280.635	3.83
281.013	3.4
281.391	3.54
281.769	3.64
282.147	3.51
282.525	3.27
282.903	3.52
283.281	4.05
283.659	3.79
284.037	3.67
284.415	3.4
284.792	3.98
285.17	4.07
285.548	4.06
285.925	3.68
286.303	4.28
286.68	3.78
287.058	3.99
287.435	3.5
287.813	3.88
288.19	3.39
288.567	3.27
288.945	3.48
289.322	4.07
289.699	3.82
290.076	3.74
290.453	3.49
290.83	3.85
291.207	3.76
291.584	4.23
291.961	3.9
292.338	3.42
292.715	3.91
293.092	4.26
293.469	4.19
293.845	4.17
294.222	4.31
294.599	3.38
294.975	3.32
295.352	4.43
295.728	3.94
296.105	3.72
296.481	4.06
296.858	3.9
297.234	3.65
297.61	4.35
297.986	4.53
298.363	4.22
298.739	4.22
299.115	4.15
299.491	4.54
299.867	4.03
300.243	3.94
300.619	4.08
300.995	4.01
301.371	4.52
301.746	4.78
302.122	4.09
302.498	4.21
302.874	4.79
303.249	4.38
303.625	4.01
304	4.62
304.376	4.47
304.751	4.06
305.127	4.04
305.502	4.39
305.878	4.5
306.253	4.07
306.628	4.83
307.003	4.08
307.378	4.05
307.754	4.7
308.129	4.29
308.504	4.56
308.879	4.53
309.254	4.86
309.629	4.86
310.003	4.67
310.378	4.76
310.753	4.72
311.128	4.45
311.502	5.04
311.877	4.74
312.252	4.88
312.626	5.04
313.001	4.67
313.375	4.97
313.75	5.08
314.124	5.29
314.498	5.15
314.873	4.86
315.247	4.68
315.621	5.05
315.995	5.01
316.369	4.6
316.743	4.56
317.117	4.55
317.491	4.99
317.865	4.68
318.239	5.61
318.613	4.74
318.987	4.48
319.361	5.19
319.734	4.98
320.108	4.75
320.482	4.98
320.855	4.98
321.229	5.06
321.602	5.14
321.976	4.96
322.349	5.85
322.723	5.1
323.096	5.38
323.469	5.1
323.843	5.18
324.216	5.7
324.589	5.44
324.962	5.22
325.335	5.27
325.708	5.5
326.081	5.78
326.454	5.42
326.827	5.27
327.2	4.99
327.573	6.15
327.945	5.22
328.318	5.37
328.691	5.57
329.063	5.34
329.436	5.17
329.809	5.45
330.181	6.14
330.553	5.84
330.926	5.85
331.298	5.42
331.671	5.58
332.043	6.28
332.415	5.53
332.787	5.79
333.159	5.54
333.532	5.84
333.904	5.49
334.276	5.63
334.648	5.93
335.02	5.87
335.391	5.95
335.763	5.83
336.135	5.98
336.507	5.83
336.879	6.25
337.25	5.67
337.622	5.89
337.993	5.99
338.365	6.3
338.736	5.83
339.108	5.99
339.479	5.69
339.851	6.2
340.222	6.42
340.593	6.07
340.964	6.13
341.336	5.64
341.707	6.12
342.078	6.02
342.449	6.21
342.82	6.54
343.191	6.39
343.562	6.69
343.933	6.43
344.303	6.54
344.674	6.3
345.045	6.46
345.416	6.84
345.786	6.29
346.157	6.97
346.527	6.12
346.898	6.08
347.268	6.67
347.639	6.51
348.009	6.47
348.38	6.45
348.75	6.79
349.12	6.86
349.49	6.79
349.861	6.43
350.231	7.14
350.601	7.03
350.971	6.7
351.341	6.79
351.711	6.93
352.081	6.44
352.45	6.49
352.82	6.43
353.19	6.94
353.56	7.27
353.929	7.24
354.299	7.15
354.669	7.37
355.038	7.42
355.408	7.32
355.777	7.25
356.147	6.84
356.516	7.21
356.885	7.36
357.254	6.74
357.624	6.81
357.993	7.13
358.362	7.19
358.731	7.59
359.1	7.24
359.469	7.23
359.838	7.45
360.207	7.26
360.576	7.47
360.945	7.14
361.314	7.31
361.682	7.18
362.051	7.27
362.42	7.5
362.788	7.28
363.157	7.22
363.525	7.43
363.894	7.42
364.262	7.78
364.631	7.78
364.999	7.67
365.367	7.68
365.735	7.32
366.104	7.49
366.472	7.52
366.84	7.92
367.208	7.84
367.576	8.01
367.944	7.89
368.312	7.72
368.68	8.21
369.048	8
369.416	7.88
369.783	7.87
370.151	8.34
370.519	8.36
370.886	8.03
371.254	7.85
371.621	8.37
371.989	8.32
372.356	7.94
372.724	8.18
373.091	8.02
373.458	8.13
373.826	8.47
374.193	8.57
374.56	8.14
374.927	8.41
375.294	8.12
375.661	8.47
376.028	8.18
376.395	8.32
376.762	8.43
377.129	8.34
377.496	8.5
377.863	8.56
378.229	8.85
378.596	8.72
378.963	8.78
379.329	8.8
379.696	8.5
380.062	8.81
380.429	8.46
380.795	8.95
381.161	8.57
381.528	8.43
381.894	8.79
382.26	8.67
382.626	8.72
382.993	9.05
383.359	8.99
383.725	8.72
384.091	9.18
384.457	8.94
384.823	9.06
385.188	9.03
385.554	9.09
385.92	8.88
386.286	9.2
386.651	9.01
387.017	9.38
387.383	9.07
387.748	9.17
388.114	9.37
388.479	9.28
388.845	9.24
389.21	9.44
389.575	9.51
389.94	9.8
390.306	9.33
390.671	9.68
391.036	9.49
391.401	9.83
391.766	9.49
392.131	9.81
392.496	9.73
392.861	9.63
393.226	9.36
393.591	9.71
393.956	9.53
394.32	9.68
394.685	9.85
395.05	9.7
395.414	9.87
395.779	10.14
396.143	9.75
396.508	9.93
396.872	9.79
397.236	10.03
397.601	10.04
397.965	10.24
398.329	10.07
398.694	10.17
399.058	10.1
399.422	10.06
399.786	10.06
400.15	10.19
400.514	10.15
400.878	10.02
401.242	10.33
401.605	10.38
401.969	10.16
402.333	10.28
402.697	10.6
403.06	10.25
403.424	10.32
403.787	10.44
404.151	10.65
404.514	10.62
404.878	10.36
405.241	10.46
405.604	10.52
405.968	10.43
406.331	10.52
406.694	10.79
407.057	10.66
407.42	10.6
407.783	10.87
408.146	10.79
408.509	10.84
408.872	10.87
409.235	11.08
409.598	10.97
409.961	10.88
410.323	11.1
410.686	10.87
411.049	11.08
411.411	11.03
411.774	11.02
412.136	11.03
412.499	11.22
412.861	11.08
413.223	11.08
413.586	11.29
413.948	11.43
414.31	11.29
414.672	11.35
415.035	11.49
415.397	11.09
415.759	11.04
416.121	11.69
416.483	11.47
416.845	11.5
417.206	11.41
417.568	11.29
417.93	11.3
418.292	11.31
418.653	11.18
419.015	11.41
419.377	11.47
419.738	11.47
420.1	11.38
420.461	11.42
420.822	11.6
421.184	11.41
421.545	11.55
421.906	11.46
422.267	11.5
422.629	11.45
422.99	11.56
423.351	11.48
423.712	11.59
424.073	11.72
424.434	11.69
424.795	11.81
425.155	11.73
425.516	11.63
425.877	11.76
426.238	11.73
426.598	11.83
426.959	11.89
427.32	11.9
427.68	12
428.041	12.08
428.401	11.98
428.761	12.2
429.122	12.2
429.482	12.49
429.842	12.28
430.202	12.47
430.563	12.35
430.923	12.56
431.283	12.47
431.643	12.81
432.003	12.73
432.363	12.67
432.722	12.54
433.082	12.51
433.442	12.71
433.802	12.56
434.161	12.6
434.521	12.73
434.881	12.76
435.24	12.73
435.6	12.89
435.959	12.88
436.319	13.06
436.678	13.04
437.037	13
437.396	13.02
437.756	12.93
438.115	12.99
438.474	13.12
438.833	13.09
439.192	13.01
439.551	13.11
439.91	13.19
440.269	13.14
440.628	13.05
440.987	13.18
441.345	13.03
441.704	13.1
442.063	13.16
442.421	13.09
442.78	13.14
443.138	13.27
443.497	13.22
443.855	13.37
444.214	13.2
444.572	13.74
444.93	13.56
445.288	13.63
445.647	13.51
446.005	13.69
446.363	13.58
446.721	13.56
447.079	13.56
447.437	13.54
447.795	13.53
448.153	13.6
448.51	13.52
448.868	13.6
449.226	13.67
449.584	13.73
449.941	13.99
450.299	13.79
450.656	13.94
451.014	14.13
451.371	14.18
451.729	14.19
452.086	14.16
452.443	14.37
452.801	14.27
453.158	14.36
453.515	14.1
453.872	14.23
454.229	14.27
454.586	14.2
454.943	14.37
455.3	14.55
455.657	14.41
456.014	14.42
456.371	14.68
456.727	14.48
457.084	14.94
457.441	14.77
457.797	14.74
458.154	14.66
458.51	14.66
458.867	14.83
459.223	14.86
459.58	14.62
459.936	14.82
460.292	14.75
460.648	14.56
461.005	14.71
461.361	14.62
461.717	14.55
462.073	14.87
462.429	14.93
462.785	15.25
463.141	15.03
463.496	15.26
463.852	15.35
464.208	15.42
464.564	15.24
464.919	15.48
465.275	15.32
465.631	15.62
465.986	15.53
466.342	15.4
466.697	15.47
467.052	15.62
467.408	15.77
467.763	15.65
468.118	15.51
468.473	15.7
468.829	15.7
469.184	15.8
469.539	15.68
469.894	15.78
470.249	15.85
470.603	16.1
470.958	16.15
471.313	15.97
471.668	16.03
472.023	16.15
472.377	15.91
472.732	16.1
473.086	16.08
473.441	16.2
473.795	16.47
474.15	16.27
474.504	16.32
474.859	16.21
475.213	16.4
475.567	16.41
475.921	16.5
476.275	16.4
476.63	16.69
476.984	16.4
477.338	16.57
477.692	16.61
478.045	16.41
478.399	16.42
478.753	16.63
479.107	16.58
479.461	16.88
479.814	16.7
480.168	16.72
480.521	16.8
480.875	16.83
481.228	16.8
481.582	17.01
481.935	17.03
482.289	16.98
482.642	16.94
482.995	16.77
483.348	16.81
483.701	16.82
484.055	16.7
484.408	16.54
484.761	16.4
485.114	16.15
485.466	16.18
485.819	16.19
486.172	16.35
486.525	16.47
486.878	16.69
487.23	16.8
487.583	16.87
487.936	16.87
488.288	16.79
488.641	16.73
488.993	16.67
489.345	16.64
489.698	16.78
490.05	16.86
490.402	16.95
490.754	17.15
491.107	17.29
491.459	17.44
491.811	17.57
492.163	17.46
492.515	17.38
492.866	17.15
493.218	17.08
493.57	17.23
493.922	17.38
494.274	17.55
494.625	17.83
494.977	17.87
495.328	18.01
495.68	18.19
496.031	18.13
496.383	18.14
496.734	18.38
497.086	18.34
497.437	18.28
497.788	18.4
498.139	18.37
498.49	18.26
498.842	18.44
499.193	18.4
499.544	18.4
499.894	18.52
500.245	18.65
500.596	18.81
500.947	18.81
501.298	18.82
501.648	18.81
501.999	18.93
502.35	18.87
502.7	19.04
503.051	19.09
503.401	19.26
503.752	19.01
504.102	19.32
504.452	19.17
504.803	19.16
505.153	19.33
505.503	19.18
505.853	19.35
506.203	19.43
506.553	19.48
506.903	19.28
507.253	19.72
507.603	19.46
507.953	19.59
508.303	19.6
508.652	19.58
509.002	19.7
509.352	19.64
509.701	19.55
510.051	19.74
510.4	19.73
510.75	19.59
511.099	19.62
511.449	19.76
511.798	19.77
512.147	19.79
512.496	19.76
512.846	19.9
513.195	20.07
513.544	19.98
513.893	19.94
514.242	19.96
514.591	19.98
514.939	20.19
515.288	20.29
515.637	20.18
515.986	20.33
516.334	20.36
516.683	20.38
517.032	20.51
517.38	20.5
517.729	20.52
518.077	20.56
518.426	20.67
518.774	20.58
519.122	20.49
519.47	20.41
519.819	20.34
520.167	20.26
520.515	20.33
520.863	20.42
521.211	20.46
521.559	20.56
521.907	20.67
522.255	20.89
522.602	21.1
522.95	21.16
523.298	21.19
523.645	21.15
523.993	21.14
524.341	21.25
524.688	21.31
525.036	21.3
525.383	21.23
525.73	21.28
526.078	21.32
526.425	21.27
526.772	21.06
527.119	21.14
527.466	21.02
527.814	21.17
528.161	21.23
528.508	21.36
528.854	21.26
529.201	21.15
529.548	20.89
529.895	20.65
530.242	20.79
530.588	20.85
530.935	20.93
531.282	21.05
531.628	21.23
531.975	21.3
532.321	21.59
532.667	21.67
533.014	21.75
533.36	21.7
533.706	21.78
534.052	21.79
534.399	21.67
534.745	21.41
535.091	21.5
535.437	21.76
535.783	21.71
536.129	22.03
536.474	22.2
536.82	22.38
537.166	22.3
537.512	22.39
537.857	22.25
538.203	22.26
538.549	22.22
538.894	22.3
539.239	22.52
539.585	22.7
539.93	22.76
540.276	22.66
540.621	22.92
540.966	23.04
541.311	22.99
541.656	22.81
542.001	22.69
542.346	22.49
542.691	22.4
543.036	22.14
543.381	22.36
543.726	22.56
544.071	22.63
544.415	22.81
544.76	22.88
545.105	22.89
545.449	23.09
545.794	23.28
546.138	23.3
546.483	23.35
546.827	23.4
547.171	23.61
547.516	23.48
547.86	23.63
548.204	23.68
548.548	23.56
548.892	23.6
549.236	23.6
549.58	23.86
549.924	24.15
550.268	24.03
550.612	24.13
550.956	24.35
551.3	24.53
551.643	24.44
551.987	24.53
552.33	24.6
552.674	24.66
553.017	24.71
553.361	24.64
553.704	24.77
554.048	24.5
554.391	24.66
554.734	24.6
555.077	24.71
555.42	24.73
555.764	24.7
556.107	24.97
556.45	25.08
556.793	25.04
557.135	25.18
557.478	25.28
557.821	25.21
558.164	25.31
558.507	25.21
558.849	25.42
559.192	25.33
559.534	25.41
559.877	25.47
560.219	25.41
560.562	25.48
560.904	25.66
561.246	25.6
561.589	25.83
561.931	25.62
562.273	25.77
562.615	25.85
562.957	25.72
563.299	25.79
563.641	25.72
563.983	25.75
564.325	25.88
564.667	25.97
565.008	26.11
565.35	25.93
565.692	26.12
566.033	26.09
566.375	26.03
566.716	26.22
567.058	26.02
567.399	26.01
567.741	26.14
568.082	26.07
568.423	26.2
568.764	26.3
569.105	26.38
569.447	26.57
569.788	26.49
570.129	26.42
570.47	26.67
570.811	26.58
571.151	26.73
571.492	26.7
571.833	26.56
572.174	26.77
572.514	26.83
572.855	26.79
573.195	26.42
573.536	26.8
573.876	26.76
574.217	26.72
574.557	26.72
574.898	27.01
575.238	26.94
575.578	26.96
575.918	26.86
576.258	27.28
576.598	27.14
576.938	27.16
577.278	27.33
577.618	27.21
577.958	27.5
578.298	27.32
578.638	27.5
578.977	27.56
579.317	27.72
579.657	27.66
579.996	27.97
580.336	28
580.675	27.87
581.014	28.22
581.354	27.92
581.693	28.23
582.032	28.12
582.372	28.03
582.711	28.4
583.05	28.14
583.389	28.5
583.728	28.68
584.067	28.21
584.406	28.46
584.745	28.31
585.083	28.57
585.422	28.42
585.761	28.69
586.1	28.84
586.438	28.72
586.777	28.59
587.115	28.97
587.454	28.45
587.792	28.68
588.13	28.99
588.469	28.85
588.807	28.92
589.145	28.93
589.483	28.83
589.821	29.06
590.159	28.89
590.497	29.32
590.835	29.21
591.173	29.17
591.511	29.43
591.849	29.35
592.187	29.28
592.524	29.32
592.862	29.25
593.2	29.18
593.537	29.54
593.875	29.25
594.212	29.64
594.55	29.7
594.887	29.58
595.224	29.71
595.561	29.52
595.899	29.84
596.236	29.82
596.573	29.46
596.91	29.71
597.247	29.51
597.584	29.58
597.921	29.46
598.258	29.78
598.594	29.6
598.931	29.31
599.268	29.78
599.604	29.84
599.941	29.91
600.277	30.01
600.614	29.92
600.95	30.3
601.287	30.05
601.623	30.24
601.959	30.51
602.296	30.53
602.632	30.38
602.968	30.47
603.304	30.46
603.64	30.46
603.976	30.31
604.312	30.59
604.648	30.47
604.984	30.46
605.319	30.46
605.655	30.33
605.991	30.63
606.326	30.47
606.662	30.44
606.998	30.61
607.333	30.63
607.668	30.7
608.004	30.72
608.339	30.79
608.674	31.11
609.01	31.08
609.345	31.11
609.68	30.9
610.015	31.32
610.35	31.29
610.685	31.02
611.02	30.79
611.355	31.06
611.689	31.06
612.024	31.28
612.359	31.36
612.694	31.24
613.028	31.47
613.363	31.56
613.697	31.61
614.032	31.44
614.366	31.5
614.7	31.82
615.035	31.89
615.369	31.73
615.703	31.86
616.037	31.92
616.371	32.11
616.705	31.84
617.039	31.92
617.373	32.24
617.707	31.73
618.041	31.72
618.375	31.86
618.709	32.34
619.042	32.53
619.376	32.09
619.71	32.52
620.043	32.44
620.377	32.55
620.71	32.39
621.043	32.63
621.377	32.64
621.71	32.76
622.043	32.47
622.376	32.62
622.709	33.35
623.043	32.27
623.376	32.71
623.709	32.9
624.041	32.84
624.374	33.31
624.707	32.46
625.04	33.06
625.373	33.23
625.705	32.97
626.038	33.34
626.37	32.93
626.703	33.16
627.035	33.05
627.368	33.26
627.7	33.21
628.032	33.09
628.365	33.15
628.697	33.28
629.029	33.01
629.361	33.16
629.693	33.18
630.025	33.28
630.357	33.66
630.689	33.01
631.021	33.33
631.353	33.34
631.684	33.69
632.016	33.68
632.348	33.75
632.679	33.93
633.011	33.48
633.342	33.32
633.674	33.6
634.005	33.89
634.336	33.7
634.668	33.5
634.999	33.95
635.33	33.78
635.661	33.87
635.992	34
636.323	34.41
636.654	34.23
636.985	34.08
637.316	34.48
637.647	34.3
637.977	34.1
638.308	34.28
638.639	34.51
638.969	34.51
639.3	34.45
639.63	34.27
639.961	34.52
640.291	34.38
640.622	34.97
640.952	34.44
641.282	34.74
641.612	34.97
641.943	34.66
642.273	34.67
642.603	34.48
642.933	34.75
643.263	34.72
643.592	35.9
643.922	34.99
644.252	35.14
644.582	35.27
644.911	35.24
645.241	35.04
645.571	35.36
645.9	34.8
646.23	35.69
646.559	34.56
646.888	35.44
647.218	34.93
647.547	35.37
647.876	34.95
648.205	35.28
648.534	35.53
648.863	35.35
649.192	36
649.521	35.62
649.85	35.5
650.179	35.9
650.508	35.8
650.837	36.03
651.165	35.74
651.494	35.56
651.822	36.14
652.151	35.49
652.479	35.67
652.808	36.01
653.136	35.73
653.465	36.06
653.793	35.93
654.121	36.21
654.449	36.08
654.777	35.81
655.105	36.35
655.433	35.99
655.761	36.11
656.089	36.03
656.417	36.57
656.745	36.64
657.073	36.51
657.4	35.69
657.728	36.22
658.056	36.42
658.383	35.99
658.711	36.38
659.038	36.73
659.365	35.74
659.693	36.02
660.02	36.21
660.347	36.42
660.674	36.56
661.001	36.03
661.329	36.54
661.656	36.06
661.982	36.79
662.309	36.69
662.636	36.84
662.963	36.89
663.29	37.22
663.616	37.03
663.943	37.02
664.27	36.84
664.596	37.23
664.923	36.57
665.249	37.14
665.576	37.12
665.902	36.57
666.228	36.75
666.554	37.5
666.881	36.63
667.207	37.74
667.533	37.62
667.859	36.96
668.185	37.34
668.511	37.43
668.837	37.04
669.162	37.26
669.488	37.16
669.814	36.66
670.139	37.12
670.465	37.87
670.791	37.71
671.116	37.57
671.442	38.07
671.767	37.88
672.092	37.32
672.418	38
672.743	37.45
673.068	36.59
673.393	37.76
673.718	37.31
