Data from 0005_forehead_Reflection__3__375.txt Node

Date: Thu Dec 15 19:31:11 CST 2022
User: ToomeyLab
Spectrometer: FLMS14357
Trigger mode: 0
Integration Time (sec): 1.000000E-2
Scans to average: 100
Electric dark correction enabled: true
Nonlinearity correction enabled: false
Boxcar width: 0
XAxis mode: Wavelengths
Number of Pixels in Spectrum: 2048
>>>>>Begin Spectral Data<<<<<
189.047	-3.54
189.435	-3.54
189.823	-3.54
190.211	21.33
190.599	18.01
190.987	-132.1
191.375	-7.9
191.763	35.86
192.151	8.31
192.538	-76.35
192.926	-69.53
193.314	181.14
193.702	-87.39
194.089	-278.16
194.477	90.58
194.864	528.63
195.252	153.11
195.639	78.34
196.027	-571.1
196.414	296.3
196.801	-39.97
197.189	-116.62
197.576	-52.71
197.963	-496.53
198.351	65.39
198.738	-15.85
199.125	-22.49
199.512	27.14
199.899	-11.53
200.286	6.51
200.673	28.9
201.06	-11.6
201.447	-4.12
201.833	-51.5
202.22	39.29
202.607	30.56
202.994	-2.45
203.38	45.08
203.767	54.83
204.154	45.41
204.54	34.31
204.927	-18.21
205.313	26.63
205.699	44.66
206.086	23.33
206.472	24.13
206.858	17.56
207.245	32.74
207.631	21.13
208.017	37.37
208.403	-24.3
208.789	37.21
209.175	-0.51
209.561	-100.25
209.947	-6.16
210.333	27.48
210.719	53.32
211.105	55.59
211.491	57.8
211.876	10.79
212.262	5.36
212.648	11.44
213.034	8.39
213.419	16.69
213.805	-11.12
214.19	3.16
214.576	-33.96
214.961	28.43
215.346	-10.21
215.732	7.81
216.117	4.01
216.502	-32.68
216.888	-9.24
217.273	7.19
217.658	-28.45
218.043	-39.19
218.428	-27.11
218.813	15.79
219.198	-8.43
219.583	4.71
219.968	-7.43
220.353	-26.68
220.738	0.99
221.122	-6.76
221.507	-3.46
221.892	-13.5
222.276	-29.13
222.661	-2.62
223.046	-6.57
223.43	10.92
223.815	5.55
224.199	-0.8
224.583	0.19
224.968	-1.86
225.352	-3.44
225.736	8.2
226.121	-3.26
226.505	-4.12
226.889	5.12
227.273	-0.78
227.657	6.89
228.041	5.17
228.425	-0.38
228.809	1.13
229.193	5.04
229.577	4.7
229.961	5.71
230.344	5.93
230.728	6.3
231.112	6.22
231.495	5.22
231.879	5.19
232.263	5.73
232.646	5.08
233.03	7.44
233.413	5.29
233.797	6.3
234.18	6.27
234.563	5.4
234.946	5.19
235.33	4.75
235.713	6.94
236.096	7.14
236.479	5.03
236.862	3.97
237.245	4.93
237.628	6.31
238.011	6.41
238.394	5.29
238.777	5.71
239.16	6.03
239.543	6.6
239.925	4.15
240.308	4.75
240.691	4.31
241.073	5.54
241.456	5.73
241.838	4.68
242.221	6.47
242.603	5.57
242.986	5.51
243.368	5.82
243.75	5.79
244.133	6.13
244.515	5.59
244.897	5.7
245.279	5.12
245.661	5.68
246.043	5.25
246.425	6.21
246.807	5.49
247.189	5.82
247.571	5.79
247.953	5.46
248.335	5.54
248.717	5.65
249.098	5.56
249.48	5.42
249.862	5.69
250.243	5.79
250.625	5.67
251.006	5.87
251.388	5.65
251.769	4.98
252.151	5.94
252.532	5.52
252.913	5.96
253.295	5.54
253.676	5.44
254.057	5.67
254.438	5
254.819	6.18
255.2	6.36
255.581	6.07
255.962	6.67
256.343	5.5
256.724	5.32
257.105	5.41
257.486	4.63
257.867	6.44
258.247	5.21
258.628	5.73
259.009	5.4
259.389	4.44
259.77	5.73
260.15	6.22
260.531	5.66
260.911	5.35
261.292	5.62
261.672	5.28
262.052	5.44
262.432	5.04
262.813	5.29
263.193	5.06
263.573	5.26
263.953	5.29
264.333	5.24
264.713	5.11
265.093	5.45
265.473	6.38
265.853	5.93
266.233	5.43
266.612	4.64
266.992	5.03
267.372	5.6
267.752	5.76
268.131	4.74
268.511	5.06
268.89	5.53
269.27	4.89
269.649	5.77
270.029	5.35
270.408	5.14
270.787	4.89
271.167	5.62
271.546	5.83
271.925	5.47
272.304	5.57
272.683	4.93
273.062	5.37
273.441	5.18
273.82	5.43
274.199	5.2
274.578	5.43
274.957	5.13
275.336	5.77
275.715	5.55
276.093	5.01
276.472	4.73
276.851	5.23
277.229	5.11
277.608	5.01
277.986	5.44
278.365	5.4
278.743	4.81
279.122	4.87
279.5	5.14
279.878	4.92
280.257	4.72
280.635	5.17
281.013	4.36
281.391	4.75
281.769	5.52
282.147	5.37
282.525	5.14
282.903	5.15
283.281	5.5
283.659	5.03
284.037	4.83
284.415	4.79
284.792	4.93
285.17	4.84
285.548	5.16
285.925	5.29
286.303	5.52
286.68	5.31
287.058	5.26
287.435	5.16
287.813	5.26
288.19	4.79
288.567	4.99
288.945	5.45
289.322	4.89
289.699	5.73
290.076	5.36
290.453	4.84
290.83	5.49
291.207	5.44
291.584	5.46
291.961	5.3
292.338	5.26
292.715	5.02
293.092	5.31
293.469	4.96
293.845	5.38
294.222	5.72
294.599	4.81
294.975	4.75
295.352	5.43
295.728	5.59
296.105	5.69
296.481	5.87
296.858	5.68
297.234	5.45
297.61	5.54
297.986	5.97
298.363	5.8
298.739	5.91
299.115	5.81
299.491	6.07
299.867	5.35
300.243	5.54
300.619	5.47
300.995	5.64
301.371	5.67
301.746	5.98
302.122	5.39
302.498	6.26
302.874	5.79
303.249	5.77
303.625	5.63
304	5.66
304.376	5.97
304.751	6.5
305.127	5.34
305.502	6.35
305.878	6.08
306.253	5.79
306.628	5.87
307.003	5.72
307.378	6.43
307.754	6.22
308.129	5.7
308.504	6.75
308.879	6.28
309.254	6.31
309.629	6.31
310.003	6.04
310.378	6.33
310.753	6.42
311.128	6.09
311.502	6.01
311.877	6.08
312.252	6.69
312.626	6.53
313.001	6.32
313.375	6.36
313.75	6.53
314.124	6.27
314.498	6.61
314.873	6.44
315.247	6.48
315.621	6.26
315.995	6.62
316.369	6
316.743	6.7
317.117	6.45
317.491	6.55
317.865	6.03
318.239	7.26
318.613	6.27
318.987	6.25
319.361	6.6
319.734	6.36
320.108	6.5
320.482	6.97
320.855	6.65
321.229	6.87
321.602	6.93
321.976	5.91
322.349	7.48
322.723	7.25
323.096	6.85
323.469	6.94
323.843	6.63
324.216	6.57
324.589	7.46
324.962	6.89
325.335	6.82
325.708	6.78
326.081	7.04
326.454	7.17
326.827	7.34
327.2	7.11
327.573	7.51
327.945	6.83
328.318	6.83
328.691	6.83
329.063	6.76
329.436	6.9
329.809	7.44
330.181	7.44
330.553	7.24
330.926	7.89
331.298	7.1
331.671	7.19
332.043	7.38
332.415	7.47
332.787	7.29
333.159	6.95
333.532	7.2
333.904	7.36
334.276	7.64
334.648	7.22
335.02	7.16
335.391	7.04
335.763	7.16
336.135	7.84
336.507	7.09
336.879	7.51
337.25	7.46
337.622	7.63
337.993	7.33
338.365	7.53
338.736	7.14
339.108	7.34
339.479	7.63
339.851	7.83
340.222	8.14
340.593	7.54
340.964	7.38
341.336	7.51
341.707	7.93
342.078	7.3
342.449	7.83
342.82	7.43
343.191	7.32
343.562	7.48
343.933	7.9
344.303	8.04
344.674	7.93
345.045	8.08
345.416	8.38
345.786	8
346.157	8.11
346.527	7.64
346.898	7.92
347.268	8.15
347.639	7.97
348.009	8.21
348.38	7.84
348.75	8.32
349.12	7.84
349.49	8.16
349.861	8.28
350.231	8.32
350.601	7.85
350.971	8.08
351.341	8.16
351.711	8.4
352.081	8.27
352.45	8.09
352.82	7.92
353.19	8.48
353.56	8.2
353.929	8.3
354.299	8.43
354.669	8.45
355.038	8.8
355.408	8.45
355.777	8.84
356.147	8.4
356.516	8.24
356.885	8.56
357.254	8.41
357.624	8.09
357.993	8.56
358.362	8.81
358.731	8.65
359.1	8.4
359.469	8.62
359.838	8.88
360.207	8.78
360.576	8.87
360.945	8.75
361.314	8.81
361.682	8.75
362.051	8.66
362.42	8.76
362.788	8.98
363.157	8.71
363.525	8.73
363.894	8.86
364.262	8.65
364.631	8.94
364.999	8.66
365.367	8.66
365.735	8.59
366.104	8.97
366.472	9.09
366.84	9.31
367.208	9.13
367.576	9.15
367.944	9.38
368.312	9.14
368.68	9.21
369.048	9.26
369.416	9.09
369.783	8.97
370.151	9.62
370.519	9.73
370.886	9.36
371.254	9.53
371.621	9.31
371.989	9.43
372.356	9.42
372.724	9.48
373.091	9.43
373.458	9.41
373.826	9.57
374.193	9.89
374.56	9.86
374.927	9.4
375.294	9.79
375.661	9.69
376.028	9.86
376.395	9.97
376.762	9.79
377.129	9.86
377.496	9.71
377.863	9.85
378.229	10.01
378.596	10
378.963	10.07
379.329	10.03
379.696	9.8
380.062	9.89
380.429	10.13
380.795	10.06
381.161	10.01
381.528	10.3
381.894	10.09
382.26	10.18
382.626	10.13
382.993	10.42
383.359	10.46
383.725	9.99
384.091	10.48
384.457	10.36
384.823	10.38
385.188	10.31
385.554	10.38
385.92	10.47
386.286	10.49
386.651	10.5
387.017	10.33
387.383	10.56
387.748	10.42
388.114	10.88
388.479	10.39
388.845	10.55
389.21	11.05
389.575	11.11
389.94	10.98
390.306	10.97
390.671	10.9
391.036	10.82
391.401	10.97
391.766	11.13
392.131	11.33
392.496	10.95
392.861	10.86
393.226	10.7
393.591	11.1
393.956	11.28
394.32	11.23
394.685	11.06
395.05	11.19
395.414	11.21
395.779	11.11
396.143	11.01
396.508	11.17
396.872	11.19
397.236	11.54
397.601	11.28
397.965	11.35
398.329	11.48
398.694	11.01
399.058	11.37
399.422	11.41
399.786	11.41
400.15	11.49
400.514	11.41
400.878	11.47
401.242	11.5
401.605	11.64
401.969	11.44
402.333	11.41
402.697	11.93
403.06	11.59
403.424	11.92
403.787	11.83
404.151	11.75
404.514	11.99
404.878	11.62
405.241	11.71
405.604	11.77
405.968	11.97
406.331	11.96
406.694	11.86
407.057	11.83
407.42	11.95
407.783	12.04
408.146	12.09
408.509	12.03
408.872	12.05
409.235	12.22
409.598	12.32
409.961	12.47
410.323	12.28
410.686	12.44
411.049	12.39
411.411	12.31
411.774	12.34
412.136	12.39
412.499	12.43
412.861	12.31
413.223	12.41
413.586	12.56
413.948	12.97
414.31	12.46
414.672	12.56
415.035	12.83
415.397	12.57
415.759	12.59
416.121	12.73
416.483	12.89
416.845	12.85
417.206	12.67
417.568	12.66
417.93	12.82
418.292	12.6
418.653	12.67
419.015	12.64
419.377	12.76
419.738	12.8
420.1	12.68
420.461	12.69
420.822	12.91
421.184	12.81
421.545	12.88
421.906	12.89
422.267	12.78
422.629	12.75
422.99	12.83
423.351	12.75
423.712	12.9
424.073	12.97
424.434	13.1
424.795	13.03
425.155	12.94
425.516	12.94
425.877	12.93
426.238	13.13
426.598	13.07
426.959	13.21
427.32	13.3
427.68	13.38
428.041	13.44
428.401	13.4
428.761	13.67
429.122	13.58
429.482	13.63
429.842	13.65
430.202	13.9
430.563	13.83
430.923	14.02
431.283	13.97
431.643	13.9
432.003	13.89
432.363	14.05
432.722	14.01
433.082	13.89
433.442	14.05
433.802	13.93
434.161	13.96
434.521	13.92
434.881	14.02
435.24	13.83
435.6	14.12
435.959	14.18
436.319	14.06
436.678	14.26
437.037	14.27
437.396	14.33
437.756	14.38
438.115	14.36
438.474	14.45
438.833	14.3
439.192	14.38
439.551	14.46
439.91	14.56
440.269	14.58
440.628	14.36
440.987	14.43
441.345	14.49
441.704	14.63
442.063	14.45
442.421	14.71
442.78	14.64
443.138	14.63
443.497	14.73
443.855	14.85
444.214	14.75
444.572	14.97
444.93	14.98
445.288	14.9
445.647	14.83
446.005	14.99
446.363	15.02
446.721	14.93
447.079	14.86
447.437	14.89
447.795	14.82
448.153	14.86
448.51	15.01
448.868	15.05
449.226	15.03
449.584	15.17
449.941	15.23
450.299	15.22
450.656	15.29
451.014	15.45
451.371	15.44
451.729	15.59
452.086	15.42
452.443	15.73
452.801	15.48
453.158	15.86
453.515	15.68
453.872	15.79
454.229	15.5
454.586	15.59
454.943	15.72
455.3	15.89
455.657	15.96
456.014	15.75
456.371	16.09
456.727	16.05
457.084	16.15
457.441	16.09
457.797	16.04
458.154	16.16
458.51	16.17
458.867	16.22
459.223	16.35
459.58	16.23
459.936	16.14
460.292	16.11
460.648	16.1
461.005	15.96
461.361	16.07
461.717	16.09
462.073	16.23
462.429	16.37
462.785	16.53
463.141	16.35
463.496	16.58
463.852	16.66
464.208	16.72
464.564	16.78
464.919	16.94
465.275	16.8
465.631	16.9
465.986	16.88
466.342	16.92
466.697	16.94
467.052	17.22
467.408	17.11
467.763	17.06
468.118	16.89
468.473	17.21
468.829	17.14
469.184	17.32
469.539	17.15
469.894	17.45
470.249	17.18
470.603	17.3
470.958	17.29
471.313	17.44
471.668	17.42
472.023	17.49
472.377	17.6
472.732	17.58
473.086	17.56
473.441	17.58
473.795	17.76
474.15	17.54
474.504	17.72
474.859	17.59
475.213	17.87
475.567	17.64
475.921	17.88
476.275	17.98
476.63	17.97
476.984	18.11
477.338	18.14
477.692	18
478.045	18.1
478.399	18.06
478.753	18.1
479.107	18.13
479.461	18.23
479.814	18.13
480.168	18.27
480.521	18.38
480.875	18.3
481.228	18.4
481.582	18.4
481.935	18.62
482.289	18.4
482.642	18.58
482.995	18.26
483.348	18.24
483.701	18.39
484.055	18.25
484.408	18.19
484.761	17.81
485.114	17.62
485.466	17.52
485.819	17.65
486.172	17.8
486.525	17.89
486.878	18.13
487.23	18.3
487.583	18.42
487.936	18.35
488.288	18.27
488.641	18.21
488.993	18.12
489.345	18.08
489.698	18.21
490.05	18.3
490.402	18.41
490.754	18.63
491.107	18.79
491.459	18.99
491.811	19.06
492.163	19.03
492.515	18.98
492.866	18.62
493.218	18.58
493.57	18.74
493.922	18.77
494.274	19.08
494.625	19.37
494.977	19.42
495.328	19.59
495.68	19.78
496.031	19.73
496.383	19.83
496.734	19.94
497.086	20.09
497.437	20.04
497.788	20.06
498.139	19.74
498.49	19.84
498.842	19.99
499.193	19.88
499.544	19.95
499.894	20.12
500.245	20.24
500.596	20.2
500.947	20.26
501.298	20.44
501.648	20.65
501.999	20.64
502.35	20.53
502.7	20.71
503.051	20.69
503.401	20.67
503.752	20.65
504.102	20.72
504.452	20.87
504.803	20.94
505.153	20.9
505.503	20.93
505.853	20.96
506.203	20.97
506.553	20.98
506.903	20.91
507.253	21.19
507.603	21.12
507.953	21.26
508.303	21.23
508.652	21.12
509.002	21.33
509.352	21.31
509.701	21.18
510.051	21.32
510.4	21.39
510.75	21.19
511.099	21.25
511.449	21.37
511.798	21.47
512.147	21.43
512.496	21.38
512.846	21.56
513.195	21.55
513.544	21.7
513.893	21.63
514.242	21.6
514.591	21.78
514.939	21.79
515.288	21.89
515.637	21.85
515.986	21.95
516.334	22.21
516.683	22.09
517.032	22.18
517.38	22.27
517.729	22.2
518.077	22.33
518.426	22.29
518.774	22.37
519.122	22.34
519.47	22.17
519.819	21.98
520.167	21.98
520.515	22.06
520.863	22.18
521.211	22.19
521.559	22.32
521.907	22.41
522.255	22.63
522.602	22.74
522.95	22.94
523.298	22.9
523.645	22.99
523.993	22.79
524.341	23.02
524.688	23.12
525.036	23.09
525.383	23.14
525.73	23.04
526.078	23.22
526.425	23.12
526.772	22.83
527.119	22.81
527.466	22.8
527.814	22.95
528.161	23.04
528.508	23.11
528.854	22.92
529.201	22.86
529.548	22.57
529.895	22.47
530.242	22.49
530.588	22.59
530.935	22.74
531.282	22.8
531.628	22.97
531.975	23.22
532.321	23.39
532.667	23.47
533.014	23.55
533.36	23.67
533.706	23.63
534.052	23.47
534.399	23.42
534.745	23.24
535.091	23.31
535.437	23.5
535.783	23.55
536.129	23.98
536.474	24.03
536.82	24.23
537.166	24.29
537.512	24.2
537.857	24.09
538.203	24.08
538.549	24.05
538.894	24.18
539.239	24.32
539.585	24.57
539.93	24.89
540.276	24.8
540.621	25.01
540.966	24.93
541.311	25
541.656	24.79
542.001	24.63
542.346	24.36
542.691	24.15
543.036	24.09
543.381	24.21
543.726	24.36
544.071	24.56
544.415	24.66
544.76	24.67
545.105	24.79
545.449	25.04
545.794	25.15
546.138	25.19
546.483	25.37
546.827	25.52
547.171	25.61
547.516	25.41
547.86	25.61
548.204	25.66
548.548	25.52
548.892	25.54
549.236	25.87
549.58	25.91
549.924	26.13
550.268	26.26
550.612	26.38
550.956	26.52
551.3	26.64
551.643	26.49
551.987	26.53
552.33	26.74
552.674	26.8
553.017	26.73
553.361	26.64
553.704	26.96
554.048	26.56
554.391	26.89
554.734	26.63
555.077	26.82
555.42	26.99
555.764	27.11
556.107	27.01
556.45	27.19
556.793	27.4
557.135	27.24
557.478	27.53
557.821	27.47
558.164	27.47
558.507	27.37
558.849	27.59
559.192	27.48
559.534	27.75
559.877	27.69
560.219	27.6
560.562	27.72
560.904	28.03
561.246	27.88
561.589	28.09
561.931	27.76
562.273	27.87
562.615	27.96
562.957	28.02
563.299	28.14
563.641	28.31
563.983	28.18
564.325	28.26
564.667	28.37
565.008	28.29
565.35	28.36
565.692	28.39
566.033	28.48
566.375	28.42
566.716	28.15
567.058	28.32
567.399	28.58
567.741	28.28
568.082	28.41
568.423	28.39
568.764	28.56
569.105	28.6
569.447	28.51
569.788	28.75
570.129	28.8
570.47	28.96
570.811	28.94
571.151	28.82
571.492	29.22
571.833	29.15
572.174	29.04
572.514	29.23
572.855	29.33
573.195	29.07
573.536	29.06
573.876	29.09
574.217	28.94
574.557	29.3
574.898	29.39
575.238	29.51
575.578	29.48
575.918	29.35
576.258	29.45
576.598	29.72
576.938	29.62
577.278	29.63
577.618	29.79
577.958	30.09
578.298	29.7
578.638	29.94
578.977	30.09
579.317	30.38
579.657	30.16
579.996	30.07
580.336	30.3
580.675	30.57
581.014	30.95
581.354	30.58
581.693	30.71
582.032	30.65
582.372	30.59
582.711	30.82
583.05	31.11
583.389	31.04
583.728	31
584.067	30.83
584.406	30.92
584.745	30.84
585.083	30.8
585.422	31.24
585.761	31.31
586.1	31.45
586.438	31.25
586.777	31.18
587.115	31.24
587.454	31.21
587.792	31.5
588.13	31.61
588.469	31.62
588.807	31.43
589.145	31.74
589.483	31.33
589.821	31.91
590.159	32.09
590.497	31.52
590.835	31.66
591.173	32.06
591.511	32.07
591.849	32.03
592.187	31.83
592.524	32.22
592.862	32.11
593.2	32.14
593.537	32.1
593.875	32.24
594.212	32.46
594.55	32.07
594.887	32.42
595.224	32.63
595.561	32.32
595.899	32.6
596.236	32.39
596.573	32.44
596.91	32.47
597.247	32.49
597.584	32.71
597.921	32.4
598.258	32.54
598.594	32.28
598.931	32.42
599.268	32.3
599.604	32.66
599.941	32.62
600.277	32.86
600.614	32.85
600.95	33.27
601.287	32.93
601.623	33.31
601.959	33.49
602.296	33.51
602.632	33.23
602.968	33.4
603.304	33.59
603.64	33.64
603.976	33.49
604.312	33.47
604.648	33.67
604.984	33.39
605.319	33.25
605.655	33.25
605.991	33.32
606.326	33.31
606.662	33.39
606.998	33.68
607.333	33.85
607.668	33.6
608.004	33.83
608.339	33.71
608.674	34.14
609.01	34.45
609.345	34.35
609.68	34.57
610.015	34.28
610.35	34.25
610.685	34.1
611.02	34.03
611.355	34.33
611.689	34.24
612.024	34.55
612.359	34.6
612.694	34.59
613.028	34.55
613.363	34.76
613.697	34.71
614.032	34.45
614.366	34.49
614.7	34.78
615.035	35.14
615.369	34.83
615.703	35.35
616.037	35.15
616.371	35.27
616.705	35.29
617.039	35.33
617.373	35.45
617.707	35.11
618.041	35.45
618.375	35.11
618.709	35.75
619.042	35.85
619.376	35.44
619.71	35.5
620.043	35.82
620.377	35.61
620.71	35.51
621.043	35.95
621.377	35.9
621.71	36.29
622.043	35.99
622.376	36.2
622.709	36.25
623.043	36.09
623.376	35.66
623.709	36.18
624.041	35.89
624.374	36.4
624.707	36.07
625.04	36.55
625.373	36.53
625.705	36.23
626.038	36.33
626.37	36.16
626.703	36.39
627.035	36.43
627.368	36.43
627.7	36.52
628.032	36.42
628.365	36.22
628.697	36.6
629.029	36.56
629.361	36.57
629.693	36.74
630.025	36.48
630.357	36.99
630.689	36.59
631.021	37.17
631.353	36.93
631.684	37.11
632.016	37.01
632.348	37.38
632.679	36.84
633.011	37.09
633.342	37.12
633.674	36.83
634.005	37.16
634.336	37.41
634.668	37.29
634.999	37.43
635.33	37.03
635.661	37.32
635.992	37.67
636.323	37.34
636.654	37.63
636.985	37.94
637.316	37.81
637.647	38.09
637.977	38.14
638.308	38.22
638.639	37.65
638.969	38.13
639.3	38.23
639.63	38.12
639.961	38.29
640.291	38.13
640.622	38.35
640.952	38.13
641.282	38.52
641.612	38.28
641.943	38.42
642.273	38.59
642.603	38.19
642.933	38.95
643.263	38.32
643.592	39.09
643.922	38.99
644.252	38.26
644.582	38.91
644.911	39.02
645.241	38.3
645.571	39.01
645.9	38.84
646.23	38.82
646.559	38.61
646.888	39.37
647.218	38.99
647.547	39.47
647.876	38.98
648.205	38.76
648.534	39.36
648.863	39.66
649.192	39.46
649.521	38.96
649.85	39.45
650.179	39.82
650.508	39.51
650.837	39.21
651.165	39.78
651.494	39.3
651.822	39.68
652.151	38.91
652.479	40.15
652.808	39.38
653.136	39.54
653.465	39.96
653.793	39.94
654.121	39.93
654.449	39.65
654.777	39.82
655.105	39.96
655.433	40.5
655.761	40.48
656.089	40.62
656.417	40.38
656.745	40.68
657.073	40.45
657.4	39.77
657.728	39.37
658.056	40.43
658.383	40.2
658.711	40.84
659.038	40.9
659.365	40.23
659.693	40.44
660.02	40.76
660.347	40.73
660.674	40.49
661.001	40.09
661.329	40.52
661.656	40.5
661.982	40.35
662.309	40.78
662.636	40.7
662.963	40.86
663.29	41.34
663.616	41.27
663.943	40.86
664.27	41.23
664.596	40.83
664.923	41.45
665.249	41.59
665.576	41.12
665.902	40.66
666.228	41.35
666.554	40.99
666.881	40.93
667.207	41.65
667.533	41.44
667.859	41.77
668.185	41.63
668.511	41.74
668.837	41.26
669.162	41.39
669.488	41.76
669.814	41.72
670.139	41.18
670.465	42.18
670.791	41.62
671.116	41.64
671.442	42.03
671.767	41.9
672.092	41.69
