Data from 0005_forehead_Reflection__2__374.txt Node

Date: Thu Dec 15 19:31:00 CST 2022
User: ToomeyLab
Spectrometer: FLMS14357
Trigger mode: 0
Integration Time (sec): 1.000000E-2
Scans to average: 100
Electric dark correction enabled: true
Nonlinearity correction enabled: false
Boxcar width: 0
XAxis mode: Wavelengths
Number of Pixels in Spectrum: 2048
>>>>>Begin Spectral Data<<<<<
189.047	52.41
189.435	52.41
189.823	52.41
190.211	-26.36
190.599	19.93
190.987	72.76
191.375	158.29
191.763	66.74
192.151	289.95
192.538	120.41
192.926	121.29
193.314	1178.55
193.702	74.4
194.089	243.78
194.477	46.89
194.864	743.89
195.252	77.14
195.639	40.94
196.027	-89.23
196.414	245.29
196.801	17.64
197.189	525.11
197.576	-40.58
197.963	-813.21
198.351	16.49
198.738	49.83
199.125	-67.42
199.512	30.35
199.899	-31.91
200.286	-10.99
200.673	63.41
201.06	-30.23
201.447	23.92
201.833	6.95
202.22	-61.75
202.607	-11.74
202.994	-35.71
203.38	16.66
203.767	-8.35
204.154	29.28
204.54	45.8
204.927	-10.17
205.313	2.7
205.699	46.35
206.086	46.19
206.472	56.16
206.858	23.46
207.245	-16.55
207.631	0.29
208.017	27.72
208.403	-81.27
208.789	-35.12
209.175	-1.49
209.561	-68.8
209.947	22.63
210.333	-9.16
210.719	2.69
211.105	49.53
211.491	25.14
211.876	-0.51
212.262	9.82
212.648	2.58
213.034	-13.98
213.419	-3.09
213.805	-12.18
214.19	-38.4
214.576	-75.61
214.961	20.26
215.346	-5.17
215.732	15.82
216.117	22.41
216.502	13.99
216.888	3.9
217.273	20.24
217.658	-20.07
218.043	5.91
218.428	-20.01
218.813	-15.04
219.198	-42.38
219.583	-12.4
219.968	5.46
220.353	-9.67
220.738	4.37
221.122	10.92
221.507	0.42
221.892	-20.25
222.276	-23.52
222.661	-19.13
223.046	-21.57
223.43	16.9
223.815	7.07
224.199	-13.49
224.583	-1.87
224.968	2.21
225.352	-1.41
225.736	9.61
226.121	6.74
226.505	5.25
226.889	-3.69
227.273	-3.39
227.657	7.8
228.041	8.61
228.425	2.14
228.809	6.1
229.193	6.83
229.577	4.02
229.961	4.73
230.344	5.77
230.728	6.3
231.112	6.15
231.495	4.53
231.879	5.3
232.263	5.61
232.646	5.28
233.03	5.3
233.413	6.26
233.797	6.54
234.18	6.78
234.563	5.71
234.946	4.86
235.33	5.2
235.713	5.83
236.096	7.2
236.479	4.83
236.862	4.73
237.245	4.65
237.628	6.01
238.011	5.24
238.394	5.72
238.777	4.59
239.16	6.35
239.543	5.96
239.925	4.55
240.308	3.76
240.691	5.33
241.073	5.18
241.456	5.67
241.838	5.39
242.221	5.94
242.603	5.86
242.986	5.4
243.368	5.65
243.75	5.25
244.133	5.64
244.515	5.36
244.897	5.8
245.279	4.67
245.661	5.46
246.043	5.43
246.425	5.55
246.807	5.56
247.189	5.23
247.571	5.26
247.953	5.23
248.335	5.5
248.717	5.54
249.098	5.42
249.48	5.05
249.862	5.61
250.243	5.66
250.625	5.46
251.006	5.89
251.388	5.06
251.769	5.12
252.151	5.12
252.532	4.98
252.913	5.59
253.295	5.49
253.676	5.68
254.057	5.35
254.438	5.01
254.819	5.53
255.2	5.33
255.581	4.98
255.962	5.51
256.343	5.18
256.724	5.12
257.105	4.68
257.486	3.06
257.867	4.3
258.247	5.06
258.628	4.81
259.009	4.31
259.389	3.89
259.77	5.09
260.15	5.58
260.531	5.57
260.911	5.02
261.292	5.2
261.672	5.39
262.052	5.27
262.432	5.07
262.813	4.98
263.193	5.53
263.573	5.32
263.953	5.08
264.333	5.27
264.713	5.02
265.093	4.87
265.473	5.92
265.853	5.39
266.233	5.37
266.612	4.67
266.992	4.6
267.372	5.1
267.752	5.26
268.131	4.65
268.511	5.19
268.89	5.72
269.27	4.86
269.649	5.23
270.029	4.76
270.408	4.83
270.787	5.13
271.167	4.79
271.546	5.35
271.925	5.48
272.304	4.73
272.683	5.03
273.062	4.72
273.441	4.61
273.82	5.34
274.199	4.91
274.578	5.17
274.957	4.97
275.336	5.19
275.715	5.35
276.093	4.75
276.472	4.71
276.851	5.22
277.229	4.5
277.608	4.73
277.986	5.04
278.365	5.11
278.743	4.49
279.122	4.61
279.5	4.75
279.878	4.77
280.257	4.71
280.635	4.85
281.013	4.49
281.391	5.59
281.769	4.86
282.147	5.16
282.525	4.75
282.903	5.32
283.281	5.37
283.659	5.42
284.037	4.93
284.415	5
284.792	5.08
285.17	4.78
285.548	4.73
285.925	5.05
286.303	5.14
286.68	5.16
287.058	4.7
287.435	4.73
287.813	5.15
288.19	4.96
288.567	5.1
288.945	4.76
289.322	5.1
289.699	5.09
290.076	4.95
290.453	4.89
290.83	5.21
291.207	5.25
291.584	5.45
291.961	5.37
292.338	4.91
292.715	5.04
293.092	5.24
293.469	5.13
293.845	5.3
294.222	5.74
294.599	5.3
294.975	4.56
295.352	5.58
295.728	5.35
296.105	5.26
296.481	5.4
296.858	5.39
297.234	5.27
297.61	5.46
297.986	5.88
298.363	5.31
298.739	5.48
299.115	5.42
299.491	5.81
299.867	5.16
300.243	5.3
300.619	5.25
300.995	5.56
301.371	5.77
301.746	5.98
302.122	5.26
302.498	5.37
302.874	5.47
303.249	5.7
303.625	4.93
304	6.07
304.376	5.83
304.751	5.63
305.127	5.57
305.502	5.7
305.878	5.87
306.253	5.24
306.628	5.89
307.003	5.61
307.378	5.7
307.754	6.11
308.129	5.73
308.504	6.39
308.879	5.95
309.254	6.15
309.629	5.81
310.003	5.92
310.378	6.31
310.753	6.38
311.128	5.88
311.502	6.08
311.877	5.94
312.252	6.38
312.626	6.13
313.001	6.05
313.375	6.21
313.75	6.28
314.124	5.99
314.498	6.2
314.873	5.98
315.247	5.98
315.621	6.28
315.995	6.19
316.369	6.17
316.743	6.22
317.117	6.13
317.491	6.27
317.865	5.74
318.239	6.69
318.613	6.52
318.987	6.15
319.361	6.29
319.734	6.71
320.108	5.95
320.482	6.96
320.855	6.55
321.229	6.76
321.602	6.42
321.976	5.66
322.349	7.14
322.723	6.88
323.096	6.49
323.469	6.42
323.843	6.09
324.216	6.85
324.589	7.37
324.962	6.66
325.335	6.65
325.708	6.65
326.081	6.86
326.454	6.39
326.827	7.19
327.2	6.64
327.573	7.12
327.945	6.76
328.318	6.78
328.691	7.11
329.063	6.7
329.436	6.99
329.809	7.13
330.181	7.78
330.553	6.94
330.926	7.65
331.298	7.06
331.671	7.2
332.043	6.95
332.415	7.66
332.787	7.49
333.159	6.67
333.532	7.05
333.904	7.75
334.276	7.22
334.648	7.6
335.02	6.85
335.391	7.25
335.763	7.24
336.135	7.69
336.507	7.35
336.879	7.48
337.25	7.24
337.622	7.79
337.993	7.31
338.365	7.75
338.736	7.38
339.108	7.67
339.479	7.54
339.851	7.94
340.222	7.95
340.593	7.5
340.964	7.66
341.336	7.31
341.707	7.44
342.078	7.42
342.449	7.68
342.82	7.69
343.191	7.78
343.562	7.64
343.933	7.84
344.303	7.96
344.674	7.74
345.045	7.86
345.416	7.88
345.786	8.18
346.157	8.28
346.527	7.89
346.898	7.76
347.268	7.89
347.639	7.94
348.009	8.05
348.38	7.85
348.75	8.42
349.12	8.24
349.49	8.36
349.861	8.24
350.231	8.18
350.601	8.27
350.971	7.86
351.341	8.2
351.711	8.41
352.081	8.11
352.45	7.92
352.82	8.14
353.19	8.54
353.56	8.32
353.929	8.44
354.299	8.43
354.669	8.43
355.038	8.81
355.408	8.47
355.777	8.79
356.147	8.27
356.516	8.39
356.885	8.52
357.254	8.48
357.624	8.38
357.993	8.83
358.362	8.9
358.731	8.91
359.1	8.56
359.469	8.76
359.838	8.85
360.207	8.93
360.576	9.08
360.945	9.08
361.314	8.64
361.682	8.84
362.051	8.72
362.42	8.88
362.788	9.05
363.157	8.68
363.525	8.8
363.894	8.95
364.262	8.97
364.631	9.19
364.999	9.14
365.367	9.26
365.735	8.9
366.104	9.14
366.472	9.25
366.84	9.14
367.208	9.28
367.576	9.11
367.944	9.21
368.312	9.35
368.68	9.52
369.048	9.48
369.416	9.35
369.783	9.45
370.151	9.69
370.519	9.77
370.886	9.56
371.254	9.8
371.621	10.2
371.989	10.06
372.356	9.73
372.724	9.81
373.091	9.74
373.458	9.44
373.826	9.93
374.193	9.82
374.56	9.87
374.927	9.61
375.294	10.05
375.661	9.89
376.028	10
376.395	9.97
376.762	9.8
377.129	10.23
377.496	10.06
377.863	9.91
378.229	10.42
378.596	10.19
378.963	10.5
379.329	10.01
379.696	10.24
380.062	10.28
380.429	9.93
380.795	10.6
381.161	10.24
381.528	10.21
381.894	10.25
382.26	10.33
382.626	10.28
382.993	10.52
383.359	10.15
383.725	10.42
384.091	10.39
384.457	10.54
384.823	10.71
385.188	10.88
385.554	10.69
385.92	10.68
386.286	10.82
386.651	10.78
387.017	10.92
387.383	10.95
387.748	11.27
388.114	10.98
388.479	10.72
388.845	10.74
389.21	10.76
389.575	11.34
389.94	11.1
390.306	11
390.671	11.36
391.036	11.37
391.401	11.3
391.766	11.19
392.131	11.44
392.496	11.25
392.861	11.38
393.226	11.23
393.591	11.6
393.956	11.34
394.32	11.43
394.685	11.26
395.05	11.46
395.414	11.46
395.779	11.67
396.143	11.46
396.508	11.5
396.872	11.59
397.236	11.74
397.601	11.89
397.965	11.99
398.329	11.74
398.694	11.5
399.058	11.96
399.422	11.92
399.786	11.92
400.15	11.66
400.514	11.98
400.878	11.87
401.242	12.03
401.605	11.89
401.969	11.89
402.333	12.21
402.697	12.22
403.06	12.04
403.424	12.28
403.787	12.24
404.151	12.27
404.514	12.18
404.878	12.16
405.241	12.24
405.604	12.28
405.968	12.25
406.331	12.43
406.694	12.42
407.057	12.19
407.42	12.49
407.783	12.63
408.146	12.4
408.509	12.74
408.872	12.71
409.235	12.59
409.598	12.58
409.961	12.83
410.323	12.53
410.686	12.66
411.049	12.9
411.411	12.74
411.774	12.87
412.136	12.9
412.499	12.8
412.861	12.66
413.223	12.77
413.586	13.15
413.948	13.1
414.31	12.88
414.672	12.95
415.035	13.29
415.397	13.03
415.759	13
416.121	13.36
416.483	13.12
416.845	13.26
417.206	13.17
417.568	13.22
417.93	13.02
418.292	13.1
418.653	12.94
419.015	13.33
419.377	13.13
419.738	13.19
420.1	13.31
420.461	13.2
420.822	13.39
421.184	13.11
421.545	13.31
421.906	13.36
422.267	13.33
422.629	13.27
422.99	13.22
423.351	13.44
423.712	13.43
424.073	13.55
424.434	13.55
424.795	13.53
425.155	13.45
425.516	13.52
425.877	13.6
426.238	13.57
426.598	13.66
426.959	13.76
427.32	13.77
427.68	13.74
428.041	13.91
428.401	13.9
428.761	14.04
429.122	14.22
429.482	14.35
429.842	14.15
430.202	14.21
430.563	14.19
430.923	14.24
431.283	14.54
431.643	14.5
432.003	14.53
432.363	14.35
432.722	14.57
433.082	14.37
433.442	14.61
433.802	14.55
434.161	14.51
434.521	14.66
434.881	14.66
435.24	14.66
435.6	14.56
435.959	14.67
436.319	14.62
436.678	14.8
437.037	14.79
437.396	14.77
437.756	14.72
438.115	14.92
438.474	15.05
438.833	14.83
439.192	14.91
439.551	14.83
439.91	15.08
440.269	15.06
440.628	14.9
440.987	15.17
441.345	15.22
441.704	15.16
442.063	15.1
442.421	15.24
442.78	15
443.138	15.24
443.497	15.28
443.855	15.34
444.214	15.22
444.572	15.71
444.93	15.55
445.288	15.39
445.647	15.56
446.005	15.64
446.363	15.58
446.721	15.58
447.079	15.47
447.437	15.55
447.795	15.5
448.153	15.47
448.51	15.64
448.868	15.7
449.226	15.74
449.584	15.73
449.941	15.98
450.299	15.8
450.656	15.97
451.014	16.17
451.371	16.22
451.729	16.22
452.086	16.09
452.443	16.38
452.801	16.22
453.158	16.56
453.515	16.35
453.872	16.42
454.229	16.45
454.586	16.47
454.943	16.49
455.3	16.48
455.657	16.51
456.014	16.58
456.371	16.72
456.727	16.76
457.084	16.81
457.441	16.96
457.797	16.87
458.154	16.83
458.51	16.9
458.867	16.97
459.223	16.85
459.58	16.97
459.936	17.15
460.292	16.82
460.648	16.89
461.005	16.75
461.361	16.92
461.717	16.85
462.073	16.94
462.429	17.07
462.785	17.15
463.141	17.25
463.496	17.27
463.852	17.38
464.208	17.36
464.564	17.58
464.919	17.51
465.275	17.64
465.631	17.72
465.986	17.71
466.342	17.62
466.697	17.6
467.052	17.95
467.408	17.74
467.763	17.9
468.118	17.79
468.473	17.91
468.829	18.03
469.184	18
469.539	17.95
469.894	18.19
470.249	18.21
470.603	18.28
470.958	18.46
471.313	18.29
471.668	18.16
472.023	18.27
472.377	18.25
472.732	18.48
473.086	18.43
473.441	18.51
473.795	18.77
474.15	18.48
474.504	18.49
474.859	18.54
475.213	18.69
475.567	18.51
475.921	18.79
476.275	18.77
476.63	18.73
476.984	18.61
477.338	18.87
477.692	18.94
478.045	18.97
478.399	19.05
478.753	18.97
479.107	18.97
479.461	19.06
479.814	18.92
480.168	19.2
480.521	19.1
480.875	19.12
481.228	19.24
481.582	19.25
481.935	19.4
482.289	19.27
482.642	19.48
482.995	19.22
483.348	19.22
483.701	19.32
484.055	19.13
484.408	19.07
484.761	18.81
485.114	18.61
485.466	18.63
485.819	18.65
486.172	18.73
486.525	18.83
486.878	18.96
487.23	19.15
487.583	19.24
487.936	19.28
488.288	19.17
488.641	19.13
488.993	19.1
489.345	19.08
489.698	19.25
490.05	19.27
490.402	19.34
490.754	19.51
491.107	19.66
491.459	19.83
491.811	20
492.163	20
492.515	19.77
492.866	19.57
493.218	19.56
493.57	19.75
493.922	19.81
494.274	20
494.625	20.34
494.977	20.22
495.328	20.48
495.68	20.63
496.031	20.67
496.383	20.89
496.734	20.84
497.086	20.96
497.437	21.06
497.788	21.01
498.139	20.92
498.49	20.96
498.842	21.01
499.193	20.91
499.544	21.1
499.894	21.03
500.245	21.25
500.596	21.33
500.947	21.29
501.298	21.34
501.648	21.46
501.999	21.74
502.35	21.37
502.7	21.77
503.051	21.77
503.401	21.76
503.752	21.65
504.102	21.74
504.452	21.86
504.803	21.99
505.153	21.83
505.503	21.75
505.853	22.04
506.203	22.1
506.553	22.05
506.903	22.16
507.253	22.03
507.603	22.15
507.953	22.39
508.303	22.31
508.652	22.12
509.002	22.38
509.352	22.2
509.701	22.25
510.051	22.32
510.4	22.43
510.75	22.19
511.099	22.35
511.449	22.31
511.798	22.41
512.147	22.45
512.496	22.5
512.846	22.61
513.195	22.73
513.544	22.82
513.893	22.65
514.242	22.78
514.591	22.84
514.939	22.9
515.288	22.85
515.637	22.87
515.986	23.08
516.334	23.15
516.683	23.22
517.032	23.14
517.38	23.36
517.729	23.35
518.077	23.34
518.426	23.47
518.774	23.51
519.122	23.23
519.47	23.29
519.819	23.17
520.167	23.13
520.515	23.16
520.863	23.42
521.211	23.33
521.559	23.46
521.907	23.68
522.255	23.78
522.602	23.84
522.95	23.89
523.298	23.98
523.645	24.08
523.993	24.13
524.341	24.2
524.688	24.21
525.036	24.21
525.383	24.22
525.73	24.14
526.078	24.35
526.425	24.02
526.772	24.07
527.119	23.87
527.466	24.05
527.814	23.92
528.161	24.09
528.508	24.18
528.854	24.15
529.201	24.04
529.548	23.86
529.895	23.7
530.242	23.8
530.588	23.87
530.935	23.96
531.282	23.88
531.628	24.03
531.975	24.19
532.321	24.41
532.667	24.51
533.014	24.74
533.36	24.6
533.706	24.76
534.052	24.72
534.399	24.67
534.745	24.45
535.091	24.52
535.437	24.7
535.783	24.83
536.129	24.94
536.474	25.11
536.82	25.11
537.166	25.27
537.512	25.27
537.857	25.27
538.203	25.35
538.549	25.17
538.894	25.25
539.239	25.53
539.585	25.61
539.93	25.85
540.276	25.76
540.621	26.02
540.966	26.07
541.311	25.98
541.656	25.95
542.001	25.81
542.346	25.78
542.691	25.52
543.036	25.45
543.381	25.56
543.726	25.63
544.071	25.69
544.415	25.82
544.76	25.84
545.105	26.11
545.449	26.23
545.794	26.32
546.138	26.31
546.483	26.6
546.827	26.45
547.171	26.85
547.516	26.74
547.86	26.81
548.204	26.75
548.548	26.9
548.892	26.85
549.236	26.96
549.58	27.19
549.924	27.22
550.268	27.32
550.612	27.53
550.956	27.57
551.3	27.6
551.643	27.43
551.987	27.82
552.33	28.01
552.674	27.83
553.017	27.86
553.361	27.81
553.704	28.26
554.048	27.94
554.391	28.09
554.734	27.98
555.077	28.17
555.42	28.13
555.764	28.18
556.107	28.41
556.45	28.47
556.793	28.55
557.135	28.45
557.478	28.63
557.821	28.71
558.164	28.72
558.507	28.65
558.849	28.86
559.192	28.68
559.534	28.88
559.877	28.94
560.219	29.01
560.562	28.81
560.904	29.24
561.246	29.05
561.589	29.35
561.931	29.16
562.273	29.26
562.615	29.07
562.957	29.15
563.299	29.38
563.641	29.43
563.983	29.12
564.325	29.47
564.667	29.35
565.008	29.58
565.35	29.54
565.692	29.47
566.033	29.68
566.375	29.73
566.716	29.58
567.058	29.79
567.399	29.68
567.741	29.76
568.082	29.52
568.423	29.73
568.764	30
569.105	29.82
569.447	29.89
569.788	30.02
570.129	30.01
570.47	30.27
570.811	30.3
571.151	30.03
571.492	30.26
571.833	30.61
572.174	30.34
572.514	30.63
572.855	30.54
573.195	30.25
573.536	30.38
573.876	30.26
574.217	30.34
574.557	30.44
574.898	30.54
575.238	30.59
575.578	30.73
575.918	30.72
576.258	30.88
576.598	30.95
576.938	30.9
577.278	30.94
577.618	30.8
577.958	31
578.298	31.01
578.638	31.2
578.977	31.19
579.317	31.27
579.657	31.32
579.996	31.48
580.336	31.44
580.675	31.68
581.014	31.72
581.354	31.64
581.693	32.03
582.032	31.71
582.372	31.76
582.711	32.26
583.05	32.04
583.389	32.45
583.728	32.33
584.067	31.81
584.406	32.35
584.745	32.49
585.083	31.99
585.422	32.21
585.761	32.43
586.1	32.73
586.438	32.32
586.777	32.52
587.115	32.59
587.454	32.4
587.792	32.9
588.13	32.45
588.469	32.72
588.807	32.98
589.145	32.87
589.483	32.95
589.821	33.14
590.159	33.18
590.497	33.2
590.835	33.36
591.173	33.04
591.511	33.21
591.849	33.11
592.187	33.11
592.524	33.26
592.862	33.26
593.2	33.05
593.537	33.65
593.875	33.43
594.212	33.46
594.55	33.47
594.887	33.84
595.224	33.58
595.561	33.55
595.899	33.76
596.236	33.89
596.573	33.44
596.91	33.52
597.247	33.72
597.584	33.8
597.921	33.67
598.258	33.57
598.594	33.6
598.931	33.55
599.268	33.55
599.604	33.87
599.941	33.66
600.277	33.96
600.614	34.19
600.95	34.07
601.287	33.81
601.623	34.47
601.959	34.6
602.296	34.45
602.632	34.3
602.968	34.56
603.304	34.46
603.64	34.62
603.976	34.46
604.312	34.61
604.648	34.78
604.984	34.47
605.319	34.45
605.655	34.38
605.991	34.64
606.326	34.74
606.662	34.56
606.998	34.85
607.333	34.69
607.668	34.74
608.004	35.04
608.339	35.03
608.674	35.06
609.01	35.2
609.345	35.17
609.68	35.17
610.015	35.24
610.35	35.46
610.685	35.45
611.02	35.24
611.355	35.27
611.689	35.43
612.024	35.73
612.359	35.29
612.694	35.6
613.028	35.73
613.363	35.44
613.697	36.25
614.032	35.59
614.366	35.76
614.7	35.95
615.035	35.96
615.369	36.24
615.703	35.96
616.037	36.19
616.371	36.12
616.705	36.25
617.039	36.16
617.373	36.29
617.707	36.53
618.041	36.13
618.375	36.29
618.709	36.74
619.042	36.64
619.376	36.66
619.71	37.32
620.043	37.05
620.377	36.95
620.71	36.56
621.043	36.83
621.377	37.08
621.71	37.09
622.043	37.08
622.376	37.02
622.709	37.64
623.043	37.15
623.376	36.95
623.709	36.95
624.041	37.23
624.374	36.92
624.707	36.59
625.04	37.3
625.373	37.3
625.705	37.44
626.038	37.53
626.37	37.39
626.703	37.61
627.035	37.46
627.368	37.16
627.7	37.66
628.032	37.62
628.365	37.75
628.697	37.93
629.029	37.78
629.361	37.9
629.693	37.63
630.025	37.63
630.357	37.65
630.689	37.69
631.021	38.16
631.353	38.01
631.684	37.92
632.016	37.88
632.348	38.03
632.679	38.12
633.011	38.18
633.342	38.34
633.674	38.44
634.005	38.41
634.336	38.67
634.668	38.21
634.999	38.75
635.33	38.39
635.661	38.51
635.992	38.57
636.323	38.64
636.654	38.62
636.985	38.82
637.316	38.86
637.647	39.09
637.977	38.62
638.308	38.72
638.639	38.89
638.969	38.97
639.3	38.38
639.63	39.08
639.961	39.48
640.291	38.89
640.622	39.1
640.952	39.28
641.282	39.48
641.612	39.41
641.943	38.9
642.273	39.55
642.603	39.54
642.933	39.61
643.263	39.3
643.592	39.91
643.922	39.97
644.252	39.72
644.582	39.57
644.911	39.43
645.241	40.21
645.571	39.61
645.9	39.78
646.23	40.43
646.559	39.54
646.888	40.02
647.218	39.86
647.547	39.72
647.876	39.9
648.205	39.94
648.534	39.95
648.863	40.33
649.192	40.43
649.521	40.73
649.85	40.66
650.179	40.65
650.508	40.24
650.837	40.08
651.165	40.5
651.494	39.97
651.822	40.54
652.151	40.58
652.479	40.61
652.808	40.62
653.136	40.47
653.465	40.91
653.793	40.48
654.121	40.66
654.449	40.99
654.777	41.39
655.105	40.92
655.433	41.02
655.761	41.13
656.089	40.99
656.417	41.2
656.745	41.16
657.073	41.05
657.4	41.17
657.728	41.01
658.056	41.05
658.383	41.2
658.711	41.23
659.038	41.79
659.365	41.13
659.693	40.9
660.02	41.49
660.347	41.25
660.674	41.26
661.001	41.4
661.329	41.55
661.656	41.47
661.982	41.83
662.309	41.56
662.636	41.63
662.963	41.62
663.29	41.56
663.616	41.24
663.943	41.72
664.27	41.61
664.596	41.31
664.923	42.28
665.249	41.93
665.576	41.61
665.902	41.63
666.228	42.07
666.554	42.75
666.881	41.78
667.207	42.61
667.533	41.94
667.859	42.27
668.185	42.6
668.511	42.41
668.837	42.27
669.162	42.18
669.488	42.19
669.814	42.06
670.139	41.97
670.465	42.64
670.791	42.82
671.116	42.91
671.442	42.82
671.767	42.8
672.092	42.36
