Data from 0005_chest_Reflection__3__365.txt Node

Date: Thu Dec 15 19:28:25 CST 2022
User: ToomeyLab
Spectrometer: FLMS14357
Trigger mode: 0
Integration Time (sec): 1.000000E-2
Scans to average: 100
Electric dark correction enabled: true
Nonlinearity correction enabled: false
Boxcar width: 0
XAxis mode: Wavelengths
Number of Pixels in Spectrum: 2048
>>>>>Begin Spectral Data<<<<<
189.047	26.04
189.435	26.04
189.823	26.04
190.211	-35.86
190.599	-27.28
190.987	77.82
191.375	43.49
191.763	23.6
192.151	49.33
192.538	-224.14
192.926	172.97
193.314	-82.43
193.702	-18.95
194.089	-15.68
194.477	40.11
194.864	145.35
195.252	-26.47
195.639	45.25
196.027	-356.37
196.414	381.33
196.801	-10.4
197.189	309
197.576	13.47
197.963	-746.87
198.351	22.66
198.738	-1.79
199.125	-36.61
199.512	5.59
199.899	-83.09
200.286	-40.13
200.673	20.22
201.06	-41.11
201.447	40.99
201.833	-34.16
202.22	-14.3
202.607	-64.86
202.994	-27.69
203.38	2.13
203.767	0.92
204.154	18.58
204.54	17.07
204.927	-3.39
205.313	23.71
205.699	0.17
206.086	25.59
206.472	6.51
206.858	-29.16
207.245	-6.23
207.631	-13.98
208.017	14.55
208.403	-135.27
208.789	-30.84
209.175	6.01
209.561	-150.34
209.947	-13.36
210.333	-20.22
210.719	11.87
211.105	31.96
211.491	5.6
211.876	-28.93
212.262	-16.99
212.648	12.93
213.034	-31.17
213.419	-20.92
213.805	-31.4
214.19	-60.99
214.576	-43.74
214.961	-2.8
215.346	-12.6
215.732	-16.7
216.117	-0.11
216.502	-38.86
216.888	-9.85
217.273	-17.3
217.658	9.81
218.043	-59.02
218.428	-68.14
218.813	4.63
219.198	-29.24
219.583	-33.97
219.968	-22.57
220.353	-33.63
220.738	4.67
221.122	5.87
221.507	-6.24
221.892	-11.79
222.276	-30.3
222.661	-9.57
223.046	-20.3
223.43	11.34
223.815	-18.64
224.199	-0.67
224.583	-7.27
224.968	-6.72
225.352	-18.34
225.736	4.06
226.121	-10.25
226.505	-3.5
226.889	-1.59
227.273	-1.69
227.657	2.76
228.041	0.74
228.425	-2.04
228.809	-3.8
229.193	0.35
229.577	1.59
229.961	1.22
230.344	2.16
230.728	2.66
231.112	2.48
231.495	0.35
231.879	1.24
232.263	1.96
232.646	0.56
233.03	3.16
233.413	1.31
233.797	-2.09
234.18	0.16
234.563	0.58
234.946	1.03
235.33	1.21
235.713	2.42
236.096	2.26
236.479	1.7
236.862	1.55
237.245	1.48
237.628	1.49
238.011	-0.23
238.394	0.28
238.777	2.6
239.16	2.3
239.543	3.58
239.925	1.14
240.308	0.41
240.691	0.67
241.073	0.97
241.456	1.77
241.838	1.54
242.221	1.62
242.603	2.16
242.986	1.54
243.368	2.51
243.75	2.77
244.133	2.41
244.515	2.15
244.897	1.78
245.279	1.35
245.661	2
246.043	1.63
246.425	1.48
246.807	0.62
247.189	1.77
247.571	1.72
247.953	2.15
248.335	2.29
248.717	2.02
249.098	2.03
249.48	1.85
249.862	2.03
250.243	2.19
250.625	2.25
251.006	2.48
251.388	1.98
251.769	0.79
252.151	1.24
252.532	1.58
252.913	2.02
253.295	1.92
253.676	1.67
254.057	1.82
254.438	1.63
254.819	1.66
255.2	2.05
255.581	1.72
255.962	2.33
256.343	2.1
256.724	2
257.105	0.92
257.486	0.44
257.867	1.29
258.247	2.28
258.628	2.18
259.009	1.93
259.389	0.73
259.77	1.87
260.15	2.87
260.531	2.04
260.911	2.12
261.292	2.17
261.672	2.11
262.052	2.04
262.432	2.03
262.813	2.01
263.193	1.8
263.573	1.71
263.953	1.64
264.333	2.27
264.713	2.3
265.093	1.47
265.473	3.06
265.853	2.17
266.233	1.57
266.612	1.14
266.992	2
267.372	1.56
267.752	1.62
268.131	1.8
268.511	1.97
268.89	2.19
269.27	1.34
269.649	1.98
270.029	1.45
270.408	1.85
270.787	2.17
271.167	2.07
271.546	2.58
271.925	2.1
272.304	1.63
272.683	1.61
273.062	1.74
273.441	1.73
273.82	2.11
274.199	2.01
274.578	2.19
274.957	1.72
275.336	1.75
275.715	1.74
276.093	1.49
276.472	1.4
276.851	1.68
277.229	1.28
277.608	1.39
277.986	1.75
278.365	2.14
278.743	1.84
279.122	1.56
279.5	2.18
279.878	1.34
280.257	2.01
280.635	2.42
281.013	1.33
281.391	1.72
281.769	2.13
282.147	1.97
282.525	1.21
282.903	1.34
283.281	2.17
283.659	2.1
284.037	1.63
284.415	1.75
284.792	1.64
285.17	1.97
285.548	1.58
285.925	1.96
286.303	2.33
286.68	1.96
287.058	1.91
287.435	1.91
287.813	2.01
288.19	1.64
288.567	1.81
288.945	1.66
289.322	1.95
289.699	2.05
290.076	1.93
290.453	1.39
290.83	2.15
291.207	1.94
291.584	2.06
291.961	1.82
292.338	1.67
292.715	1.51
293.092	2.04
293.469	1.68
293.845	2.11
294.222	2.1
294.599	1.11
294.975	1.93
295.352	1.99
295.728	1.54
296.105	1.83
296.481	1.88
296.858	2.04
297.234	1.78
297.61	1.71
297.986	2.07
298.363	2.27
298.739	2.17
299.115	2.01
299.491	2.2
299.867	1.66
300.243	1.82
300.619	1.41
300.995	2.09
301.371	1.91
301.746	1.71
302.122	1.29
302.498	1.69
302.874	2.13
303.249	1.6
303.625	1.7
304	2.31
304.376	2.31
304.751	2.02
305.127	1.94
305.502	1.85
305.878	1.94
306.253	1.59
306.628	2.14
307.003	1.53
307.378	1.7
307.754	2.04
308.129	1.4
308.504	1.48
308.879	2.01
309.254	2.15
309.629	2.16
310.003	1.9
310.378	2.45
310.753	1.85
311.128	1.65
311.502	1.92
311.877	1.87
312.252	1.93
312.626	2.51
313.001	2.05
313.375	2.54
313.75	1.91
314.124	2.33
314.498	2.2
314.873	1.71
315.247	1.91
315.621	2.12
315.995	1.76
316.369	1.82
316.743	1.69
317.117	1.75
317.491	2.04
317.865	1.37
318.239	2.16
318.613	1.74
318.987	1.69
319.361	1.53
319.734	2.13
320.108	1.74
320.482	2.03
320.855	1.76
321.229	1.82
321.602	1.96
321.976	1.47
322.349	2.59
322.723	1.86
323.096	2.21
323.469	1.69
323.843	1.78
324.216	1.79
324.589	2.33
324.962	2
325.335	1.94
325.708	2.12
326.081	2.01
326.454	2.28
326.827	2.03
327.2	1.83
327.573	2.7
327.945	1.87
328.318	2.23
328.691	2.38
329.063	1.75
329.436	1.45
329.809	2.09
330.181	2.7
330.553	2.27
330.926	2.33
331.298	1.87
331.671	2.1
332.043	2.28
332.415	2.03
332.787	1.95
333.159	2.04
333.532	1.66
333.904	1.87
334.276	2.04
334.648	2.26
335.02	1.88
335.391	1.88
335.763	2.04
336.135	2.09
336.507	2.48
336.879	2.22
337.25	2.17
337.622	2.3
337.993	1.98
338.365	2.41
338.736	1.98
339.108	2.28
339.479	1.85
339.851	2.63
340.222	2.35
340.593	2.48
340.964	2.03
341.336	2
341.707	2.05
342.078	2.02
342.449	2.44
342.82	2.41
343.191	2.22
343.562	1.95
343.933	1.78
344.303	1.97
344.674	2.32
345.045	1.97
345.416	2.71
345.786	2.15
346.157	2.35
346.527	2.13
346.898	1.87
347.268	2.34
347.639	2.1
348.009	2.23
348.38	2.07
348.75	2.3
349.12	2.12
349.49	2.16
349.861	2.45
350.231	2.17
350.601	2.38
350.971	1.73
351.341	2.22
351.711	2.05
352.081	2.06
352.45	2.02
352.82	2.32
353.19	2.34
353.56	2.36
353.929	2.14
354.299	2.37
354.669	2.43
355.038	2.51
355.408	2.22
355.777	2.35
356.147	2.44
356.516	2.2
356.885	2.41
357.254	1.99
357.624	1.83
357.993	2.24
358.362	2.08
358.731	2.65
359.1	2.38
359.469	2.39
359.838	2.53
360.207	2.39
360.576	2.56
360.945	2.16
361.314	2.3
361.682	2.25
362.051	2.66
362.42	2.34
362.788	2.4
363.157	2.38
363.525	2.31
363.894	2.39
364.262	2.28
364.631	2.6
364.999	2.17
365.367	2.21
365.735	2.24
366.104	2.25
366.472	2.23
366.84	2.42
367.208	2.87
367.576	2.27
367.944	2.16
368.312	2.32
368.68	2.62
369.048	2.56
369.416	2.14
369.783	2.28
370.151	2.88
370.519	2.63
370.886	2.32
371.254	2.5
371.621	2.62
371.989	2.49
372.356	2.2
372.724	2.58
373.091	2.5
373.458	2.1
373.826	2.51
374.193	2.42
374.56	2.61
374.927	2.3
375.294	2.72
375.661	2.38
376.028	2.21
376.395	2.64
376.762	2.5
377.129	2.38
377.496	2.32
377.863	2.64
378.229	2.65
378.596	2.74
378.963	2.76
379.329	2.6
379.696	2.32
380.062	2.43
380.429	2.3
380.795	2.72
381.161	2.3
381.528	2.14
381.894	2.66
382.26	2.55
382.626	2.49
382.993	2.68
383.359	2.45
383.725	2.3
384.091	2.88
384.457	2.28
384.823	2.56
385.188	2.61
385.554	2.51
385.92	2.56
386.286	2.61
386.651	2.46
387.017	2.52
387.383	2.49
387.748	2.74
388.114	2.74
388.479	2.59
388.845	2.39
389.21	2.8
389.575	2.74
389.94	2.82
390.306	2.27
390.671	2.55
391.036	2.59
391.401	2.68
391.766	2.41
392.131	2.86
392.496	2.71
392.861	2.63
393.226	2.63
393.591	2.64
393.956	2.7
394.32	2.72
394.685	2.61
395.05	2.64
395.414	2.66
395.779	2.73
396.143	2.51
396.508	2.55
396.872	2.83
397.236	2.86
397.601	2.75
397.965	2.45
398.329	2.63
398.694	2.52
399.058	2.75
399.422	2.46
399.786	2.47
400.15	2.73
400.514	2.56
400.878	2.72
401.242	2.78
401.605	2.43
401.969	2.63
402.333	2.51
402.697	2.99
403.06	2.53
403.424	2.74
403.787	2.62
404.151	2.6
404.514	2.83
404.878	2.6
405.241	2.7
405.604	2.83
405.968	2.63
406.331	2.8
406.694	2.82
407.057	2.68
407.42	2.68
407.783	2.85
408.146	2.77
408.509	2.5
408.872	2.89
409.235	2.82
409.598	2.73
409.961	3.1
410.323	2.64
410.686	2.72
411.049	2.78
411.411	2.72
411.774	2.89
412.136	2.79
412.499	2.87
412.861	2.5
413.223	2.78
413.586	2.83
413.948	3.06
414.31	2.84
414.672	2.69
415.035	2.96
415.397	2.75
415.759	2.68
416.121	2.93
416.483	2.67
416.845	2.87
417.206	2.94
417.568	2.75
417.93	2.77
418.292	2.72
418.653	2.61
419.015	2.83
419.377	2.59
419.738	2.8
420.1	2.79
420.461	2.73
420.822	2.74
421.184	2.8
421.545	2.74
421.906	2.83
422.267	2.75
422.629	2.76
422.99	2.72
423.351	2.71
423.712	2.78
424.073	2.76
424.434	2.87
424.795	2.68
425.155	2.72
425.516	2.71
425.877	2.84
426.238	2.83
426.598	2.85
426.959	2.94
427.32	2.71
427.68	2.87
428.041	2.85
428.401	2.65
428.761	2.93
429.122	2.97
429.482	2.9
429.842	2.78
430.202	2.98
430.563	2.73
430.923	2.78
431.283	2.89
431.643	2.85
432.003	2.89
432.363	2.77
432.722	2.83
433.082	2.88
433.442	3.03
433.802	2.87
434.161	2.78
434.521	2.88
434.881	2.89
435.24	2.89
435.6	2.84
435.959	2.89
436.319	2.86
436.678	3.06
437.037	3
437.396	2.88
437.756	2.78
438.115	2.73
438.474	2.77
438.833	2.92
439.192	2.84
439.551	2.71
439.91	2.87
440.269	2.87
440.628	2.85
440.987	2.91
441.345	2.84
441.704	2.83
442.063	2.87
442.421	2.93
442.78	2.95
443.138	2.9
443.497	2.94
443.855	3.03
444.214	2.67
444.572	3.07
444.93	2.93
445.288	2.93
445.647	2.89
446.005	3.05
446.363	2.97
446.721	2.94
447.079	2.81
447.437	2.91
447.795	2.94
448.153	2.87
448.51	3.01
448.868	2.87
449.226	2.98
449.584	2.9
449.941	2.99
450.299	2.94
450.656	2.86
451.014	3.05
451.371	2.92
451.729	2.95
452.086	2.88
452.443	2.99
452.801	2.96
453.158	3.12
453.515	2.86
453.872	2.87
454.229	2.87
454.586	2.87
454.943	2.96
455.3	3.04
455.657	2.92
456.014	3.07
456.371	3.11
456.727	3.2
457.084	3.12
457.441	3.03
457.797	2.92
458.154	3
458.51	2.95
458.867	3.08
459.223	2.85
459.58	3.06
459.936	2.98
460.292	2.96
460.648	2.96
461.005	2.91
461.361	2.94
461.717	3.03
462.073	3.05
462.429	2.99
462.785	3.18
463.141	3.1
463.496	3.16
463.852	3
464.208	3.08
464.564	3.1
464.919	3.06
465.275	2.99
465.631	3.29
465.986	3.06
466.342	2.94
466.697	3.22
467.052	3.13
467.408	3.05
467.763	3.02
468.118	3
468.473	3.14
468.829	2.96
469.184	3.12
469.539	2.89
469.894	3.17
470.249	3.06
470.603	3.29
470.958	3.13
471.313	3
471.668	3.09
472.023	3.04
472.377	2.99
472.732	3.12
473.086	3.16
473.441	3.07
473.795	3.26
474.15	3.08
474.504	3.09
474.859	2.83
475.213	3.24
475.567	3.08
475.921	3.18
476.275	3.21
476.63	3.14
476.984	3.05
477.338	3.18
477.692	3.18
478.045	3.23
478.399	3.12
478.753	3.09
479.107	3.24
479.461	3.07
479.814	3.19
480.168	3.2
480.521	3.18
480.875	3.22
481.228	3.23
481.582	3.09
481.935	3.37
482.289	3.13
482.642	3.33
482.995	3.02
483.348	3.05
483.701	3.27
484.055	3.08
484.408	3.06
484.761	3.07
485.114	2.92
485.466	2.92
485.819	2.96
486.172	2.99
486.525	3.02
486.878	3.12
487.23	3.08
487.583	3.07
487.936	3.07
488.288	3.07
488.641	3.01
488.993	3.02
489.345	3
489.698	3.04
490.05	3.02
490.402	3.04
490.754	3.09
491.107	3.12
491.459	3.17
491.811	3.22
492.163	3.14
492.515	3.06
492.866	3.07
493.218	3.07
493.57	3.13
493.922	3.14
494.274	3.23
494.625	3.27
494.977	3.22
495.328	3.24
495.68	3.16
496.031	3.14
496.383	3.18
496.734	3.12
497.086	3.33
497.437	3.39
497.788	3.25
498.139	3.19
498.49	3.28
498.842	3.35
499.193	3.18
499.544	3.25
499.894	3.29
500.245	3.22
500.596	3.29
500.947	3.23
501.298	3.24
501.648	3.28
501.999	3.39
502.35	3.23
502.7	3.47
503.051	3.31
503.401	3.43
503.752	3.27
504.102	3.27
504.452	3.26
504.803	3.18
505.153	3.4
505.503	3.35
505.853	3.28
506.203	3.42
506.553	3.28
506.903	3.34
507.253	3.36
507.603	3.31
507.953	3.44
508.303	3.48
508.652	3.15
509.002	3.37
509.352	3.41
509.701	3.12
510.051	3.38
510.4	3.35
510.75	3.32
511.099	3.29
511.449	3.33
511.798	3.34
512.147	3.4
512.496	3.37
512.846	3.35
513.195	3.39
513.544	3.48
513.893	3.34
514.242	3.32
514.591	3.24
514.939	3.42
515.288	3.45
515.637	3.47
515.986	3.51
516.334	3.47
516.683	3.34
517.032	3.4
517.38	3.34
517.729	3.43
518.077	3.41
518.426	3.4
518.774	3.41
519.122	3.43
519.47	3.39
519.819	3.36
520.167	3.36
520.515	3.39
520.863	3.47
521.211	3.36
521.559	3.49
521.907	3.5
522.255	3.48
522.602	3.47
522.95	3.52
523.298	3.51
523.645	3.47
523.993	3.48
524.341	3.47
524.688	3.43
525.036	3.49
525.383	3.53
525.73	3.49
526.078	3.53
526.425	3.48
526.772	3.45
527.119	3.49
527.466	3.49
527.814	3.51
528.161	3.5
528.508	3.5
528.854	3.53
529.201	3.4
529.548	3.39
529.895	3.31
530.242	3.32
530.588	3.34
530.935	3.42
531.282	3.41
531.628	3.47
531.975	3.42
532.321	3.49
532.667	3.58
533.014	3.56
533.36	3.55
533.706	3.56
534.052	3.51
534.399	3.48
534.745	3.5
535.091	3.47
535.437	3.59
535.783	3.55
536.129	3.55
536.474	3.67
536.82	3.68
537.166	3.52
537.512	3.55
537.857	3.56
538.203	3.55
538.549	3.54
538.894	3.56
539.239	3.6
539.585	3.79
539.93	3.83
540.276	3.74
540.621	3.8
540.966	3.73
541.311	3.67
541.656	3.64
542.001	3.65
542.346	3.61
542.691	3.55
543.036	3.54
543.381	3.58
543.726	3.64
544.071	3.69
544.415	3.68
544.76	3.72
545.105	3.62
545.449	3.75
545.794	3.76
546.138	3.77
546.483	3.8
546.827	3.78
547.171	3.79
547.516	3.87
547.86	3.81
548.204	3.8
548.548	3.82
548.892	3.77
549.236	3.79
549.58	3.91
549.924	3.94
550.268	3.89
550.612	3.91
550.956	4.13
551.3	4.11
551.643	3.89
551.987	4.04
552.33	4.15
552.674	4.01
553.017	3.9
553.361	4.05
553.704	4.19
554.048	4
554.391	4.05
554.734	3.93
555.077	4.03
555.42	3.98
555.764	3.99
556.107	4.21
556.45	4.21
556.793	4.12
557.135	4.34
557.478	4.09
557.821	4.18
558.164	4.14
558.507	3.93
558.849	4.27
559.192	4.08
559.534	4.11
559.877	4.08
560.219	4.11
560.562	4.2
560.904	4.38
561.246	4.16
561.589	4.3
561.931	4.24
562.273	4.23
562.615	4.15
562.957	4.12
563.299	4.27
563.641	4.32
563.983	4.08
564.325	4.26
564.667	4.26
565.008	4.22
565.35	4.13
565.692	4.17
566.033	4.15
566.375	4.43
566.716	4.34
567.058	4.31
567.399	4.29
567.741	4.41
568.082	4.25
568.423	4.24
568.764	4.39
569.105	4.35
569.447	4.37
569.788	4.33
570.129	4.45
570.47	4.3
570.811	4.42
571.151	4.39
571.492	4.34
571.833	4.48
572.174	4.58
572.514	4.38
572.855	4.51
573.195	4.45
573.536	4.44
573.876	4.39
574.217	4.43
574.557	4.48
574.898	4.45
575.238	4.68
575.578	4.56
575.918	4.66
576.258	4.7
576.598	4.51
576.938	4.66
577.278	4.67
577.618	4.64
577.958	4.63
578.298	4.65
578.638	4.65
578.977	4.64
579.317	4.84
579.657	4.68
579.996	4.75
580.336	4.79
580.675	4.65
581.014	4.78
581.354	4.45
581.693	4.73
582.032	4.96
582.372	4.84
582.711	4.99
583.05	4.86
583.389	4.88
583.728	4.97
584.067	4.84
584.406	5.02
584.745	4.79
585.083	4.93
585.422	5.04
585.761	4.94
586.1	4.85
586.438	4.89
586.777	4.92
587.115	5.08
587.454	4.78
587.792	4.99
588.13	4.93
588.469	5.21
588.807	5.22
589.145	5.25
589.483	5
589.821	5.14
590.159	5.01
590.497	5.16
590.835	5.2
591.173	5.24
591.511	5.31
591.849	5.02
592.187	4.94
592.524	5.28
592.862	5.08
593.2	5.38
593.537	5.17
593.875	5.3
594.212	5.36
594.55	5.24
594.887	5.27
595.224	5.45
595.561	5.26
595.899	5.35
596.236	5.43
596.573	5.26
596.91	5.12
597.247	5.46
597.584	5.44
597.921	5.33
598.258	5.43
598.594	5.24
598.931	5.14
599.268	5.19
599.604	5.47
599.941	5.58
600.277	5.29
600.614	5.37
600.95	5.41
601.287	5.11
601.623	5.19
601.959	5.55
602.296	5.68
602.632	5.56
602.968	5.59
603.304	5.59
603.64	5.47
603.976	5.55
604.312	5.67
604.648	5.72
604.984	5.71
605.319	5.65
605.655	5.54
605.991	5.57
606.326	5.6
606.662	5.53
606.998	5.79
607.333	5.62
607.668	5.7
608.004	5.62
608.339	5.8
608.674	5.87
609.01	5.86
609.345	5.9
609.68	5.69
610.015	5.85
610.35	5.79
610.685	5.8
611.02	5.76
611.355	5.71
611.689	5.76
612.024	6
612.359	5.95
612.694	5.91
613.028	5.94
613.363	6.1
613.697	5.91
614.032	6.07
614.366	5.96
614.7	6.23
615.035	6.23
615.369	6.44
615.703	6.22
616.037	6.19
616.371	5.99
616.705	6.33
617.039	6.26
617.373	6.36
617.707	6.11
618.041	5.77
618.375	5.65
618.709	6.39
619.042	6.34
619.376	6.13
619.71	6.16
620.043	6.66
620.377	6.25
620.71	6.03
621.043	6.6
621.377	6.74
621.71	6.49
622.043	6.39
622.376	6.27
622.709	7.02
623.043	6.44
623.376	6.37
623.709	6.83
624.041	6.4
624.374	6.41
624.707	6.48
625.04	6.71
625.373	6.49
625.705	6.65
626.038	6.79
626.37	6.07
626.703	6.77
627.035	6.43
627.368	6.57
627.7	6.81
628.032	6.71
628.365	6.89
628.697	6.65
629.029	6.79
629.361	6.78
629.693	6.82
630.025	6.87
630.357	7.1
630.689	6.75
631.021	6.88
631.353	6.85
631.684	6.7
632.016	6.54
632.348	7.06
632.679	6.91
633.011	6.73
633.342	6.75
633.674	6.68
634.005	6.8
634.336	7.35
634.668	7.08
634.999	6.95
635.33	6.85
635.661	6.82
635.992	7.2
636.323	6.99
636.654	7
636.985	6.95
637.316	7.31
637.647	7.2
637.977	7.01
638.308	7.69
638.639	7.48
638.969	7.05
639.3	7.11
639.63	6.94
639.961	7.63
640.291	7.01
640.622	7.31
640.952	7.17
641.282	7.01
641.612	7.38
641.943	7.16
642.273	7.16
642.603	7.38
642.933	7.51
643.263	7.59
643.592	7.76
643.922	7.77
644.252	7.41
644.582	7.43
644.911	7.56
645.241	7.22
645.571	7.56
645.9	7.73
646.23	7.73
646.559	7.24
646.888	7.99
647.218	7.48
647.547	7.88
647.876	7.25
648.205	7.66
648.534	7.79
648.863	7.48
649.192	7.77
649.521	7.53
649.85	7.71
650.179	7.67
650.508	7.56
650.837	7.76
651.165	8.15
651.494	7.88
651.822	7.84
652.151	7.59
652.479	7.67
652.808	7.88
653.136	7.39
653.465	7.45
653.793	7.77
654.121	8.19
654.449	7.91
654.777	7.7
655.105	7.55
655.433	7.96
655.761	8.01
656.089	8.14
656.417	8.29
656.745	8.15
657.073	7.76
657.4	7.9
657.728	7.55
658.056	8.2
658.383	7.88
658.711	8.47
659.038	8.49
659.365	8.45
659.693	8.22
660.02	8.6
660.347	8.2
660.674	8.11
661.001	8.34
661.329	8.1
661.656	7.81
661.982	8.2
662.309	7.9
662.636	8.29
662.963	8.29
663.29	8.56
663.616	8.19
663.943	8.71
664.27	8.71
664.596	8.38
664.923	8.78
665.249	8.79
665.576	8.97
665.902	8.31
666.228	8.82
666.554	8.67
666.881	8.56
667.207	8.39
667.533	8.79
667.859	8.43
668.185	8.51
668.511	9.26
668.837	8.69
669.162	8.62
669.488	7.8
669.814	8.73
670.139	8.63
670.465	9.32
670.791	8.6
671.116	8.57
671.442	8.44
671.767	9.04
672.092	9.23
672.418	9.06
672.743	9.01
673.068	8.36
673.393	9.26
673.718	8.28
674.043	8.64
674.368	8.97
674.693	9.13
675.018	9.42
675.343	9.28
675.667	9.15
675.992	9.05
676.317	8.79
676.641	8.58
676.966	9.86
677.29	8.39
677.615	8.76
677.939	9.79
678.264	9.38
678.588	9.35
678.912	9.11
679.236	9.12
679.56	8.7
679.885	8.92
680.209	9.75
680.532	9.81
680.856	9.94
681.18	9.45
681.504	9.15
681.828	8.7
682.152	9.42
682.475	9.62
682.799	9.05
683.122	9.41
683.446	9.18
683.769	10
684.093	10.07
684.416	9.6
684.739	9.44
685.062	9.64
685.386	9.03
685.709	9.66
686.032	9.93
686.355	10.43
686.678	10.26
687.001	9.96
687.324	9.68
687.646	9.78
687.969	9.49
688.292	9.61
688.614	9.75
688.937	10.4
689.26	9.66
689.582	10.3
689.904	9.65
690.227	9.47
690.549	9.55
690.871	9.6
691.194	9.76
691.516	9.8
691.838	10.05
