Data from 0005_forehead_Reflection__0__372.txt Node

Date: Thu Dec 15 19:30:38 CST 2022
User: ToomeyLab
Spectrometer: FLMS14357
Trigger mode: 0
Integration Time (sec): 1.000000E-2
Scans to average: 100
Electric dark correction enabled: true
Nonlinearity correction enabled: false
Boxcar width: 0
XAxis mode: Wavelengths
Number of Pixels in Spectrum: 2048
>>>>>Begin Spectral Data<<<<<
189.047	-7.64
189.435	-7.64
189.823	-7.64
190.211	-99.77
190.599	23.1
190.987	193.45
191.375	-145.6
191.763	71.41
192.151	188.41
192.538	-386.77
192.926	17.68
193.314	1176.23
193.702	-25.86
194.089	391.78
194.477	37.13
194.864	-147.96
195.252	138.72
195.639	57.38
196.027	1282.59
196.414	1042.51
196.801	79.26
197.189	471.69
197.576	-10.13
197.963	-468.27
198.351	7.25
198.738	18.56
199.125	-14.16
199.512	20.84
199.899	-54.91
200.286	-22.76
200.673	40.22
201.06	13.79
201.447	29.12
201.833	25.99
202.22	-8.48
202.607	-40.79
202.994	31.79
203.38	4.79
203.767	11.19
204.154	29.34
204.54	30.6
204.927	-0.98
205.313	17.32
205.699	20.97
206.086	29.15
206.472	23.86
206.858	4.92
207.245	1.8
207.631	-46.74
208.017	19.76
208.403	-49.36
208.789	-27.66
209.175	-11.25
209.561	-76.41
209.947	2.03
210.333	-16.84
210.719	4.74
211.105	31.81
211.491	32.26
211.876	-25.48
212.262	-11.68
212.648	-11.11
213.034	-1.66
213.419	-2.55
213.805	-48.62
214.19	-38.72
214.576	-30.19
214.961	40.6
215.346	-18.25
215.732	-11.19
216.117	7.81
216.502	-12.66
216.888	11.59
217.273	-1.98
217.658	-28.69
218.043	-15.11
218.428	-10.14
218.813	6.54
219.198	-30.3
219.583	-19.64
219.968	5.11
220.353	-0.98
220.738	-2.9
221.122	-1.07
221.507	-14.84
221.892	-30.33
222.276	-28.6
222.661	-9.27
223.046	-12.19
223.43	14.89
223.815	1.59
224.199	-5.58
224.583	4
224.968	2.76
225.352	-3.11
225.736	6.55
226.121	-1.88
226.505	2.53
226.889	5.49
227.273	1.24
227.657	2.61
228.041	5
228.425	5.36
228.809	4.08
229.193	3.75
229.577	5.03
229.961	4.38
230.344	3.61
230.728	4.92
231.112	5.05
231.495	3.56
231.879	4.35
232.263	5.71
232.646	5.11
233.03	5.17
233.413	5.84
233.797	3.53
234.18	4.08
234.563	4.5
234.946	5.51
235.33	4.18
235.713	3.26
236.096	6.78
236.479	6.26
236.862	3.52
237.245	3.32
237.628	4.08
238.011	5.01
238.394	3.51
238.777	4.52
239.16	4.73
239.543	3.79
239.925	6.33
240.308	3.02
240.691	3.15
241.073	5.07
241.456	4.57
241.838	4.22
242.221	5.13
242.603	5.14
242.986	4.68
243.368	5.08
243.75	4.96
244.133	5.44
244.515	5.07
244.897	4.78
245.279	4.8
245.661	5.31
246.043	5.22
246.425	5.43
246.807	3.94
247.189	4.42
247.571	4.43
247.953	4.88
248.335	4.77
248.717	5.06
249.098	4.92
249.48	5.19
249.862	4.92
250.243	4.83
250.625	4.99
251.006	5.97
251.388	4.38
251.769	4.16
252.151	4.74
252.532	3.85
252.913	5.41
253.295	5.26
253.676	5.05
254.057	4.89
254.438	5.26
254.819	4.93
255.2	4.84
255.581	5.16
255.962	4.98
256.343	5.9
256.724	5.09
257.105	4.86
257.486	4.17
257.867	4.07
258.247	4.92
258.628	5.57
259.009	4.24
259.389	4.37
259.77	4.11
260.15	4.91
260.531	4.87
260.911	4.52
261.292	4.78
261.672	4.68
262.052	4.81
262.432	4.66
262.813	5.13
263.193	4.95
263.573	4.91
263.953	4.6
264.333	4.95
264.713	5.04
265.093	4.4
265.473	5.94
265.853	5.03
266.233	4.69
266.612	4.21
266.992	4.59
267.372	4.83
267.752	4.84
268.131	4.47
268.511	4.31
268.89	5.15
269.27	4.05
269.649	4.55
270.029	4.74
270.408	4.09
270.787	4.73
271.167	4.98
271.546	5.09
271.925	4.59
272.304	3.83
272.683	4.61
273.062	4.57
273.441	4.48
273.82	4.99
274.199	4.67
274.578	5.27
274.957	4.46
275.336	4.73
275.715	5.05
276.093	4.26
276.472	4.04
276.851	4.36
277.229	4.7
277.608	4.35
277.986	4.54
278.365	4.84
278.743	4.8
279.122	4.27
279.5	4.41
279.878	4.47
280.257	5.03
280.635	4.81
281.013	4.35
281.391	4.67
281.769	4.86
282.147	4.61
282.525	4.33
282.903	3.92
283.281	4.71
283.659	4.77
284.037	4.51
284.415	4.5
284.792	4.71
285.17	4.65
285.548	4.93
285.925	4.45
286.303	4.72
286.68	4.52
287.058	4.94
287.435	4.42
287.813	4.82
288.19	4.37
288.567	4.61
288.945	4.9
289.322	4.59
289.699	5.09
290.076	4.69
290.453	4.34
290.83	4.63
291.207	4.72
291.584	5.11
291.961	4.77
292.338	4.42
292.715	4.66
293.092	4.76
293.469	5.08
293.845	5.23
294.222	5.55
294.599	4.45
294.975	4.08
295.352	4.94
295.728	4.97
296.105	4.94
296.481	5.29
296.858	5.05
297.234	5
297.61	4.96
297.986	5.19
298.363	5
298.739	5.47
299.115	5.13
299.491	5.35
299.867	5.17
300.243	4.94
300.619	5.35
300.995	5.48
301.371	5.32
301.746	5.2
302.122	4.55
302.498	5.68
302.874	5.04
303.249	5.18
303.625	5
304	5.68
304.376	5.91
304.751	5.5
305.127	5.37
305.502	5.73
305.878	5.45
306.253	4.99
306.628	5.42
307.003	5.63
307.378	5.37
307.754	5.49
308.129	5.15
308.504	5.72
308.879	5.54
309.254	5.91
309.629	5.67
310.003	5.74
310.378	5.78
310.753	6
311.128	5.58
311.502	5.58
311.877	5.77
312.252	5.97
312.626	6.01
313.001	5.9
313.375	5.98
313.75	5.86
314.124	6.09
314.498	5.83
314.873	6.03
315.247	5.59
315.621	5.93
315.995	5.9
316.369	5.7
316.743	5.84
317.117	5.47
317.491	5.98
317.865	5.36
318.239	6.42
318.613	6.28
318.987	5.76
319.361	6.09
319.734	5.98
320.108	5.88
320.482	6.78
320.855	6.09
321.229	6.2
321.602	6.02
321.976	5.81
322.349	6.51
322.723	6.2
323.096	6.62
323.469	6.04
323.843	5.76
324.216	6.06
324.589	6.74
324.962	6.45
325.335	6.62
325.708	6.34
326.081	6.48
326.454	6.42
326.827	6.65
327.2	6.2
327.573	6.72
327.945	6.35
328.318	6.5
328.691	6.68
329.063	6.2
329.436	6.25
329.809	6.76
330.181	7.08
330.553	7.01
330.926	6.76
331.298	6.66
331.671	6.75
332.043	6.59
332.415	6.74
332.787	6.78
333.159	6.81
333.532	7.03
333.904	6.95
334.276	6.77
334.648	6.46
335.02	6.8
335.391	6.93
335.763	6.83
336.135	7.07
336.507	6.94
336.879	6.98
337.25	7.32
337.622	7.16
337.993	6.73
338.365	7.08
338.736	6.85
339.108	7.07
339.479	7.14
339.851	7.05
340.222	7.64
340.593	7.16
340.964	6.94
341.336	6.94
341.707	7.11
342.078	7.06
342.449	7.01
342.82	7.6
343.191	7.12
343.562	7.27
343.933	7.05
344.303	7.14
344.674	7.06
345.045	7.16
345.416	7.82
345.786	7.22
346.157	7.77
346.527	7.05
346.898	7.19
347.268	7.6
347.639	7.12
348.009	7.88
348.38	7.37
348.75	7.7
349.12	7.75
349.49	7.92
349.861	7.5
350.231	7.45
350.601	7.15
350.971	7.38
351.341	7.78
351.711	7.73
352.081	7.36
352.45	7.02
352.82	7.11
353.19	7.18
353.56	7.45
353.929	8.03
354.299	7.96
354.669	7.98
355.038	8.41
355.408	7.89
355.777	8.04
356.147	7.94
356.516	7.83
356.885	7.75
357.254	7.94
357.624	7.65
357.993	7.8
358.362	7.97
358.731	8.36
359.1	7.99
359.469	7.97
359.838	7.95
360.207	8.12
360.576	8.16
360.945	8.42
361.314	8.17
361.682	8.04
362.051	8.24
362.42	8.25
362.788	8.28
363.157	7.99
363.525	8.22
363.894	8
364.262	8.43
364.631	8.61
364.999	8.41
365.367	8.18
365.735	8.58
366.104	8.36
366.472	8.4
366.84	8.55
367.208	8.85
367.576	8.44
367.944	8.78
368.312	8.63
368.68	8.72
369.048	8.77
369.416	8.26
369.783	8.67
370.151	9
370.519	9.29
370.886	8.73
371.254	9.06
371.621	8.93
371.989	8.96
372.356	8.89
372.724	8.71
373.091	8.78
373.458	8.7
373.826	8.98
374.193	8.94
374.56	9.17
374.927	8.9
375.294	9.58
375.661	9.23
376.028	9.06
376.395	9.13
376.762	9.17
377.129	9.36
377.496	9.29
377.863	9.32
378.229	9.23
378.596	9.42
378.963	9.43
379.329	9.37
379.696	9.44
380.062	9.39
380.429	9.17
380.795	9.78
381.161	9.33
381.528	9.29
381.894	9.41
382.26	9.64
382.626	9.71
382.993	10.09
383.359	9.36
383.725	9.73
384.091	9.58
384.457	9.84
384.823	9.68
385.188	9.84
385.554	9.67
385.92	9.74
386.286	9.85
386.651	9.67
387.017	10.15
387.383	9.77
387.748	10.28
388.114	10.15
388.479	9.84
388.845	9.75
389.21	10.27
389.575	10.57
389.94	10.51
390.306	10.25
390.671	10.33
391.036	10.23
391.401	10.39
391.766	10.2
392.131	10.47
392.496	10.33
392.861	10.41
393.226	10.33
393.591	10.58
393.956	10.6
394.32	10.69
394.685	10.51
395.05	10.43
395.414	10.52
395.779	10.69
396.143	10.44
396.508	10.61
396.872	10.59
397.236	11.02
397.601	10.76
397.965	10.85
398.329	10.88
398.694	10.7
399.058	11.02
399.422	10.97
399.786	11.11
400.15	11.06
400.514	11.03
400.878	10.81
401.242	11.17
401.605	11.18
401.969	10.97
402.333	11.12
402.697	11.32
403.06	11.25
403.424	11.15
403.787	11.14
404.151	11.32
404.514	11.31
404.878	11.04
405.241	11.32
405.604	11.3
405.968	11.24
406.331	11.42
406.694	11.4
407.057	11.25
407.42	11.39
407.783	11.48
408.146	11.56
408.509	11.74
408.872	11.47
409.235	11.52
409.598	11.52
409.961	11.76
410.323	11.65
410.686	11.65
411.049	11.74
411.411	11.87
411.774	11.71
412.136	11.84
412.499	11.97
412.861	11.81
413.223	11.84
413.586	11.88
413.948	12.16
414.31	12
414.672	11.94
415.035	11.92
415.397	11.92
415.759	11.99
416.121	12.21
416.483	12.24
416.845	12.28
417.206	12.35
417.568	12.08
417.93	12.24
418.292	12.09
418.653	12.08
419.015	12.22
419.377	12.11
419.738	12.36
420.1	12.27
420.461	12.06
420.822	12.26
421.184	12.17
421.545	12.27
421.906	12.28
422.267	12.27
422.629	12.22
422.99	12.21
423.351	12.3
423.712	12.29
424.073	12.45
424.434	12.63
424.795	12.38
425.155	12.39
425.516	12.38
425.877	12.55
426.238	12.52
426.598	12.59
426.959	12.7
427.32	12.64
427.68	12.69
428.041	12.72
428.401	12.79
428.761	13.06
429.122	13
429.482	12.99
429.842	13.05
430.202	13.1
430.563	13.13
430.923	13.21
431.283	13.19
431.643	13.22
432.003	13.19
432.363	13.29
432.722	13.18
433.082	13.25
433.442	13.52
433.802	13.55
434.161	13.37
434.521	13.44
434.881	13.41
435.24	13.52
435.6	13.44
435.959	13.47
436.319	13.62
436.678	13.77
437.037	13.61
437.396	13.74
437.756	13.7
438.115	13.85
438.474	13.73
438.833	13.73
439.192	13.69
439.551	13.65
439.91	13.75
440.269	13.71
440.628	13.83
440.987	13.85
441.345	13.91
441.704	13.88
442.063	13.74
442.421	13.86
442.78	13.95
443.138	14.11
443.497	14.1
443.855	14.16
444.214	14.06
444.572	14.37
444.93	14.27
445.288	14.29
445.647	14.38
446.005	14.43
446.363	14.24
446.721	14.4
447.079	14.24
447.437	14.19
447.795	14.17
448.153	14.23
448.51	14.32
448.868	14.34
449.226	14.36
449.584	14.59
449.941	14.64
450.299	14.61
450.656	14.82
451.014	14.77
451.371	14.91
451.729	14.66
452.086	14.76
452.443	14.95
452.801	14.94
453.158	15.18
453.515	14.98
453.872	15.04
454.229	14.99
454.586	15.01
454.943	15.15
455.3	15.23
455.657	15.2
456.014	15.33
456.371	15.46
456.727	15.28
457.084	15.4
457.441	15.52
457.797	15.42
458.154	15.41
458.51	15.48
458.867	15.46
459.223	15.42
459.58	15.53
459.936	15.66
460.292	15.43
460.648	15.45
461.005	15.43
461.361	15.41
461.717	15.37
462.073	15.48
462.429	15.72
462.785	15.87
463.141	15.83
463.496	15.99
463.852	16.01
464.208	16.1
464.564	16.09
464.919	16.07
465.275	16.14
465.631	16.29
465.986	16.2
466.342	16.06
466.697	16.29
467.052	16.44
467.408	16.37
467.763	16.46
468.118	16.34
468.473	16.25
468.829	16.39
469.184	16.56
469.539	16.37
469.894	16.72
470.249	16.68
470.603	16.79
470.958	16.95
471.313	16.8
471.668	16.76
472.023	16.85
472.377	16.81
472.732	16.91
473.086	16.86
473.441	16.91
473.795	17.19
474.15	16.98
474.504	16.99
474.859	16.94
475.213	17.22
475.567	17.11
475.921	17.3
476.275	17.33
476.63	17.29
476.984	17.27
477.338	17.43
477.692	17.34
478.045	17.41
478.399	17.33
478.753	17.37
479.107	17.37
479.461	17.54
479.814	17.46
480.168	17.48
480.521	17.6
480.875	17.73
481.228	17.61
481.582	17.68
481.935	17.72
482.289	17.69
482.642	17.83
482.995	17.55
483.348	17.63
483.701	17.72
484.055	17.51
484.408	17.44
484.761	17.13
485.114	16.98
485.466	16.95
485.819	16.98
486.172	17.12
486.525	17.31
486.878	17.44
487.23	17.6
487.583	17.8
487.936	17.77
488.288	17.63
488.641	17.44
488.993	17.45
489.345	17.45
489.698	17.54
490.05	17.63
490.402	17.84
490.754	17.9
491.107	18.05
491.459	18.27
491.811	18.35
492.163	18.33
492.515	18.14
492.866	17.89
493.218	17.92
493.57	18.07
493.922	18.19
494.274	18.35
494.625	18.61
494.977	18.67
495.328	18.95
495.68	19.16
496.031	19.04
496.383	19.17
496.734	19.23
497.086	19.27
497.437	19.2
497.788	19.21
498.139	19.13
498.49	19.2
498.842	19.18
499.193	19.11
499.544	19.15
499.894	19.27
500.245	19.46
500.596	19.52
500.947	19.71
501.298	19.67
501.648	19.85
501.999	19.93
502.35	19.62
502.7	19.91
503.051	20.02
503.401	19.97
503.752	19.91
504.102	19.97
504.452	20.13
504.803	20.17
505.153	20.21
505.503	20.2
505.853	20.2
506.203	20.23
506.553	20.41
506.903	20.33
507.253	20.31
507.603	20.38
507.953	20.52
508.303	20.48
508.652	20.21
509.002	20.54
509.352	20.61
509.701	20.32
510.051	20.63
510.4	20.63
510.75	20.49
511.099	20.5
511.449	20.69
511.798	20.69
512.147	20.78
512.496	20.73
512.846	20.81
513.195	20.79
513.544	21.03
513.893	20.97
514.242	20.95
514.591	20.92
514.939	21.11
515.288	21.32
515.637	21.16
515.986	21.24
516.334	21.39
516.683	21.4
517.032	21.39
517.38	21.65
517.729	21.61
518.077	21.42
518.426	21.67
518.774	21.5
519.122	21.51
519.47	21.27
519.819	21.25
520.167	21.25
520.515	21.39
520.863	21.4
521.211	21.49
521.559	21.52
521.907	21.79
522.255	21.82
522.602	22.06
522.95	22.01
523.298	22.06
523.645	22.24
523.993	22.25
524.341	22.25
524.688	22.31
525.036	22.49
525.383	22.44
525.73	22.36
526.078	22.36
526.425	22.11
526.772	22.11
527.119	22.16
527.466	22.01
527.814	22.16
528.161	22.23
528.508	22.33
528.854	22.37
529.201	22.17
529.548	21.99
529.895	21.74
530.242	21.75
530.588	21.84
530.935	22
531.282	22.11
531.628	22.25
531.975	22.33
532.321	22.64
532.667	22.75
533.014	22.85
533.36	22.83
533.706	22.84
534.052	22.88
534.399	22.64
534.745	22.51
535.091	22.43
535.437	22.67
535.783	22.84
536.129	23.08
536.474	23.16
536.82	23.34
537.166	23.39
537.512	23.57
537.857	23.44
538.203	23.41
538.549	23.43
538.894	23.48
539.239	23.53
539.585	23.67
539.93	23.97
540.276	23.96
540.621	24.1
540.966	24.15
541.311	24.09
541.656	24.01
542.001	23.92
542.346	23.66
542.691	23.48
543.036	23.39
543.381	23.53
543.726	23.66
544.071	23.83
544.415	23.96
544.76	24.05
545.105	24.17
545.449	24.41
545.794	24.42
546.138	24.65
546.483	24.75
546.827	24.6
547.171	24.77
547.516	24.67
547.86	24.99
548.204	24.95
548.548	24.74
548.892	24.88
549.236	25.04
549.58	25.21
549.924	25.2
550.268	25.33
550.612	25.39
550.956	25.69
551.3	25.8
551.643	25.65
551.987	25.82
552.33	25.99
552.674	25.73
553.017	25.98
553.361	25.98
553.704	26.06
554.048	25.85
554.391	26.09
554.734	25.92
555.077	26.05
555.42	26.06
555.764	26.36
556.107	26.43
556.45	26.4
556.793	26.56
557.135	26.68
557.478	26.74
557.821	26.52
558.164	26.85
558.507	26.62
558.849	26.77
559.192	26.86
559.534	26.9
559.877	26.91
560.219	27.08
560.562	27.03
560.904	27.39
561.246	27.24
561.589	27.34
561.931	27.19
562.273	27.22
562.615	27.32
562.957	27.28
563.299	27.14
563.641	27.27
563.983	27.48
564.325	27.4
564.667	27.53
565.008	27.57
565.35	27.49
565.692	27.72
566.033	27.42
566.375	27.61
566.716	27.64
567.058	27.61
567.399	27.74
567.741	27.8
568.082	27.65
568.423	27.66
568.764	27.66
569.105	27.84
569.447	28.06
569.788	28.13
570.129	27.95
570.47	28.23
570.811	28.14
571.151	28
571.492	28.05
571.833	28.3
572.174	28.41
572.514	28.57
572.855	28.34
573.195	28.18
573.536	28.46
573.876	28.29
574.217	28.45
574.557	28.51
574.898	28.52
575.238	28.66
575.578	28.74
575.918	28.7
576.258	28.84
576.598	28.92
576.938	28.88
577.278	28.87
577.618	28.95
577.958	29
578.298	29.14
578.638	29.06
578.977	29.41
579.317	29.24
579.657	29.38
579.996	29.53
580.336	29.43
580.675	29.77
581.014	29.89
581.354	29.66
581.693	29.75
582.032	29.85
582.372	29.82
582.711	30.11
583.05	30.3
583.389	30.23
583.728	30.34
584.067	29.79
584.406	30.25
584.745	30.19
585.083	29.95
585.422	30.41
585.761	30.57
586.1	30.58
586.438	30.21
586.777	30.53
587.115	30.7
587.454	30.42
587.792	30.92
588.13	30.75
588.469	30.79
588.807	30.82
589.145	30.74
589.483	30.79
589.821	31.15
590.159	30.81
590.497	30.84
590.835	31.06
591.173	31.12
591.511	31.09
591.849	31.13
592.187	31.19
592.524	31.12
592.862	30.98
593.2	31.42
593.537	31.35
593.875	31.36
594.212	31.59
594.55	31.33
594.887	31.61
595.224	31.71
595.561	31.76
595.899	31.78
596.236	31.7
596.573	31.52
596.91	31.69
597.247	31.7
597.584	31.9
597.921	31.64
598.258	31.9
598.594	31.69
598.931	31.56
599.268	31.83
599.604	32.17
599.941	32.11
600.277	32.05
600.614	32.12
600.95	32.61
601.287	32.08
601.623	32.49
601.959	32.35
602.296	32.4
602.632	32.51
602.968	32.45
603.304	32.84
603.64	32.63
603.976	32.48
604.312	32.5
604.648	32.84
604.984	32.46
605.319	32.83
605.655	32.51
605.991	32.6
606.326	32.64
606.662	32.35
606.998	32.91
607.333	32.87
607.668	32.72
608.004	33.22
608.339	32.99
608.674	33.15
609.01	33.29
609.345	33.34
609.68	33.25
610.015	33.44
610.35	33.86
610.685	33.31
611.02	33.14
611.355	33.26
611.689	33.34
612.024	33.77
612.359	33.44
612.694	33.76
613.028	33.85
613.363	33.77
613.697	34
614.032	33.84
614.366	33.82
614.7	34.05
615.035	34.2
615.369	34.29
615.703	34.35
616.037	34.16
616.371	34.06
616.705	34.39
617.039	34.19
617.373	34.35
617.707	34.36
618.041	34.64
618.375	34.25
618.709	34.57
619.042	34.77
619.376	34.85
619.71	34.87
620.043	35.21
620.377	34.5
620.71	34.76
621.043	34.98
621.377	35.11
621.71	34.94
622.043	35.29
622.376	34.86
622.709	35.22
623.043	35.14
623.376	35.33
623.709	35.23
624.041	35.52
624.374	35.36
624.707	35.06
625.04	35.91
625.373	35.67
625.705	35.46
626.038	35.42
626.37	35.51
626.703	35.45
627.035	35.78
627.368	35.44
627.7	35.35
628.032	35.64
628.365	35.7
628.697	36.03
629.029	35.53
629.361	35.84
629.693	35.57
630.025	35.58
630.357	36.12
630.689	35.79
631.021	36.11
631.353	35.99
631.684	36.21
632.016	36.25
632.348	36.27
632.679	36.38
633.011	36.17
633.342	36.07
633.674	36.01
634.005	36.45
634.336	36.43
634.668	36.81
634.999	36.44
635.33	36.55
635.661	36.36
635.992	36.42
636.323	36.57
636.654	36.76
636.985	36.85
637.316	36.95
637.647	37.17
637.977	36.95
638.308	37.19
638.639	37.12
638.969	37.29
639.3	37.12
639.63	37.52
639.961	37.04
640.291	36.77
640.622	37.43
640.952	37.59
641.282	37.54
641.612	37.12
641.943	37.43
642.273	37.7
642.603	37.74
642.933	37.86
643.263	37.93
643.592	37.98
643.922	37.73
644.252	37.73
644.582	38.08
644.911	38.04
645.241	37.94
645.571	37.75
645.9	38.56
646.23	38.08
646.559	38.28
646.888	38.36
647.218	38.01
647.547	38.42
647.876	37.91
648.205	38.1
648.534	38.44
648.863	38.38
649.192	38.5
649.521	38.82
649.85	38.09
650.179	38.58
650.508	38.49
650.837	38.98
651.165	38.67
651.494	38.39
651.822	38.37
652.151	38.59
652.479	39.43
652.808	38.47
653.136	39.14
653.465	38.74
653.793	38.93
654.121	38.52
654.449	39.1
654.777	39.04
655.105	38.77
655.433	39.16
655.761	39.26
656.089	38.84
656.417	39.33
656.745	39.71
657.073	39
657.4	39.14
657.728	39.24
658.056	39.39
658.383	39.45
658.711	39.4
659.038	39.6
659.365	39.4
659.693	39.48
660.02	39.31
660.347	39.5
660.674	39.36
661.001	39.4
661.329	39.69
661.656	39.41
661.982	40.22
662.309	39.85
662.636	39.73
662.963	39.99
663.29	40.06
663.616	39.63
663.943	40.44
664.27	40.39
664.596	39.83
664.923	39.97
665.249	40.4
665.576	39.86
665.902	39.9
666.228	40.14
666.554	40.67
666.881	40.5
667.207	40.58
667.533	40.81
667.859	40.62
668.185	40.55
668.511	41.13
668.837	40.6
669.162	40.82
669.488	40.78
669.814	40.62
670.139	40.79
670.465	41.32
670.791	40.98
671.116	41.07
671.442	40.33
671.767	40.93
672.092	40.78
672.418	40.5
672.743	40.25
