Data from 0005_crown_Reflection__3__370.txt Node

Date: Thu Dec 15 19:29:53 CST 2022
User: ToomeyLab
Spectrometer: FLMS14357
Trigger mode: 0
Integration Time (sec): 1.000000E-2
Scans to average: 100
Electric dark correction enabled: true
Nonlinearity correction enabled: false
Boxcar width: 0
XAxis mode: Wavelengths
Number of Pixels in Spectrum: 2048
>>>>>Begin Spectral Data<<<<<
189.047	4.96
189.435	4.96
189.823	4.96
190.211	-130.42
190.599	59.03
190.987	311.62
191.375	28.17
191.763	42.46
192.151	191.61
192.538	-59.04
192.926	175.48
193.314	1436.43
193.702	61.21
194.089	-127.03
194.477	63.65
194.864	388.82
195.252	120.69
195.639	70.5
196.027	53.32
196.414	956.93
196.801	82.12
197.189	639.22
197.576	-61.69
197.963	-100.96
198.351	29.6
198.738	-18.54
199.125	-69.63
199.512	25.95
199.899	-66.98
200.286	-71.15
200.673	23.86
201.06	-17.72
201.447	-2.62
201.833	2.73
202.22	-19.71
202.607	-43.71
202.994	-28.91
203.38	-3.65
203.767	-7.79
204.154	23.53
204.54	15.6
204.927	5.54
205.313	49.83
205.699	19.53
206.086	10.74
206.472	48.79
206.858	9.9
207.245	-13.12
207.631	-6.31
208.017	20.68
208.403	-82.96
208.789	-1.24
209.175	-47.15
209.561	-52.88
209.947	-26.79
210.333	-27.51
210.719	13.53
211.105	46.95
211.491	20.49
211.876	-17.83
212.262	7.89
212.648	5.05
213.034	7.74
213.419	-19.7
213.805	16.95
214.19	-18.47
214.576	-17.61
214.961	-2.12
215.346	-13.83
215.732	13.42
216.117	13.21
216.502	-35.77
216.888	6.84
217.273	16.8
217.658	-0.2
218.043	-49.04
218.428	-31.82
218.813	2.59
219.198	-23.06
219.583	-12.86
219.968	18.34
220.353	-5.94
220.738	-7.04
221.122	-4.8
221.507	-35.52
221.892	-34.32
222.276	-20.48
222.661	-8.51
223.046	-7.1
223.43	13.97
223.815	6.88
224.199	-6.74
224.583	-3.19
224.968	-1.49
225.352	-2.88
225.736	6.47
226.121	0.95
226.505	3.63
226.889	1.01
227.273	-5.39
227.657	5.72
228.041	4.44
228.425	2.71
228.809	2.87
229.193	5.8
229.577	6.47
229.961	6.68
230.344	6.28
230.728	6.53
231.112	7.16
231.495	4.97
231.879	5.58
232.263	4.9
232.646	5.63
233.03	7.13
233.413	4.76
233.797	3.12
234.18	4.36
234.563	3.5
234.946	5.17
235.33	5.55
235.713	5.9
236.096	6.29
236.479	5.91
236.862	3.37
237.245	3.55
237.628	5.27
238.011	6.34
238.394	4.81
238.777	4.92
239.16	6.22
239.543	5.39
239.925	5
240.308	3.22
240.691	4.72
241.073	4.07
241.456	5.28
241.838	5.71
242.221	4.7
242.603	6.05
242.986	5.2
243.368	5.93
243.75	5.57
244.133	5.9
244.515	5.81
244.897	5.29
245.279	4.67
245.661	4.64
246.043	5.22
246.425	5.78
246.807	4.41
247.189	4.67
247.571	4.51
247.953	5.19
248.335	5.46
248.717	5.35
249.098	5.44
249.48	5.34
249.862	5.27
250.243	5.38
250.625	5.24
251.006	5.35
251.388	5.7
251.769	3.86
252.151	4.89
252.532	4.51
252.913	4.99
253.295	4.57
253.676	4.92
254.057	5.23
254.438	4.74
254.819	5.53
255.2	5.12
255.581	5.35
255.962	4.81
256.343	5.28
256.724	4.2
257.105	4.35
257.486	3.5
257.867	4.61
258.247	4.94
258.628	4.98
259.009	4.05
259.389	3.77
259.77	4.75
260.15	5.37
260.531	4.66
260.911	4.66
261.292	4.97
261.672	4.85
262.052	5.15
262.432	4.86
262.813	5.31
263.193	5.25
263.573	4.79
263.953	4.59
264.333	4.9
264.713	4.92
265.093	4.4
265.473	5.63
265.853	5.11
266.233	4.68
266.612	4.63
266.992	4.29
267.372	4.74
267.752	4.94
268.131	4.41
268.511	4.47
268.89	5.02
269.27	4.25
269.649	4.46
270.029	4.36
270.408	4.05
270.787	4.57
271.167	4.67
271.546	5.21
271.925	4.61
272.304	4.44
272.683	4.46
273.062	4.89
273.441	4.16
273.82	4.6
274.199	4.44
274.578	4.58
274.957	4.46
275.336	4.68
275.715	5.18
276.093	4.47
276.472	4.47
276.851	4.6
277.229	4.55
277.608	4.28
277.986	4.33
278.365	4.96
278.743	4.68
279.122	4.65
279.5	4.71
279.878	4.41
280.257	4.65
280.635	4.31
281.013	3.51
281.391	4.27
281.769	4.48
282.147	4.45
282.525	3.78
282.903	4.07
283.281	4.55
283.659	4.9
284.037	4.41
284.415	4.27
284.792	4.31
285.17	4.19
285.548	4.45
285.925	4.39
286.303	4.82
286.68	4.62
287.058	4.54
287.435	4.26
287.813	4.25
288.19	4.04
288.567	4.3
288.945	4.17
289.322	4.02
289.699	4.86
290.076	3.75
290.453	3.81
290.83	4.34
291.207	4.12
291.584	4.56
291.961	4.18
292.338	4.25
292.715	4.29
293.092	4.76
293.469	4.42
293.845	4.19
294.222	4.48
294.599	3.71
294.975	3.8
295.352	4.27
295.728	4.28
296.105	4.03
296.481	4.14
296.858	4.32
297.234	4.06
297.61	4.22
297.986	4.47
298.363	4.3
298.739	4.68
299.115	4.41
299.491	4.52
299.867	4.49
300.243	4.12
300.619	3.9
300.995	4.35
301.371	4.47
301.746	4.27
302.122	3.89
302.498	3.95
302.874	4.2
303.249	3.72
303.625	4
304	4.52
304.376	4.48
304.751	4.22
305.127	4.26
305.502	4.55
305.878	4.26
306.253	3.6
306.628	3.96
307.003	3.98
307.378	4.6
307.754	4.08
308.129	4.16
308.504	4
308.879	3.89
309.254	4.63
309.629	4.61
310.003	4.4
310.378	4.5
310.753	3.97
311.128	4.17
311.502	4.17
311.877	3.82
312.252	4.24
312.626	4.53
313.001	4.41
313.375	4.35
313.75	4.24
314.124	4.31
314.498	4.19
314.873	3.65
315.247	3.86
315.621	3.44
315.995	3.98
316.369	3.62
316.743	3.87
317.117	3.96
317.491	4.15
317.865	3.51
318.239	4.44
318.613	3.59
318.987	3.41
319.361	4.3
319.734	3.61
320.108	4.32
320.482	4.16
320.855	3.65
321.229	3.89
321.602	3.73
321.976	3.73
322.349	4.37
322.723	4.06
323.096	4.09
323.469	3.55
323.843	3.52
324.216	3.71
324.589	4.3
324.962	4.02
325.335	4.05
325.708	3.72
326.081	4.47
326.454	4.22
326.827	4.54
327.2	3.75
327.573	4.2
327.945	3.73
328.318	3.74
328.691	4.31
329.063	3.48
329.436	3.43
329.809	3.97
330.181	4.91
330.553	4.5
330.926	4.93
331.298	3.91
331.671	4.43
332.043	3.88
332.415	4.04
332.787	4.25
333.159	4.22
333.532	4.06
333.904	3.91
334.276	4.27
334.648	4.31
335.02	4
335.391	4.46
335.763	4.37
336.135	4.32
336.507	3.73
336.879	3.62
337.25	4.02
337.622	4.11
337.993	4.01
338.365	4.06
338.736	3.79
339.108	4.29
339.479	4.2
339.851	4.35
340.222	4.59
340.593	4.1
340.964	4.16
341.336	4
341.707	3.92
342.078	4.38
342.449	3.99
342.82	4.43
343.191	4.15
343.562	4.1
343.933	3.97
344.303	4.04
344.674	4.29
345.045	4.44
345.416	4.56
345.786	4.41
346.157	4.49
346.527	3.91
346.898	4.02
347.268	4.32
347.639	3.9
348.009	4.47
348.38	4.04
348.75	4.15
349.12	4.42
349.49	4.34
349.861	4.37
350.231	4.03
350.601	4.06
350.971	4.25
351.341	4.21
351.711	4.38
352.081	4.16
352.45	3.95
352.82	3.91
353.19	3.81
353.56	4.18
353.929	4.3
354.299	4.17
354.669	4.29
355.038	4.69
355.408	4.32
355.777	4.49
356.147	4.47
356.516	4.2
356.885	4.29
357.254	4.06
357.624	4.12
357.993	4.43
358.362	4.41
358.731	4.64
359.1	4.59
359.469	4.73
359.838	4.26
360.207	4.2
360.576	4.57
360.945	4.58
361.314	4.46
361.682	4.06
362.051	4.41
362.42	4.41
362.788	4.5
363.157	4.38
363.525	4.48
363.894	4.3
364.262	4.36
364.631	4.81
364.999	4.72
365.367	4.03
365.735	4.28
366.104	4.3
366.472	4.57
366.84	4.29
367.208	4.62
367.576	4.3
367.944	4.53
368.312	4.52
368.68	4.52
369.048	4.53
369.416	4.41
369.783	4.13
370.151	4.68
370.519	5.09
370.886	4.44
371.254	4.66
371.621	4.71
371.989	4.48
372.356	4.57
372.724	4.65
373.091	4.14
373.458	4.38
373.826	4.73
374.193	4.68
374.56	4.42
374.927	4.32
375.294	4.69
375.661	4.57
376.028	4.72
376.395	4.93
376.762	4.56
377.129	4.43
377.496	4.64
377.863	4.65
378.229	4.52
378.596	4.71
378.963	4.69
379.329	4.66
379.696	4.46
380.062	4.65
380.429	4.33
380.795	4.65
381.161	4.28
381.528	4.39
381.894	4.72
382.26	4.69
382.626	4.51
382.993	4.88
383.359	4.48
383.725	4.23
384.091	4.74
384.457	4.59
384.823	4.55
385.188	4.65
385.554	4.76
385.92	4.44
386.286	4.46
386.651	4.57
387.017	4.93
387.383	4.5
387.748	4.75
388.114	4.86
388.479	4.56
388.845	4.7
389.21	4.79
389.575	5.08
389.94	4.79
390.306	4.66
390.671	4.77
391.036	4.46
391.401	4.56
391.766	4.68
392.131	4.73
392.496	4.62
392.861	4.72
393.226	4.68
393.591	4.68
393.956	4.81
394.32	4.73
394.685	4.46
395.05	4.66
395.414	4.71
395.779	4.89
396.143	4.59
396.508	4.71
396.872	4.64
397.236	4.87
397.601	5.01
397.965	4.77
398.329	4.69
398.694	4.76
399.058	4.54
399.422	4.56
399.786	4.63
400.15	4.52
400.514	4.71
400.878	4.71
401.242	4.87
401.605	4.53
401.969	4.49
402.333	4.52
402.697	4.86
403.06	4.55
403.424	4.78
403.787	4.76
404.151	4.91
404.514	4.69
404.878	4.7
405.241	4.83
405.604	4.61
405.968	4.73
406.331	4.68
406.694	4.73
407.057	4.76
407.42	4.69
407.783	4.82
408.146	4.58
408.509	4.89
408.872	4.63
409.235	4.73
409.598	4.82
409.961	4.89
410.323	4.61
410.686	4.78
411.049	4.78
411.411	4.62
411.774	4.72
412.136	4.66
412.499	4.88
412.861	4.33
413.223	4.63
413.586	4.88
413.948	4.83
414.31	4.83
414.672	4.52
415.035	4.84
415.397	4.8
415.759	4.6
416.121	4.91
416.483	4.79
416.845	4.82
417.206	4.77
417.568	4.69
417.93	4.68
418.292	4.6
418.653	4.66
419.015	4.71
419.377	4.66
419.738	4.79
420.1	4.75
420.461	4.65
420.822	4.67
421.184	4.74
421.545	4.68
421.906	4.71
422.267	4.7
422.629	4.59
422.99	4.67
423.351	4.6
423.712	4.77
424.073	4.76
424.434	4.8
424.795	4.7
425.155	4.55
425.516	4.57
425.877	4.66
426.238	4.56
426.598	4.73
426.959	4.71
427.32	4.62
427.68	4.76
428.041	4.75
428.401	4.63
428.761	4.85
429.122	4.73
429.482	4.7
429.842	4.77
430.202	4.71
430.563	4.82
430.923	4.7
431.283	4.87
431.643	4.96
432.003	4.88
432.363	4.95
432.722	4.89
433.082	4.63
433.442	4.8
433.802	4.92
434.161	4.79
434.521	4.75
434.881	4.59
435.24	4.62
435.6	4.78
435.959	4.79
436.319	4.64
436.678	4.77
437.037	4.73
437.396	4.82
437.756	4.64
438.115	4.65
438.474	4.79
438.833	4.68
439.192	4.63
439.551	4.74
439.91	4.73
440.269	4.71
440.628	4.74
440.987	4.89
441.345	4.67
441.704	4.69
442.063	4.63
442.421	4.75
442.78	4.74
443.138	4.68
443.497	4.68
443.855	4.78
444.214	4.61
444.572	4.81
444.93	4.67
445.288	4.7
445.647	4.5
446.005	4.65
446.363	4.7
446.721	4.72
447.079	4.66
447.437	4.66
447.795	4.69
448.153	4.61
448.51	4.73
448.868	4.62
449.226	4.68
449.584	4.67
449.941	4.73
450.299	4.47
450.656	4.74
451.014	4.78
451.371	4.67
451.729	4.8
452.086	4.72
452.443	4.77
452.801	4.64
453.158	4.89
453.515	4.79
453.872	4.74
454.229	4.68
454.586	4.68
454.943	4.73
455.3	4.82
455.657	4.83
456.014	4.72
456.371	4.81
456.727	4.9
457.084	4.84
457.441	4.79
457.797	4.82
458.154	4.76
458.51	4.78
458.867	4.81
459.223	4.58
459.58	4.9
459.936	4.78
460.292	4.64
460.648	4.6
461.005	4.63
461.361	4.63
461.717	4.61
462.073	4.72
462.429	4.74
462.785	4.82
463.141	4.71
463.496	4.7
463.852	4.66
464.208	4.7
464.564	4.8
464.919	4.83
465.275	4.71
465.631	4.81
465.986	4.97
466.342	4.69
466.697	4.77
467.052	5.05
467.408	4.91
467.763	4.71
468.118	4.76
468.473	4.83
468.829	4.71
469.184	4.76
469.539	4.63
469.894	4.81
470.249	4.86
470.603	4.87
470.958	4.96
471.313	4.91
471.668	4.79
472.023	4.76
472.377	4.72
472.732	4.8
473.086	4.65
473.441	4.81
473.795	5
474.15	4.76
474.504	4.85
474.859	4.66
475.213	4.72
475.567	4.59
475.921	4.84
476.275	4.89
476.63	4.78
476.984	4.72
477.338	4.86
477.692	4.65
478.045	4.76
478.399	4.69
478.753	4.74
479.107	4.86
479.461	4.7
479.814	4.77
480.168	4.65
480.521	4.75
480.875	4.8
481.228	4.74
481.582	4.61
481.935	4.87
482.289	4.79
482.642	4.84
482.995	4.65
483.348	4.73
483.701	4.73
484.055	4.62
484.408	4.64
484.761	4.53
485.114	4.4
485.466	4.4
485.819	4.43
486.172	4.51
486.525	4.54
486.878	4.57
487.23	4.63
487.583	4.61
487.936	4.57
488.288	4.55
488.641	4.48
488.993	4.46
489.345	4.51
489.698	4.47
490.05	4.54
490.402	4.54
490.754	4.53
491.107	4.6
491.459	4.75
491.811	4.67
492.163	4.57
492.515	4.6
492.866	4.48
493.218	4.47
493.57	4.57
493.922	4.57
494.274	4.71
494.625	4.74
494.977	4.66
495.328	4.7
495.68	4.73
496.031	4.83
496.383	4.61
496.734	4.64
497.086	4.76
497.437	4.74
497.788	4.77
498.139	4.74
498.49	4.77
498.842	4.67
499.193	4.66
499.544	4.67
499.894	4.72
500.245	4.78
500.596	4.74
500.947	4.65
501.298	4.74
501.648	4.8
501.999	4.86
502.35	4.57
502.7	4.85
503.051	4.79
503.401	4.69
503.752	4.72
504.102	4.68
504.452	4.65
504.803	4.75
505.153	4.73
505.503	4.67
505.853	4.84
506.203	4.66
506.553	4.76
506.903	4.72
507.253	4.7
507.603	4.58
507.953	4.81
508.303	4.71
508.652	4.58
509.002	4.73
509.352	4.76
509.701	4.59
510.051	4.73
510.4	4.77
510.75	4.58
511.099	4.67
511.449	4.78
511.798	4.66
512.147	4.69
512.496	4.79
512.846	4.76
513.195	4.68
513.544	4.75
513.893	4.65
514.242	4.68
514.591	4.65
514.939	4.7
515.288	4.74
515.637	4.69
515.986	4.69
516.334	4.68
516.683	4.73
517.032	4.59
517.38	4.65
517.729	4.71
518.077	4.64
518.426	4.76
518.774	4.59
519.122	4.72
519.47	4.69
519.819	4.69
520.167	4.58
520.515	4.61
520.863	4.6
521.211	4.65
521.559	4.65
521.907	4.67
522.255	4.66
522.602	4.79
522.95	4.82
523.298	4.65
523.645	4.76
523.993	4.73
524.341	4.76
524.688	4.7
525.036	4.72
525.383	4.67
525.73	4.54
526.078	4.71
526.425	4.64
526.772	4.62
527.119	4.62
527.466	4.67
527.814	4.57
528.161	4.63
528.508	4.71
528.854	4.64
529.201	4.53
529.548	4.52
529.895	4.43
530.242	4.41
530.588	4.45
530.935	4.46
531.282	4.5
531.628	4.5
531.975	4.55
532.321	4.63
532.667	4.61
533.014	4.68
533.36	4.58
533.706	4.64
534.052	4.69
534.399	4.59
534.745	4.46
535.091	4.48
535.437	4.54
535.783	4.54
536.129	4.57
536.474	4.63
536.82	4.74
537.166	4.61
537.512	4.67
537.857	4.65
538.203	4.61
538.549	4.68
538.894	4.63
539.239	4.72
539.585	4.68
539.93	4.82
540.276	4.71
540.621	4.69
540.966	4.71
541.311	4.66
541.656	4.59
542.001	4.51
542.346	4.5
542.691	4.49
543.036	4.44
543.381	4.48
543.726	4.59
544.071	4.57
544.415	4.62
544.76	4.58
545.105	4.51
545.449	4.52
545.794	4.65
546.138	4.62
546.483	4.64
546.827	4.57
547.171	4.78
547.516	4.68
547.86	4.72
548.204	4.72
548.548	4.64
548.892	4.64
549.236	4.57
549.58	4.68
549.924	4.79
550.268	4.67
550.612	4.76
550.956	4.77
551.3	4.89
551.643	4.58
551.987	4.84
552.33	4.8
552.674	4.74
553.017	4.71
553.361	4.74
553.704	4.69
554.048	4.71
554.391	4.82
554.734	4.69
555.077	4.6
555.42	4.67
555.764	4.64
556.107	4.78
556.45	4.73
556.793	4.9
557.135	4.85
557.478	4.66
557.821	4.78
558.164	4.8
558.507	4.69
558.849	4.85
559.192	4.78
559.534	4.76
559.877	4.78
560.219	4.77
560.562	4.78
560.904	4.93
561.246	4.63
561.589	4.86
561.931	4.66
562.273	4.67
562.615	4.65
562.957	4.74
563.299	4.78
563.641	4.73
563.983	4.56
564.325	4.7
564.667	4.65
565.008	4.7
565.35	4.64
565.692	4.7
566.033	4.73
566.375	4.61
566.716	4.54
567.058	4.63
567.399	4.71
567.741	4.72
568.082	4.64
568.423	4.5
568.764	4.61
569.105	4.63
569.447	4.64
569.788	4.73
570.129	4.62
570.47	4.62
570.811	4.53
571.151	4.62
571.492	4.61
571.833	4.64
572.174	4.61
572.514	4.72
572.855	4.82
573.195	4.52
573.536	4.74
573.876	4.63
574.217	4.62
574.557	4.61
574.898	4.65
575.238	4.74
575.578	4.82
575.918	4.73
576.258	4.89
576.598	4.66
576.938	4.48
577.278	4.71
577.618	4.64
577.958	4.78
578.298	4.78
578.638	4.7
578.977	4.68
579.317	4.75
579.657	4.66
579.996	4.84
580.336	4.77
580.675	4.7
581.014	4.88
581.354	4.48
581.693	4.83
582.032	4.79
582.372	4.79
582.711	4.86
583.05	4.73
583.389	4.85
583.728	4.79
584.067	4.62
584.406	4.95
584.745	4.63
585.083	4.61
585.422	4.77
585.761	4.79
586.1	4.73
586.438	4.77
586.777	4.76
587.115	4.78
587.454	4.53
587.792	4.78
588.13	4.74
588.469	4.67
588.807	4.72
589.145	4.73
589.483	4.48
589.821	4.59
590.159	4.69
590.497	4.79
590.835	4.74
591.173	4.88
591.511	4.92
591.849	4.78
592.187	4.59
592.524	4.7
592.862	4.76
593.2	4.85
593.537	4.54
593.875	4.66
594.212	4.53
594.55	4.66
594.887	4.9
595.224	4.93
595.561	4.54
595.899	4.7
596.236	4.81
596.573	4.5
596.91	4.83
597.247	4.87
597.584	4.89
597.921	4.55
598.258	4.78
598.594	4.73
598.931	4.53
599.268	4.75
599.604	4.83
599.941	4.76
600.277	4.7
600.614	4.64
600.95	4.66
601.287	4.45
601.623	4.48
601.959	4.84
602.296	4.6
602.632	4.48
602.968	4.86
603.304	4.66
603.64	4.4
603.976	4.52
604.312	4.55
604.648	4.69
604.984	4.83
605.319	4.79
605.655	4.5
605.991	4.64
606.326	4.62
606.662	4.44
606.998	4.7
607.333	4.65
607.668	4.49
608.004	4.52
608.339	4.53
608.674	4.69
609.01	4.82
609.345	4.68
609.68	4.55
610.015	4.74
610.35	4.81
610.685	4.49
611.02	4.5
611.355	4.74
611.689	4.72
612.024	4.69
612.359	4.61
612.694	4.83
613.028	4.59
613.363	4.63
613.697	4.71
614.032	4.53
614.366	4.31
614.7	4.72
615.035	4.9
615.369	4.69
615.703	4.77
616.037	4.63
616.371	4.52
616.705	4.74
617.039	4.65
617.373	4.93
617.707	4.6
618.041	4.53
618.375	4.14
618.709	4.82
619.042	4.93
619.376	4.63
619.71	4.74
620.043	5
620.377	4.84
620.71	4.75
621.043	4.65
621.377	4.68
621.71	5.2
622.043	4.62
622.376	4.53
622.709	5.05
623.043	4.64
623.376	4.47
623.709	5.01
624.041	4.4
624.374	4.65
624.707	4.7
625.04	4.61
625.373	4.83
625.705	4.97
626.038	5.01
626.37	4.51
626.703	4.68
627.035	4.73
627.368	4.69
627.7	4.79
628.032	4.47
628.365	4.89
628.697	5
629.029	4.62
629.361	4.81
629.693	4.67
630.025	4.67
630.357	4.75
630.689	4.82
631.021	4.76
631.353	4.86
631.684	4.65
632.016	4.61
632.348	4.67
632.679	5.07
633.011	4.96
633.342	4.63
633.674	4.56
634.005	4.79
634.336	4.87
634.668	4.54
634.999	4.56
635.33	4.71
635.661	4.66
635.992	4.86
636.323	4.81
636.654	4.72
636.985	4.84
637.316	4.51
637.647	4.99
637.977	4.49
638.308	4.71
638.639	4.74
638.969	4.63
639.3	4.78
639.63	4.61
639.961	5.11
640.291	4.47
640.622	4.68
640.952	4.45
641.282	4.53
641.612	4.75
641.943	4.3
642.273	4.52
642.603	4.79
642.933	4.82
643.263	4.71
643.592	4.93
643.922	4.88
644.252	4.62
644.582	5.09
644.911	4.71
645.241	4.6
645.571	4.5
645.9	4.63
646.23	5.05
646.559	4.52
646.888	5.37
647.218	4.45
647.547	4.61
647.876	4.52
648.205	4.31
648.534	4.61
648.863	4.75
649.192	4.98
649.521	4.51
649.85	5.02
650.179	5
650.508	4.65
650.837	5.11
651.165	4.7
651.494	4.35
651.822	4.52
652.151	4.36
652.479	4.89
652.808	4.78
653.136	4.44
653.465	4.8
653.793	4.64
654.121	4.57
654.449	4.51
654.777	4.4
655.105	4.5
655.433	5.03
655.761	5.07
656.089	4.62
656.417	4.89
656.745	5.08
657.073	4.5
657.4	4.36
657.728	4.72
658.056	5.1
658.383	4.61
658.711	4.51
659.038	4.85
659.365	5.07
659.693	5.09
660.02	4.59
660.347	4.68
660.674	4.46
661.001	4.69
661.329	4.56
661.656	4.34
661.982	4.6
662.309	4.75
662.636	4.89
662.963	4.73
663.29	5.02
663.616	4.48
663.943	4.56
664.27	4.79
664.596	4.48
664.923	5.09
665.249	5.15
665.576	4.55
665.902	4.63
666.228	4.95
666.554	5.05
666.881	4.34
667.207	4.79
667.533	4.84
667.859	4.58
668.185	4.82
668.511	5.05
668.837	5.18
669.162	4.74
669.488	4.66
669.814	4.74
670.139	4.23
670.465	5.15
670.791	4.19
671.116	4.58
671.442	4.29
671.767	4.75
672.092	4.57
672.418	4.82
672.743	4.41
673.068	4.88
673.393	4.12
673.718	4.54
674.043	4.23
674.368	4.64
674.693	4.19
675.018	5.53
675.343	4.9
675.667	4.86
675.992	4.78
676.317	3.88
676.641	4.96
676.966	4.97
677.29	4.41
677.615	4.52
677.939	4.31
678.264	4.62
678.588	5.02
678.912	4.8
679.236	4.49
679.56	4.53
679.885	4.02
680.209	4.94
680.532	5.2
680.856	5.61
681.18	5.33
681.504	4.5
681.828	4.95
682.152	4.97
682.475	4.99
682.799	4.6
683.122	4.84
683.446	4.1
683.769	5.18
684.093	5.21
684.416	4.88
684.739	4.77
685.062	4.61
685.386	5.23
685.709	5.11
686.032	5.14
686.355	4.67
686.678	5.57
687.001	4.95
687.324	4.98
687.646	4.76
687.969	4.22
688.292	4.74
688.614	4.73
688.937	5.39
689.26	5.09
689.582	4.57
689.904	5.14
690.227	4.84
690.549	5.19
690.871	4.95
691.194	4.24
691.516	4.37
691.838	5.73
692.16	4.32
