Data from 0005_crown_Reflection__1__368.txt Node

Date: Thu Dec 15 19:29:34 CST 2022
User: ToomeyLab
Spectrometer: FLMS14357
Trigger mode: 0
Integration Time (sec): 1.000000E-2
Scans to average: 100
Electric dark correction enabled: true
Nonlinearity correction enabled: false
Boxcar width: 0
XAxis mode: Wavelengths
Number of Pixels in Spectrum: 2048
>>>>>Begin Spectral Data<<<<<
189.047	48.64
189.435	48.64
189.823	48.64
190.211	-69.89
190.599	54.98
190.987	-90.18
191.375	45.8
191.763	43.31
192.151	119.74
192.538	-6.33
192.926	-42.23
193.314	1333.85
193.702	80.47
194.089	216.86
194.477	-1.24
194.864	329.99
195.252	69.1
195.639	19.64
196.027	-263.2
196.414	-1.85
196.801	-48.3
197.189	690.74
197.576	22.96
197.963	-321.89
198.351	17.23
198.738	-53.61
199.125	-38.03
199.512	14.98
199.899	-88.64
200.286	-45.45
200.673	0.22
201.06	-49.67
201.447	-33.76
201.833	-37.32
202.22	-51.57
202.607	-53.57
202.994	-5.46
203.38	-12.57
203.767	-22.17
204.154	4.51
204.54	12.08
204.927	-9.33
205.313	48.5
205.699	10.41
206.086	19.84
206.472	-5.35
206.858	1.47
207.245	6.64
207.631	14.18
208.017	23.29
208.403	-39.34
208.789	5.51
209.175	10.39
209.561	-134.47
209.947	-71.71
210.333	-22.07
210.719	-33.5
211.105	12.85
211.491	-7.28
211.876	1.67
212.262	13.74
212.648	3.78
213.034	-3.74
213.419	6.4
213.805	-65.07
214.19	-53.75
214.576	-82.08
214.961	-26.9
215.346	-37.1
215.732	-7.99
216.117	18.58
216.502	-80.63
216.888	-0.31
217.273	-23.34
217.658	-5.7
218.043	-58.71
218.428	-28.49
218.813	-12.46
219.198	-45.18
219.583	-31.01
219.968	3.43
220.353	-21.78
220.738	-28.91
221.122	0.1
221.507	-8.47
221.892	-36.13
222.276	-17.1
222.661	-29.48
223.046	-13.51
223.43	6.15
223.815	10.71
224.199	0.26
224.583	-7.29
224.968	-3.85
225.352	-14.28
225.736	13.51
226.121	6.04
226.505	-4.99
226.889	5.35
227.273	-2.64
227.657	7.28
228.041	6.84
228.425	4.15
228.809	1.98
229.193	7.97
229.577	6.3
229.961	6.99
230.344	8.18
230.728	8.09
231.112	8.37
231.495	6.6
231.879	7.53
232.263	8.29
232.646	6.79
233.03	9.79
233.413	8.73
233.797	6.19
234.18	4.79
234.563	6.62
234.946	5.09
235.33	6.88
235.713	6.57
236.096	6.84
236.479	7.49
236.862	5.42
237.245	6.1
237.628	7.6
238.011	7.51
238.394	5.6
238.777	7.67
239.16	6.35
239.543	8.41
239.925	7.54
240.308	5.37
240.691	6.03
241.073	5.14
241.456	6.96
241.838	5.92
242.221	7.08
242.603	7.18
242.986	7.71
243.368	7.76
243.75	7.31
244.133	7.8
244.515	7.39
244.897	6.93
245.279	7
245.661	7.17
246.043	7.01
246.425	6.87
246.807	6.58
247.189	6.8
247.571	7.33
247.953	6.9
248.335	7.19
248.717	7.33
249.098	7.3
249.48	6.98
249.862	6.83
250.243	7.04
250.625	6.86
251.006	7.76
251.388	6.66
251.769	6.2
252.151	6.41
252.532	6.09
252.913	6.4
253.295	6.67
253.676	6.88
254.057	6.84
254.438	6.38
254.819	6.39
255.2	6.91
255.581	6.89
255.962	6.23
256.343	7.01
256.724	6.02
257.105	5.93
257.486	4.94
257.867	6.09
258.247	7.39
258.628	6.46
259.009	5.75
259.389	5.61
259.77	5.92
260.15	6.96
260.531	6.48
260.911	6.51
261.292	6.44
261.672	6.57
262.052	6.64
262.432	6.27
262.813	6.08
263.193	6.29
263.573	6.42
263.953	6.27
264.333	5.54
264.713	5.71
265.093	5.86
265.473	6.75
265.853	5.91
266.233	5.74
266.612	5.8
266.992	5.83
267.372	6.38
267.752	6.37
268.131	6.41
268.511	5.32
268.89	6.74
269.27	5.68
269.649	6.06
270.029	5.76
270.408	5.9
270.787	6.29
271.167	6.38
271.546	6.23
271.925	5.9
272.304	6.09
272.683	5.69
273.062	6
273.441	5.46
273.82	6.04
274.199	5.81
274.578	6.17
274.957	6.31
275.336	6.46
275.715	5.85
276.093	5.87
276.472	5.66
276.851	5.78
277.229	5.65
277.608	5.46
277.986	5.97
278.365	5.96
278.743	5.49
279.122	5.54
279.5	5.74
279.878	5.93
280.257	5.61
280.635	5.74
281.013	5.49
281.391	6.12
281.769	5.93
282.147	5.79
282.525	5.74
282.903	5.51
283.281	5.98
283.659	6.04
284.037	5.78
284.415	5.53
284.792	5.82
285.17	5.54
285.548	5.62
285.925	5.7
286.303	6.25
286.68	5.65
287.058	6.09
287.435	5.6
287.813	5.64
288.19	5.37
288.567	5.66
288.945	5.4
289.322	5.7
289.699	5.48
290.076	5.5
290.453	5.07
290.83	5.24
291.207	5.57
291.584	5.45
291.961	5.59
292.338	5.32
292.715	5.26
293.092	5.68
293.469	5.37
293.845	5.28
294.222	6.04
294.599	4.86
294.975	4.91
295.352	5.45
295.728	5.1
296.105	5.68
296.481	5.29
296.858	5.64
297.234	4.82
297.61	5.13
297.986	5.37
298.363	5.37
298.739	5.48
299.115	5.29
299.491	5.41
299.867	5.08
300.243	5
300.619	5.27
300.995	5.14
301.371	5.66
301.746	5.4
302.122	4.92
302.498	5.1
302.874	5.24
303.249	5.22
303.625	4.79
304	5.32
304.376	5.6
304.751	5.05
305.127	5.03
305.502	5.65
305.878	5.5
306.253	5
306.628	5.28
307.003	4.99
307.378	5.11
307.754	5.24
308.129	4.91
308.504	4.78
308.879	4.86
309.254	5.33
309.629	5.28
310.003	5.15
310.378	5.3
310.753	5.35
311.128	5.05
311.502	5.35
311.877	5.11
312.252	5.2
312.626	5.55
313.001	5.09
313.375	5.01
313.75	5.06
314.124	5.16
314.498	5.29
314.873	4.61
315.247	5.03
315.621	4.85
315.995	4.81
316.369	5.02
316.743	5.06
317.117	5.03
317.491	5.28
317.865	4.95
318.239	5.39
318.613	5.22
318.987	4.5
319.361	4.92
319.734	4.84
320.108	4.89
320.482	4.62
320.855	5.03
321.229	4.96
321.602	5.2
321.976	4.45
322.349	5.32
322.723	4.66
323.096	4.71
323.469	4.63
323.843	4.84
324.216	4.92
324.589	4.92
324.962	4.42
325.335	4.73
325.708	4.8
326.081	5.29
326.454	5.06
326.827	4.94
327.2	4.37
327.573	5.27
327.945	5
328.318	4.91
328.691	4.95
329.063	4.57
329.436	4.75
329.809	5.03
330.181	5.64
330.553	4.68
330.926	5.03
331.298	4.81
331.671	5.06
332.043	4.57
332.415	4.99
332.787	5.09
333.159	4.66
333.532	4.89
333.904	5.33
334.276	5.11
334.648	4.89
335.02	4.85
335.391	4.72
335.763	4.78
336.135	5.19
336.507	4.61
336.879	5.1
337.25	4.68
337.622	5.37
337.993	5.15
338.365	5.14
338.736	5.1
339.108	4.94
339.479	5.14
339.851	5.45
340.222	5.65
340.593	5.29
340.964	5.07
341.336	5.34
341.707	4.75
342.078	5.36
342.449	5
342.82	4.99
343.191	5
343.562	5.23
343.933	4.6
344.303	5.41
344.674	4.69
345.045	4.86
345.416	5.41
345.786	5.05
346.157	5.22
346.527	5.11
346.898	4.64
347.268	5.03
347.639	4.83
348.009	5.15
348.38	5.23
348.75	5.56
349.12	5.32
349.49	5.18
349.861	5.05
350.231	4.96
350.601	4.8
350.971	4.99
351.341	5.14
351.711	5.23
352.081	4.94
352.45	5.03
352.82	4.71
353.19	5.17
353.56	5.03
353.929	5.07
354.299	5.21
354.669	5.32
355.038	5.9
355.408	5.23
355.777	5.6
356.147	5.06
356.516	5.32
356.885	5.34
357.254	4.99
357.624	5.08
357.993	5.46
358.362	5.15
358.731	5.56
359.1	5.37
359.469	5.55
359.838	5.66
360.207	5.44
360.576	5.32
360.945	5.19
361.314	5.42
361.682	5.22
362.051	5.24
362.42	5.46
362.788	5.59
363.157	5.3
363.525	5.47
363.894	5.2
364.262	5.54
364.631	5.71
364.999	5.41
365.367	5.46
365.735	5.4
366.104	5.6
366.472	5.32
366.84	5.32
367.208	5.45
367.576	5.38
367.944	5.45
368.312	5.3
368.68	5.71
369.048	5.29
369.416	5.14
369.783	5.81
370.151	5.58
370.519	5.68
370.886	5.66
371.254	5.85
371.621	5.82
371.989	5.82
372.356	5.79
372.724	5.68
373.091	5.38
373.458	5.28
373.826	5.77
374.193	5.43
374.56	5.63
374.927	5.54
375.294	5.69
375.661	5.63
376.028	5.49
376.395	5.57
376.762	5.46
377.129	5.58
377.496	5.8
377.863	5.65
378.229	5.78
378.596	5.8
378.963	5.69
379.329	5.81
379.696	5.7
380.062	5.7
380.429	5.41
380.795	5.68
381.161	5.64
381.528	5.37
381.894	5.62
382.26	5.58
382.626	5.86
382.993	5.95
383.359	5.51
383.725	5.82
384.091	5.55
384.457	5.53
384.823	6.02
385.188	5.59
385.554	5.72
385.92	5.79
386.286	5.81
386.651	5.73
387.017	6.05
387.383	5.83
387.748	5.76
388.114	5.76
388.479	5.61
388.845	5.54
389.21	5.99
389.575	6.09
389.94	5.82
390.306	5.88
390.671	5.89
391.036	5.62
391.401	5.88
391.766	5.7
392.131	6.03
392.496	5.87
392.861	5.85
393.226	5.76
393.591	5.8
393.956	5.84
394.32	6.06
394.685	5.97
395.05	6.04
395.414	5.94
395.779	6.04
396.143	5.86
396.508	5.65
396.872	5.81
397.236	6.08
397.601	5.83
397.965	5.84
398.329	5.94
398.694	5.74
399.058	5.79
399.422	5.6
399.786	5.7
400.15	5.79
400.514	6.02
400.878	5.86
401.242	6.01
401.605	6.03
401.969	5.77
402.333	5.76
402.697	6.14
403.06	6.04
403.424	5.94
403.787	6.01
404.151	6.1
404.514	5.91
404.878	6.04
405.241	6.03
405.604	5.93
405.968	5.8
406.331	5.91
406.694	5.88
407.057	5.94
407.42	5.97
407.783	6.01
408.146	6.1
408.509	6.19
408.872	6.12
409.235	6.07
409.598	6.09
409.961	6.13
410.323	5.91
410.686	5.96
411.049	5.97
411.411	5.82
411.774	6.01
412.136	6.04
412.499	6.11
412.861	5.65
413.223	6.01
413.586	6.24
413.948	6.14
414.31	6.01
414.672	6.01
415.035	6.15
415.397	6.04
415.759	5.72
416.121	6.03
416.483	6.06
416.845	6.03
417.206	5.99
417.568	6
417.93	6.07
418.292	5.96
418.653	5.92
419.015	6.09
419.377	5.84
419.738	6.06
420.1	6.01
420.461	6.01
420.822	5.91
421.184	5.93
421.545	5.97
421.906	5.97
422.267	5.95
422.629	5.91
422.99	5.85
423.351	5.9
423.712	6
424.073	5.9
424.434	6.04
424.795	5.9
425.155	5.95
425.516	5.89
425.877	5.95
426.238	5.99
426.598	5.99
426.959	6.02
427.32	6.01
427.68	6.11
428.041	6.04
428.401	6.07
428.761	6.1
429.122	6
429.482	6.05
429.842	5.95
430.202	6.21
430.563	6
430.923	6.04
431.283	6.15
431.643	6.18
432.003	6.17
432.363	6.17
432.722	6.1
433.082	6.08
433.442	6.26
433.802	6.08
434.161	6.01
434.521	5.98
434.881	6.1
435.24	6.05
435.6	6.19
435.959	6.14
436.319	6
436.678	6.21
437.037	6.11
437.396	6.16
437.756	5.97
438.115	6.02
438.474	6.02
438.833	6.11
439.192	6.13
439.551	5.93
439.91	6.03
440.269	5.92
440.628	6.17
440.987	6
441.345	6.17
441.704	6.17
442.063	6.01
442.421	6.11
442.78	6.08
443.138	6.12
443.497	6
443.855	6.2
444.214	5.82
444.572	6.16
444.93	6.14
445.288	6.02
445.647	5.98
446.005	6.05
446.363	6.02
446.721	6.16
447.079	5.93
447.437	6.05
447.795	6
448.153	6.02
448.51	6.01
448.868	5.95
449.226	6.05
449.584	6.02
449.941	6.12
450.299	6.07
450.656	6.05
451.014	6.1
451.371	6.23
451.729	6.19
452.086	6.13
452.443	6.23
452.801	6.02
453.158	6.14
453.515	6.03
453.872	6.26
454.229	5.97
454.586	6.1
454.943	6.18
455.3	6.19
455.657	6.18
456.014	6.11
456.371	6.18
456.727	6.1
457.084	6.24
457.441	6.17
457.797	6.2
458.154	6.18
458.51	6.16
458.867	6.09
459.223	6.08
459.58	6.23
459.936	6.12
460.292	6.12
460.648	5.96
461.005	6.06
461.361	6.07
461.717	6
462.073	6.05
462.429	6.07
462.785	6.1
463.141	6.21
463.496	6.23
463.852	6.07
464.208	6.03
464.564	6.07
464.919	6.11
465.275	6.07
465.631	6.21
465.986	6.15
466.342	5.97
466.697	6.11
467.052	6.24
467.408	6.26
467.763	6.25
468.118	5.9
468.473	6.08
468.829	5.94
469.184	6.03
469.539	6.17
469.894	6.02
470.249	6.17
470.603	6.32
470.958	6.2
471.313	6.15
471.668	6.13
472.023	6.12
472.377	6.11
472.732	6.29
473.086	6.01
473.441	6.2
473.795	6.4
474.15	5.97
474.504	6.14
474.859	5.9
475.213	6.16
475.567	6.01
475.921	6.19
476.275	6.07
476.63	6.04
476.984	6.15
477.338	6.44
477.692	6.04
478.045	6.14
478.399	6.11
478.753	6.03
479.107	6.23
479.461	6.15
479.814	6.16
480.168	6.16
480.521	6.14
480.875	6.11
481.228	6.2
481.582	6.08
481.935	6.25
482.289	6.13
482.642	6.24
482.995	6.02
483.348	6.05
483.701	6.19
484.055	6.01
484.408	5.96
484.761	5.87
485.114	5.81
485.466	5.78
485.819	5.76
486.172	5.87
486.525	5.85
486.878	5.86
487.23	5.9
487.583	5.95
487.936	6
488.288	5.88
488.641	5.88
488.993	5.89
489.345	5.85
489.698	5.83
490.05	5.83
490.402	5.87
490.754	5.96
491.107	5.92
491.459	6.04
491.811	6.03
492.163	6.01
492.515	5.98
492.866	5.86
493.218	5.91
493.57	5.91
493.922	5.9
494.274	5.94
494.625	6.07
494.977	5.98
495.328	6.05
495.68	6.12
496.031	6.05
496.383	6.1
496.734	6.04
497.086	6.05
497.437	6.2
497.788	6.2
498.139	5.99
498.49	6.11
498.842	6.12
499.193	5.99
499.544	6.03
499.894	5.95
500.245	6.09
500.596	6.06
500.947	6.08
501.298	6.07
501.648	6.03
501.999	6.21
502.35	6.05
502.7	6.22
503.051	6.08
503.401	6.06
503.752	5.96
504.102	6.08
504.452	5.97
504.803	6.07
505.153	6.16
505.503	6.13
505.853	6.11
506.203	6.18
506.553	5.94
506.903	6.15
507.253	6.15
507.603	6.05
507.953	6.11
508.303	6.09
508.652	5.91
509.002	6
509.352	6.02
509.701	5.97
510.051	6.06
510.4	6.15
510.75	5.99
511.099	5.99
511.449	6.06
511.798	6.07
512.147	6.05
512.496	6.12
512.846	6.09
513.195	6.11
513.544	6.11
513.893	6.11
514.242	6.09
514.591	6.06
514.939	6.08
515.288	6.05
515.637	6.09
515.986	6.03
516.334	6.08
516.683	6.19
517.032	6.08
517.38	5.96
517.729	6.03
518.077	5.99
518.426	6.1
518.774	6.13
519.122	6.14
519.47	5.95
519.819	5.95
520.167	5.95
520.515	5.95
520.863	6.07
521.211	5.99
521.559	5.95
521.907	6.03
522.255	5.96
522.602	6.09
522.95	6.07
523.298	6.03
523.645	6.09
523.993	5.99
524.341	6.04
524.688	6.05
525.036	6.05
525.383	5.98
525.73	5.91
526.078	6.12
526.425	6.11
526.772	5.98
527.119	5.91
527.466	5.99
527.814	5.99
528.161	5.99
528.508	6.04
528.854	5.92
529.201	5.9
529.548	5.86
529.895	5.78
530.242	5.74
530.588	5.78
530.935	5.8
531.282	5.77
531.628	5.82
531.975	5.84
532.321	5.93
532.667	5.85
533.014	6.1
533.36	5.87
533.706	5.93
534.052	5.88
534.399	5.97
534.745	5.88
535.091	5.88
535.437	5.81
535.783	5.85
536.129	5.9
536.474	6
536.82	5.86
537.166	5.93
537.512	5.98
537.857	5.91
538.203	6.03
538.549	5.89
538.894	5.9
539.239	5.95
539.585	5.92
539.93	6
540.276	5.94
540.621	6.04
540.966	6.01
541.311	6
541.656	5.92
542.001	5.86
542.346	5.9
542.691	5.85
543.036	5.78
543.381	5.77
543.726	5.9
544.071	5.9
544.415	5.9
544.76	5.85
545.105	5.87
545.449	5.95
545.794	5.88
546.138	5.87
546.483	5.94
546.827	5.91
547.171	5.98
547.516	6.01
547.86	5.88
548.204	5.91
548.548	5.93
548.892	6.04
549.236	5.9
549.58	6.03
549.924	6.03
550.268	6.09
550.612	6.03
550.956	6.02
551.3	6.25
551.643	6
551.987	6.08
552.33	6.25
552.674	5.97
553.017	6.11
553.361	6.11
553.704	6.08
554.048	6.03
554.391	6.11
554.734	5.82
555.077	6.05
555.42	5.99
555.764	6.02
556.107	6.16
556.45	6.18
556.793	6.09
557.135	6.05
557.478	6.11
557.821	6.15
558.164	6.04
558.507	5.94
558.849	6.22
559.192	6.01
559.534	6
559.877	6
560.219	6.02
560.562	5.8
560.904	6.14
561.246	5.85
561.589	6.11
561.931	5.99
562.273	5.98
562.615	5.93
562.957	6.1
563.299	6.08
563.641	5.91
563.983	5.77
564.325	6.05
564.667	5.96
565.008	5.89
565.35	5.77
565.692	6
566.033	6
566.375	6.01
566.716	5.79
567.058	5.92
567.399	5.93
567.741	5.98
568.082	5.91
568.423	5.79
568.764	5.93
569.105	5.93
569.447	5.86
569.788	5.85
570.129	6
570.47	5.86
570.811	5.86
571.151	5.9
571.492	5.86
571.833	5.91
572.174	6.04
572.514	6.1
572.855	5.97
573.195	5.76
573.536	5.94
573.876	5.83
574.217	5.87
574.557	5.97
574.898	5.85
575.238	5.93
575.578	5.89
575.918	5.92
576.258	5.98
576.598	5.76
576.938	5.75
577.278	5.92
577.618	5.9
577.958	5.89
578.298	5.89
578.638	5.97
578.977	5.99
579.317	5.92
579.657	5.84
579.996	5.88
580.336	5.93
580.675	5.85
581.014	5.96
581.354	5.86
581.693	6.14
582.032	6.02
582.372	5.98
582.711	6.03
583.05	5.95
583.389	5.93
583.728	5.91
584.067	5.76
584.406	5.99
584.745	5.79
585.083	6.04
585.422	5.93
585.761	6.04
586.1	6.07
586.438	5.71
586.777	5.81
587.115	6.13
587.454	5.85
587.792	5.81
588.13	6.03
588.469	5.74
588.807	5.76
589.145	5.84
589.483	5.89
589.821	5.93
590.159	5.99
590.497	5.97
590.835	6.14
591.173	6.09
591.511	6.12
591.849	5.87
592.187	5.95
592.524	5.95
592.862	5.76
593.2	5.91
593.537	5.76
593.875	5.79
594.212	5.79
594.55	5.87
594.887	6.01
595.224	5.84
595.561	5.81
595.899	5.94
596.236	6.06
596.573	5.8
596.91	5.77
597.247	6.08
597.584	6.11
597.921	5.93
598.258	5.83
598.594	5.81
598.931	5.72
599.268	5.77
599.604	5.85
599.941	5.76
600.277	5.81
600.614	5.8
600.95	5.7
601.287	5.58
601.623	5.58
601.959	6.06
602.296	5.81
602.632	5.87
602.968	5.9
603.304	6.01
603.64	5.79
603.976	5.56
604.312	5.73
604.648	5.92
604.984	5.87
605.319	5.87
605.655	5.82
605.991	5.81
606.326	5.82
606.662	5.67
606.998	5.87
607.333	5.83
607.668	5.57
608.004	5.68
608.339	5.5
608.674	5.79
609.01	5.97
609.345	5.86
609.68	5.76
610.015	5.73
610.35	5.8
610.685	5.52
611.02	5.66
611.355	5.74
611.689	5.81
612.024	5.87
612.359	5.67
612.694	6.03
613.028	5.57
613.363	5.62
613.697	5.82
614.032	5.58
614.366	5.68
614.7	5.66
615.035	5.58
615.369	5.81
615.703	5.84
616.037	5.55
616.371	5.69
616.705	6.02
617.039	5.93
617.373	5.88
617.707	5.92
618.041	5.65
618.375	5.3
618.709	5.66
619.042	5.83
619.376	5.69
619.71	5.67
620.043	6.03
620.377	5.87
620.71	5.62
621.043	5.79
621.377	5.76
621.71	5.97
622.043	5.87
622.376	5.84
622.709	5.95
623.043	5.27
623.376	5.45
623.709	6.11
624.041	5.82
624.374	5.84
624.707	5.64
625.04	5.62
625.373	5.59
625.705	5.67
626.038	5.6
626.37	5.52
626.703	5.79
627.035	5.71
627.368	6.04
627.7	5.77
628.032	5.88
628.365	5.95
628.697	5.95
629.029	5.79
629.361	5.88
629.693	5.69
630.025	5.74
630.357	5.75
630.689	5.62
631.021	5.89
631.353	5.75
631.684	5.6
632.016	5.63
632.348	5.61
632.679	5.81
633.011	5.51
633.342	5.54
633.674	5.18
634.005	5.5
634.336	6.09
634.668	5.77
634.999	5.57
635.33	5.69
635.661	5.57
635.992	5.72
636.323	5.76
636.654	5.83
636.985	5.52
637.316	5.67
637.647	5.85
637.977	5.93
638.308	5.81
638.639	5.66
638.969	5.85
639.3	5.62
639.63	5.2
639.961	5.72
640.291	5.63
640.622	5.84
640.952	5.84
641.282	5.88
641.612	5.45
641.943	5.11
642.273	5.77
642.603	5.57
642.933	5.86
643.263	5.61
643.592	6.08
643.922	5.99
644.252	5.9
644.582	5.91
644.911	5.61
645.241	5.37
645.571	5.7
645.9	5.98
646.23	6.27
646.559	5.99
646.888	6.04
647.218	5.62
647.547	5.87
647.876	5.97
648.205	5.33
648.534	5.45
648.863	5.35
649.192	5.64
649.521	5.92
649.85	5.62
650.179	6.06
650.508	5.78
650.837	5.76
651.165	5.57
651.494	5.73
651.822	5.62
652.151	5.37
652.479	6.18
652.808	5.5
653.136	5.29
653.465	5.4
653.793	5.05
654.121	5.67
654.449	4.97
654.777	5.28
655.105	5.16
655.433	6.1
655.761	5.66
656.089	5.77
656.417	5.77
656.745	6.01
657.073	5.46
657.4	5.39
657.728	5.23
658.056	5.88
658.383	5.55
658.711	5.85
659.038	5.81
659.365	5.73
659.693	5.6
660.02	5.57
660.347	5.87
660.674	5.36
661.001	5.77
661.329	5.52
661.656	5.17
661.982	5.33
662.309	5.44
662.636	5.83
662.963	5.64
663.29	5.86
663.616	5.44
663.943	5.66
664.27	5.22
664.596	5.33
664.923	6.19
665.249	5.64
665.576	5.24
665.902	5.3
666.228	5.91
666.554	5.9
666.881	4.87
667.207	5.94
667.533	5.59
667.859	5.43
668.185	5.87
668.511	6.01
668.837	5.56
669.162	5.92
669.488	4.97
669.814	5.62
670.139	4.66
670.465	6.08
670.791	5.26
671.116	5.42
671.442	4.83
671.767	5.4
672.092	5.67
672.418	6
672.743	5.46
673.068	5.62
673.393	5.57
673.718	5.38
674.043	5.32
674.368	5.62
674.693	5.79
675.018	5.57
675.343	5.77
675.667	5.66
675.992	5.17
676.317	5
676.641	6.13
676.966	5.89
677.29	4.68
677.615	5.43
677.939	5.59
678.264	5.29
678.588	5.93
678.912	5.83
679.236	5.29
679.56	5.67
679.885	5.16
680.209	6
680.532	6.19
680.856	6.07
681.18	6.22
681.504	5.4
681.828	5.46
682.152	5.81
682.475	5.61
682.799	5.48
683.122	5.38
683.446	4.63
683.769	5.5
684.093	5.59
684.416	4.94
684.739	5.41
685.062	5.73
685.386	5.55
685.709	5.55
686.032	5.86
686.355	4.81
686.678	5.71
687.001	5.79
687.324	5.54
687.646	5.57
687.969	6
688.292	5.46
688.614	5.83
688.937	5.68
689.26	6.07
689.582	5.78
689.904	5.25
690.227	6.36
690.549	5.57
690.871	5.72
691.194	5.15
691.516	5.61
691.838	6.31
692.16	5.76
692.482	5.1
692.804	5.63
693.126	5.38
693.448	5.78
