Data from 0005_chest_Reflection__4__366.txt Node

Date: Thu Dec 15 19:28:38 CST 2022
User: ToomeyLab
Spectrometer: FLMS14357
Trigger mode: 0
Integration Time (sec): 1.000000E-2
Scans to average: 100
Electric dark correction enabled: true
Nonlinearity correction enabled: false
Boxcar width: 0
XAxis mode: Wavelengths
Number of Pixels in Spectrum: 2048
>>>>>Begin Spectral Data<<<<<
189.047	-5.13
189.435	-5.13
189.823	-5.13
190.211	136.59
190.599	104.67
190.987	42.45
191.375	-195.78
191.763	142.86
192.151	282.21
192.538	46.02
192.926	1.56
193.314	8.79
193.702	-46.31
194.089	-591.78
194.477	3.42
194.864	146.92
195.252	104.22
195.639	81.87
196.027	171.99
196.414	987.43
196.801	-9.66
197.189	706.67
197.576	-63.95
197.963	-196.14
198.351	4.48
198.738	-207.6
199.125	-108.5
199.512	8.32
199.899	-61.24
200.286	0.16
200.673	24.73
201.06	-91.61
201.447	-23.15
201.833	-90.93
202.22	-45.75
202.607	-36.59
202.994	-55.2
203.38	-37.3
203.767	-22.71
204.154	1.54
204.54	-0.92
204.927	-9.78
205.313	31.37
205.699	-2.63
206.086	23.22
206.472	24.31
206.858	-13.52
207.245	-15.69
207.631	-38.51
208.017	15.13
208.403	-126.55
208.789	-16.69
209.175	-22.72
209.561	-123.34
209.947	-13.76
210.333	-53.14
210.719	-3.11
211.105	34.7
211.491	-29.91
211.876	-11.03
212.262	-26.22
212.648	-17.23
213.034	-22.36
213.419	-15.33
213.805	-48.13
214.19	-29.4
214.576	-28.88
214.961	1.93
215.346	-31.45
215.732	-10.15
216.117	-15.43
216.502	-25.81
216.888	-15.89
217.273	-10.59
217.658	-32.14
218.043	-3.62
218.428	-31.49
218.813	3.62
219.198	-64.69
219.583	-53.98
219.968	-15.13
220.353	-34.23
220.738	-8.53
221.122	-22.13
221.507	-5.39
221.892	-17.19
222.276	-45.64
222.661	-23.49
223.046	-13.31
223.43	2.24
223.815	-9.78
224.199	-8.1
224.583	-9.87
224.968	-6.79
225.352	-11.83
225.736	6.64
226.121	-8.06
226.505	-13.61
226.889	-3.33
227.273	-5.92
227.657	4.05
228.041	-3.84
228.425	-7.04
228.809	-4.57
229.193	0.78
229.577	2.83
229.961	1.31
230.344	2.1
230.728	2.4
231.112	2.43
231.495	0.66
231.879	0.79
232.263	1.83
232.646	1.48
233.03	3.97
233.413	1.15
233.797	-1.01
234.18	1.79
234.563	1.28
234.946	1.17
235.33	-0.19
235.713	2.49
236.096	3.41
236.479	2.38
236.862	1.28
237.245	0.76
237.628	1.56
238.011	1.47
238.394	-0.41
238.777	2.33
239.16	2.89
239.543	1.82
239.925	0.8
240.308	1
240.691	1.27
241.073	1.14
241.456	1.5
241.838	2.6
242.221	1.95
242.603	2.29
242.986	2.3
243.368	2.59
243.75	2.84
244.133	2.83
244.515	2.74
244.897	2.19
245.279	2.03
245.661	1.8
246.043	2.53
246.425	2.7
246.807	2.53
247.189	2.2
247.571	2.43
247.953	2.62
248.335	2.86
248.717	2.82
249.098	2.96
249.48	2.5
249.862	2.97
250.243	2.86
250.625	3.1
251.006	2.8
251.388	2.05
251.769	2.04
252.151	2.3
252.532	1.74
252.913	2.52
253.295	2.14
253.676	2.66
254.057	2.59
254.438	2.13
254.819	2.07
255.2	1.96
255.581	3.28
255.962	2.34
256.343	2.42
256.724	2.67
257.105	1.46
257.486	1.41
257.867	2.43
258.247	2.49
258.628	2.4
259.009	2.39
259.389	2.1
259.77	2.01
260.15	3.45
260.531	2.58
260.911	2.35
261.292	2.61
261.672	2.63
262.052	2.66
262.432	2.34
262.813	2.88
263.193	2.6
263.573	1.9
263.953	2.57
264.333	2.33
264.713	2.59
265.093	2.05
265.473	3.7
265.853	2.66
266.233	2.1
266.612	1.23
266.992	1.69
267.372	2.48
267.752	2.9
268.131	2.19
268.511	1.89
268.89	2.71
269.27	1.99
269.649	2.63
270.029	2.28
270.408	2.26
270.787	2.35
271.167	2.11
271.546	2.69
271.925	2.92
272.304	2.19
272.683	2.21
273.062	2.44
273.441	2.12
273.82	2.25
274.199	2.4
274.578	2.48
274.957	2.37
275.336	2.37
275.715	2.55
276.093	2.16
276.472	2.21
276.851	2.18
277.229	2.06
277.608	2.07
277.986	2.8
278.365	2.95
278.743	2.57
279.122	2.38
279.5	2.26
279.878	1.73
280.257	2.1
280.635	2.55
281.013	1.69
281.391	2.44
281.769	2.36
282.147	2.63
282.525	2.1
282.903	2.27
283.281	2.72
283.659	2.57
284.037	2.3
284.415	2.36
284.792	2.43
285.17	2.59
285.548	2.3
285.925	2.28
286.303	2.76
286.68	2.4
287.058	2.42
287.435	2.39
287.813	2.38
288.19	2.1
288.567	2.67
288.945	2.18
289.322	2.6
289.699	2.55
290.076	2.55
290.453	2.29
290.83	2.48
291.207	2.35
291.584	2.56
291.961	2.77
292.338	2.3
292.715	2.52
293.092	3.06
293.469	2.35
293.845	2.71
294.222	2.73
294.599	2.17
294.975	2.23
295.352	2.63
295.728	2.56
296.105	2.87
296.481	2.77
296.858	2.6
297.234	2.53
297.61	2.57
297.986	3.13
298.363	2.75
298.739	3.12
299.115	2.66
299.491	3.16
299.867	2.48
300.243	2.64
300.619	2.58
300.995	2.57
301.371	2.93
301.746	2.65
302.122	2.25
302.498	2.05
302.874	3.11
303.249	2.44
303.625	2.48
304	2.94
304.376	3.25
304.751	2.89
305.127	2.51
305.502	2.87
305.878	2.86
306.253	2.59
306.628	3.11
307.003	2.8
307.378	2.74
307.754	3.2
308.129	2.68
308.504	2.87
308.879	2.39
309.254	2.75
309.629	3.25
310.003	2.86
310.378	3.21
310.753	3.21
311.128	2.16
311.502	3.34
311.877	2.84
312.252	3.1
312.626	3.14
313.001	3.04
313.375	3.25
313.75	3.3
314.124	3.2
314.498	3.4
314.873	2.64
315.247	2.57
315.621	2.39
315.995	2.82
316.369	2.55
316.743	2.57
317.117	2.91
317.491	3.3
317.865	2.65
318.239	3.12
318.613	2.98
318.987	2.56
319.361	2.85
319.734	3.54
320.108	2.77
320.482	3.42
320.855	3.02
321.229	3.01
321.602	3.19
321.976	2.5
322.349	3.53
322.723	2.53
323.096	2.73
323.469	2.94
323.843	2.71
324.216	3.07
324.589	3.17
324.962	3.11
325.335	2.93
325.708	3.03
326.081	3.44
326.454	3.52
326.827	3.11
327.2	2.86
327.573	3.34
327.945	2.88
328.318	2.61
328.691	3.17
329.063	2.81
329.436	3.06
329.809	3.17
330.181	3.26
330.553	3.55
330.926	3.61
331.298	2.91
331.671	3.24
332.043	3.29
332.415	3.28
332.787	3
333.159	3
333.532	3.39
333.904	3.48
334.276	2.97
334.648	3.36
335.02	3.27
335.391	3.28
335.763	3.47
336.135	3.27
336.507	3.22
336.879	3.26
337.25	2.7
337.622	3.86
337.993	3.43
338.365	3.31
338.736	3.35
339.108	3.07
339.479	3.31
339.851	3.26
340.222	3.43
340.593	3.53
340.964	3.18
341.336	3.32
341.707	3.01
342.078	3.25
342.449	3.1
342.82	3.52
343.191	3.15
343.562	3.33
343.933	2.95
344.303	3.48
344.674	3.53
345.045	3.46
345.416	3.8
345.786	3.21
346.157	3.5
346.527	3.39
346.898	2.7
347.268	3.38
347.639	3.24
348.009	3.56
348.38	3.26
348.75	3.62
349.12	3.62
349.49	3.09
349.861	3.45
350.231	3.39
350.601	3.37
350.971	3.23
351.341	3.43
351.711	3.5
352.081	3.1
352.45	2.99
352.82	3.14
353.19	3.1
353.56	3.28
353.929	3.33
354.299	3.49
354.669	3.52
355.038	3.77
355.408	3.23
355.777	3.74
356.147	3.52
356.516	3.28
356.885	3.62
357.254	3.38
357.624	3.17
357.993	3.4
358.362	3.54
358.731	3.44
359.1	3.6
359.469	3.5
359.838	3.67
360.207	3.6
360.576	3.81
360.945	3.41
361.314	3.65
361.682	3.47
362.051	3.54
362.42	3.57
362.788	3.44
363.157	3.51
363.525	3.6
363.894	3.37
364.262	3.58
364.631	3.94
364.999	3.78
365.367	3.51
365.735	3.44
366.104	3.41
366.472	3.58
366.84	3.64
367.208	3.75
367.576	3.54
367.944	3.48
368.312	3.51
368.68	4
369.048	3.21
369.416	3.57
369.783	3.58
370.151	3.81
370.519	4.09
370.886	3.83
371.254	3.71
371.621	3.82
371.989	3.87
372.356	3.74
372.724	3.54
373.091	3.58
373.458	3.3
373.826	3.85
374.193	3.79
374.56	3.8
374.927	3.61
375.294	3.74
375.661	3.97
376.028	3.41
376.395	3.79
376.762	3.44
377.129	3.56
377.496	3.75
377.863	3.74
378.229	4
378.596	3.93
378.963	4.06
379.329	3.85
379.696	3.76
380.062	3.89
380.429	3.5
380.795	3.91
381.161	3.72
381.528	3.57
381.894	3.57
382.26	3.92
382.626	3.69
382.993	4.19
383.359	3.5
383.725	3.83
384.091	4.04
384.457	3.6
384.823	4.01
385.188	3.91
385.554	3.92
385.92	3.73
386.286	4.03
386.651	3.67
387.017	4.19
387.383	3.82
387.748	3.96
388.114	3.85
388.479	3.97
388.845	3.52
389.21	4.22
389.575	4.22
389.94	4.03
390.306	4.09
390.671	3.97
391.036	4.08
391.401	4.05
391.766	3.99
392.131	4.15
392.496	4.06
392.861	3.99
393.226	4.07
393.591	4.19
393.956	4.18
394.32	3.95
394.685	4.06
395.05	4.03
395.414	4.38
395.779	4.16
396.143	3.91
396.508	4.02
396.872	4.07
397.236	4.29
397.601	4.29
397.965	4.12
398.329	4.23
398.694	3.94
399.058	4.15
399.422	4.13
399.786	3.85
400.15	4.04
400.514	4.09
400.878	4.11
401.242	4.19
401.605	4.12
401.969	4.11
402.333	3.89
402.697	4.27
403.06	4.1
403.424	4.31
403.787	4.25
404.151	4.05
404.514	4.15
404.878	3.98
405.241	4.21
405.604	4.22
405.968	4.22
406.331	4.14
406.694	4.24
407.057	4.22
407.42	4.05
407.783	4.37
408.146	4.26
408.509	4.21
408.872	4.18
409.235	4.37
409.598	4.27
409.961	4.45
410.323	4.23
410.686	4.16
411.049	4.16
411.411	4.29
411.774	4.27
412.136	4.21
412.499	4.37
412.861	4.14
413.223	4.21
413.586	4.29
413.948	4.41
414.31	4.47
414.672	4.13
415.035	4.45
415.397	4.41
415.759	4.05
416.121	4.31
416.483	4.29
416.845	4.41
417.206	4.5
417.568	4.35
417.93	4.41
418.292	4.28
418.653	4.15
419.015	4.27
419.377	4.24
419.738	4.39
420.1	4.28
420.461	4.35
420.822	4.35
421.184	4.34
421.545	4.44
421.906	4.45
422.267	4.24
422.629	4.24
422.99	4.34
423.351	4.29
423.712	4.46
424.073	4.46
424.434	4.41
424.795	4.33
425.155	4.35
425.516	4.37
425.877	4.35
426.238	4.37
426.598	4.37
426.959	4.38
427.32	4.42
427.68	4.49
428.041	4.53
428.401	4.38
428.761	4.42
429.122	4.51
429.482	4.51
429.842	4.44
430.202	4.57
430.563	4.64
430.923	4.59
431.283	4.52
431.643	4.82
432.003	4.62
432.363	4.58
432.722	4.46
433.082	4.36
433.442	4.64
433.802	4.54
434.161	4.54
434.521	4.58
434.881	4.63
435.24	4.56
435.6	4.72
435.959	4.52
436.319	4.52
436.678	4.69
437.037	4.58
437.396	4.66
437.756	4.63
438.115	4.57
438.474	4.73
438.833	4.62
439.192	4.61
439.551	4.66
439.91	4.72
440.269	4.68
440.628	4.56
440.987	4.63
441.345	4.64
441.704	4.68
442.063	4.56
442.421	4.71
442.78	4.73
443.138	4.72
443.497	4.66
443.855	4.78
444.214	4.53
444.572	4.94
444.93	4.83
445.288	4.81
445.647	4.7
446.005	4.79
446.363	4.76
446.721	4.7
447.079	4.67
447.437	4.69
447.795	4.78
448.153	4.71
448.51	4.72
448.868	4.69
449.226	4.86
449.584	4.79
449.941	4.91
450.299	4.73
450.656	4.81
451.014	4.91
451.371	5.08
451.729	4.91
452.086	4.83
452.443	4.99
452.801	5.01
453.158	5.2
453.515	4.89
453.872	4.94
454.229	4.78
454.586	4.9
454.943	4.95
455.3	4.97
455.657	4.93
456.014	4.93
456.371	5.1
456.727	5.17
457.084	5.17
457.441	5.03
457.797	5.03
458.154	5.18
458.51	4.88
458.867	4.9
459.223	4.87
459.58	5.01
459.936	5.1
460.292	4.95
460.648	4.84
461.005	5.01
461.361	4.94
461.717	4.94
462.073	5.08
462.429	5.13
462.785	5.23
463.141	5.11
463.496	5.16
463.852	5.12
464.208	5.11
464.564	5.07
464.919	5.19
465.275	5.17
465.631	5.24
465.986	5.12
466.342	5.07
466.697	5.2
467.052	5.37
467.408	5.37
467.763	5.19
468.118	5.14
468.473	5.31
468.829	5.1
469.184	5.24
469.539	5.13
469.894	5.34
470.249	5.32
470.603	5.45
470.958	5.26
471.313	5.4
471.668	5.27
472.023	5.45
472.377	5.19
472.732	5.57
473.086	5.33
473.441	5.36
473.795	5.56
474.15	5.38
474.504	5.39
474.859	5.29
475.213	5.43
475.567	5.12
475.921	5.44
476.275	5.44
476.63	5.41
476.984	5.36
477.338	5.46
477.692	5.4
478.045	5.54
478.399	5.46
478.753	5.29
479.107	5.49
479.461	5.39
479.814	5.49
480.168	5.58
480.521	5.54
480.875	5.45
481.228	5.44
481.582	5.57
481.935	5.55
482.289	5.49
482.642	5.55
482.995	5.46
483.348	5.35
483.701	5.58
484.055	5.5
484.408	5.47
484.761	5.33
485.114	5.23
485.466	5.21
485.819	5.24
486.172	5.31
486.525	5.42
486.878	5.49
487.23	5.51
487.583	5.53
487.936	5.51
488.288	5.44
488.641	5.4
488.993	5.43
489.345	5.35
489.698	5.43
490.05	5.46
490.402	5.5
490.754	5.55
491.107	5.6
491.459	5.67
491.811	5.69
492.163	5.55
492.515	5.65
492.866	5.5
493.218	5.49
493.57	5.55
493.922	5.68
494.274	5.75
494.625	5.76
494.977	5.82
495.328	5.87
495.68	5.73
496.031	5.86
496.383	5.7
496.734	5.85
497.086	5.89
497.437	5.87
497.788	6.1
498.139	5.88
498.49	5.83
498.842	5.96
499.193	5.81
499.544	5.94
499.894	6
500.245	5.89
500.596	5.98
500.947	5.92
501.298	6.09
501.648	6.13
501.999	6.12
502.35	6.1
502.7	6.3
503.051	6.01
503.401	6.1
503.752	5.96
504.102	5.99
504.452	6.06
504.803	6.15
505.153	6.19
505.503	6.2
505.853	6.2
506.203	6.18
506.553	6.09
506.903	6.21
507.253	6.16
507.603	6.18
507.953	6.22
508.303	6.24
508.652	6.11
509.002	6.33
509.352	6.19
509.701	6.27
510.051	6.34
510.4	6.2
510.75	6.12
511.099	6.15
511.449	6.39
511.798	6.35
512.147	6.31
512.496	6.37
512.846	6.37
513.195	6.24
513.544	6.39
513.893	6.42
514.242	6.36
514.591	6.3
514.939	6.44
515.288	6.53
515.637	6.35
515.986	6.5
516.334	6.68
516.683	6.59
517.032	6.47
517.38	6.5
517.729	6.5
518.077	6.51
518.426	6.58
518.774	6.54
519.122	6.54
519.47	6.53
519.819	6.53
520.167	6.4
520.515	6.57
520.863	6.53
521.211	6.49
521.559	6.58
521.907	6.62
522.255	6.63
522.602	6.7
522.95	6.68
523.298	6.75
523.645	6.74
523.993	6.69
524.341	6.81
524.688	6.75
525.036	6.82
525.383	6.75
525.73	6.82
526.078	6.89
526.425	6.73
526.772	6.69
527.119	6.76
527.466	6.79
527.814	6.68
528.161	6.76
528.508	6.82
528.854	6.8
529.201	6.68
529.548	6.7
529.895	6.52
530.242	6.58
530.588	6.59
530.935	6.69
531.282	6.71
531.628	6.78
531.975	6.79
532.321	6.89
532.667	7.02
533.014	7
533.36	6.98
533.706	7.11
534.052	6.97
534.399	6.91
534.745	6.85
535.091	6.85
535.437	6.95
535.783	7
536.129	7.07
536.474	7.13
536.82	7.18
537.166	7.2
537.512	7.14
537.857	7.2
538.203	7.21
538.549	7.14
538.894	7.18
539.239	7.34
539.585	7.45
539.93	7.47
540.276	7.3
540.621	7.44
540.966	7.34
541.311	7.46
541.656	7.36
542.001	7.28
542.346	7.2
542.691	7.22
543.036	7.15
543.381	7.22
543.726	7.35
544.071	7.32
544.415	7.39
544.76	7.4
545.105	7.36
545.449	7.48
545.794	7.52
546.138	7.51
546.483	7.55
546.827	7.63
547.171	7.7
547.516	7.69
547.86	7.78
548.204	7.66
548.548	7.7
548.892	7.67
549.236	7.74
549.58	7.89
549.924	7.85
550.268	7.91
550.612	7.93
550.956	8.05
551.3	8.22
551.643	8.06
551.987	7.97
552.33	8.28
552.674	8.02
553.017	8.11
553.361	8.17
553.704	8.29
554.048	8.22
554.391	8.18
554.734	8.04
555.077	8.05
555.42	8.12
555.764	8.28
556.107	8.33
556.45	8.35
556.793	8.33
557.135	8.29
557.478	8.23
557.821	8.36
558.164	8.38
558.507	8.33
558.849	8.48
559.192	8.32
559.534	8.41
559.877	8.48
560.219	8.64
560.562	8.6
560.904	8.77
561.246	8.64
561.589	8.84
561.931	8.4
562.273	8.47
562.615	8.57
562.957	8.61
563.299	8.69
563.641	8.56
563.983	8.73
564.325	8.71
564.667	8.77
565.008	8.68
565.35	8.61
565.692	8.95
566.033	8.8
566.375	8.88
566.716	8.8
567.058	8.91
567.399	8.96
567.741	8.89
568.082	9
568.423	8.89
568.764	8.97
569.105	9
569.447	9.04
569.788	9.05
570.129	9.11
570.47	8.97
570.811	9.03
571.151	9.05
571.492	9.1
571.833	9.1
572.174	9.22
572.514	9.33
572.855	9.4
573.195	9.07
573.536	9.27
573.876	9.28
574.217	9.18
574.557	9.44
574.898	9.3
575.238	9.43
575.578	9.48
575.918	9.45
576.258	9.6
576.598	9.25
576.938	9.44
577.278	9.26
577.618	9.44
577.958	9.58
578.298	9.71
578.638	9.7
578.977	9.76
579.317	9.78
579.657	9.7
579.996	9.9
580.336	9.85
580.675	9.77
581.014	9.91
581.354	9.76
581.693	9.91
582.032	10
582.372	9.97
582.711	10.03
583.05	9.96
583.389	10.25
583.728	10.23
584.067	9.95
584.406	10.16
584.745	10.1
585.083	10.15
585.422	10.43
585.761	10.28
586.1	10.33
586.438	10.02
586.777	10.38
587.115	10.15
587.454	10.04
587.792	10.32
588.13	10.33
588.469	10.33
588.807	10.45
589.145	10.44
589.483	10.07
589.821	10.31
590.159	10.42
590.497	10.55
590.835	10.49
591.173	10.64
591.511	10.73
591.849	10.55
592.187	10.53
592.524	10.81
592.862	10.46
593.2	10.65
593.537	10.63
593.875	10.68
594.212	10.62
594.55	10.8
594.887	10.98
595.224	10.79
595.561	10.84
595.899	11.02
596.236	10.98
596.573	10.72
596.91	10.95
597.247	11.01
597.584	11.03
597.921	10.95
598.258	11.12
598.594	10.97
598.931	10.81
599.268	10.8
599.604	11.19
599.941	11.16
600.277	11.17
600.614	10.9
600.95	11.02
601.287	11.16
601.623	11.11
601.959	11.41
602.296	11.36
602.632	11.25
602.968	11.31
603.304	11.43
603.64	11.37
603.976	11.25
604.312	11.26
604.648	11.39
604.984	11.4
605.319	11.39
605.655	11.51
605.991	11.38
606.326	11.5
606.662	11.37
606.998	11.64
607.333	11.66
607.668	11.81
608.004	11.56
608.339	11.49
608.674	11.68
609.01	11.9
609.345	11.95
609.68	11.61
610.015	11.89
610.35	11.89
610.685	11.76
611.02	11.75
611.355	11.89
611.689	12.05
612.024	12.08
612.359	12.02
612.694	12.21
613.028	12.14
613.363	12.03
613.697	12.14
614.032	12.07
614.366	12.23
614.7	12.44
615.035	12.3
615.369	12.5
615.703	12.36
616.037	12.55
616.371	12.39
616.705	12.48
617.039	12.53
617.373	12.77
617.707	12.88
618.041	12.12
618.375	12.1
618.709	12.42
619.042	12.46
619.376	12.81
619.71	12.54
620.043	13.07
620.377	12.78
620.71	12.74
621.043	12.74
621.377	12.8
621.71	13.02
622.043	12.67
622.376	12.94
622.709	13.25
623.043	12.81
623.376	12.81
623.709	13.35
624.041	13.05
624.374	13.06
624.707	13.41
625.04	12.99
625.373	13.25
625.705	13.19
626.038	13.2
626.37	13.22
626.703	12.99
627.035	13.25
627.368	13.71
627.7	13.62
628.032	13.08
628.365	13.32
628.697	13.29
629.029	13.55
629.361	13.36
629.693	13.35
630.025	13.48
630.357	13.73
630.689	13.33
631.021	13.46
631.353	13.56
631.684	13.27
632.016	13.54
632.348	13.67
632.679	13.7
633.011	13.81
633.342	13.41
633.674	13.4
634.005	13.91
634.336	14.07
634.668	13.76
634.999	13.65
635.33	13.88
635.661	13.92
635.992	14.14
636.323	14.06
636.654	13.83
636.985	13.71
637.316	14.05
637.647	14.3
637.977	13.86
638.308	14.2
638.639	14.18
638.969	14.05
639.3	13.82
639.63	14.36
639.961	14.3
640.291	13.97
640.622	14.56
640.952	14.7
641.282	13.98
641.612	14.2
641.943	14.5
642.273	14.63
642.603	14.79
642.933	14.55
643.263	14.53
643.592	14.86
643.922	15.36
644.252	14.9
644.582	15.18
644.911	14.55
645.241	14.48
645.571	14.67
645.9	15.2
646.23	15
646.559	14.52
646.888	14.99
647.218	14.69
647.547	14.73
647.876	14.74
648.205	14.48
648.534	15.06
648.863	14.83
649.192	14.88
649.521	15.34
649.85	15.04
650.179	15.2
650.508	15.16
650.837	15.2
651.165	15.4
651.494	15.35
651.822	15.83
652.151	15.11
652.479	15.15
652.808	14.97
653.136	15.09
653.465	15.2
653.793	15.56
654.121	15.53
654.449	15.23
654.777	15.38
655.105	15.16
655.433	15.62
655.761	15.62
656.089	15.65
656.417	15.8
656.745	15.94
657.073	15.48
657.4	15.27
657.728	15.36
658.056	15.77
658.383	16.02
658.711	15.92
659.038	16.14
659.365	15.86
659.693	15.43
660.02	15.7
660.347	15.64
660.674	15.73
661.001	15.81
661.329	15.77
661.656	15.7
661.982	15.85
662.309	15.82
662.636	15.82
662.963	15.92
663.29	16.28
663.616	15.71
663.943	16.06
664.27	16.18
664.596	15.97
664.923	16.32
665.249	16.36
665.576	16.05
665.902	16.27
666.228	16.44
666.554	16.52
666.881	15.76
667.207	16.26
667.533	16.49
667.859	16.2
668.185	16.74
668.511	16.75
668.837	16.52
669.162	16.28
669.488	16.09
669.814	16.13
670.139	15.67
670.465	16.44
670.791	16.66
671.116	16.63
671.442	16.09
671.767	16.89
672.092	16.72
672.418	17.73
672.743	17.03
673.068	16.28
673.393	16.95
673.718	16.26
674.043	17.13
674.368	16.28
674.693	17.18
675.018	17.03
675.343	16.91
675.667	16.96
675.992	16.48
676.317	16.5
676.641	17.53
676.966	17.52
677.29	16.62
677.615	16.56
677.939	17.68
678.264	16.93
678.588	17.57
678.912	17.19
679.236	17.04
679.56	16.42
679.885	16.77
680.209	17.63
680.532	17.73
680.856	17.8
681.18	17.67
681.504	17.28
681.828	17
682.152	17.27
682.475	18.25
682.799	17.29
683.122	17.5
683.446	17.25
683.769	17.76
684.093	17.8
684.416	18.11
684.739	17.05
685.062	17.88
