Data from 0005_chest_Reflection__0__362.txt Node

Date: Thu Dec 15 19:27:24 CST 2022
User: ToomeyLab
Spectrometer: FLMS14357
Trigger mode: 0
Integration Time (sec): 1.000000E-2
Scans to average: 100
Electric dark correction enabled: true
Nonlinearity correction enabled: false
Boxcar width: 0
XAxis mode: Wavelengths
Number of Pixels in Spectrum: 2048
>>>>>Begin Spectral Data<<<<<
189.047	36.27
189.435	36.27
189.823	36.27
190.211	-49.66
190.599	45.56
190.987	258.39
191.375	146.53
191.763	50.36
192.151	-40.9
192.538	-177.83
192.926	106.66
193.314	351.16
193.702	82.86
194.089	250.92
194.477	68.59
194.864	543.47
195.252	24.38
195.639	56.94
196.027	-177.92
196.414	278.19
196.801	92.72
197.189	423.81
197.576	-208.18
197.963	-479.75
198.351	14.18
198.738	-161.22
199.125	-69.88
199.512	10.33
199.899	-24.42
200.286	-13.3
200.673	17.04
201.06	-65.49
201.447	-3.66
201.833	-64.58
202.22	6.49
202.607	-34.48
202.994	24.26
203.38	14.54
203.767	-8.48
204.154	39.79
204.54	7.25
204.927	46.37
205.313	-0.74
205.699	-7.66
206.086	15.96
206.472	13.03
206.858	-22.04
207.245	-17.16
207.631	-2.96
208.017	27.86
208.403	-97.39
208.789	20.81
209.175	-20.59
209.561	-105.28
209.947	12.01
210.333	-0.88
210.719	-9.38
211.105	30.28
211.491	-10.77
211.876	-32.04
212.262	-15.34
212.648	2.06
213.034	-8.24
213.419	19.86
213.805	-47.8
214.19	-41.52
214.576	-51.86
214.961	9.11
215.346	-12.27
215.732	-13.22
216.117	0.98
216.502	-57.87
216.888	-5.85
217.273	-1.28
217.658	-26.23
218.043	-21.33
218.428	-2.23
218.813	19.81
219.198	-34.42
219.583	-13.64
219.968	-6.41
220.353	-29
220.738	-2.63
221.122	-17.07
221.507	-3.89
221.892	-22.44
222.276	-29.65
222.661	-20.47
223.046	-13.16
223.43	5.99
223.815	-19.07
224.199	-1.09
224.583	-5.73
224.968	-3.34
225.352	1.3
225.736	-0.8
226.121	-0.05
226.505	-2.71
226.889	4.5
227.273	-5.58
227.657	5.08
228.041	1.26
228.425	-1.98
228.809	2.43
229.193	4.14
229.577	4.39
229.961	3.85
230.344	4.7
230.728	4.79
231.112	4.39
231.495	2.77
231.879	2.29
232.263	4.06
232.646	2.85
233.03	5.53
233.413	2.19
233.797	3.43
234.18	4.72
234.563	2.75
234.946	2.36
235.33	3.76
235.713	3.76
236.096	4.69
236.479	4.78
236.862	3.62
237.245	2.05
237.628	4.35
238.011	3.35
238.394	3.43
238.777	1.92
239.16	4.52
239.543	3.5
239.925	4.06
240.308	4.32
240.691	3.56
241.073	4.33
241.456	3.35
241.838	3.69
242.221	3.83
242.603	3.84
242.986	4.03
243.368	4.2
243.75	4.35
244.133	4.37
244.515	3.98
244.897	3.7
245.279	3.82
245.661	4.46
246.043	3.48
246.425	4.83
246.807	3.83
247.189	3.64
247.571	4.05
247.953	3.74
248.335	3.92
248.717	3.98
249.098	4.04
249.48	3.97
249.862	4.29
250.243	3.77
250.625	3.73
251.006	4.4
251.388	3.85
251.769	3.3
252.151	3.96
252.532	2.68
252.913	3.33
253.295	3.26
253.676	4.08
254.057	3.67
254.438	3.76
254.819	4.03
255.2	4.76
255.581	4.14
255.962	3.19
256.343	4.66
256.724	3.65
257.105	2.86
257.486	2.88
257.867	4.13
258.247	4.1
258.628	3.65
259.009	3.29
259.389	3.05
259.77	3.82
260.15	4.42
260.531	3.89
260.911	3.77
261.292	3.73
261.672	3.68
262.052	3.84
262.432	3.45
262.813	4.01
263.193	3.96
263.573	3.76
263.953	3.46
264.333	3.66
264.713	4.01
265.093	3.31
265.473	4.24
265.853	3.28
266.233	3.14
266.612	2.45
266.992	3.55
267.372	3.42
267.752	3.5
268.131	3.63
268.511	3.39
268.89	4.25
269.27	3.48
269.649	3.07
270.029	3.69
270.408	3.77
270.787	4.03
271.167	3.78
271.546	4.22
271.925	4.13
272.304	3.57
272.683	3.39
273.062	3.17
273.441	3.58
273.82	3.93
274.199	3.48
274.578	3.36
274.957	3.87
275.336	4.16
275.715	3.76
276.093	3.33
276.472	3.15
276.851	3.17
277.229	3.38
277.608	3.02
277.986	4.02
278.365	3.85
278.743	3.76
279.122	3.23
279.5	3.69
279.878	3.36
280.257	3.59
280.635	3.2
281.013	2.93
281.391	3.42
281.769	4.04
282.147	3.63
282.525	3.67
282.903	3.24
283.281	3.91
283.659	3.75
284.037	3.31
284.415	3.38
284.792	3.62
285.17	3.42
285.548	3.5
285.925	3.35
286.303	3.91
286.68	3.43
287.058	3.83
287.435	3.4
287.813	3.68
288.19	3.49
288.567	3.33
288.945	3.29
289.322	3.5
289.699	3.78
290.076	3.52
290.453	3.75
290.83	3.75
291.207	3.71
291.584	3.73
291.961	3.6
292.338	3.74
292.715	3.3
293.092	4.02
293.469	3.13
293.845	3.72
294.222	3.47
294.599	2.92
294.975	3.21
295.352	3.69
295.728	3.42
296.105	3.15
296.481	3.28
296.858	3.41
297.234	3.23
297.61	3.61
297.986	3.67
298.363	3.82
298.739	3.9
299.115	3.39
299.491	3.52
299.867	3.43
300.243	3.25
300.619	3.36
300.995	3.77
301.371	3.35
301.746	3.91
302.122	3.32
302.498	3.43
302.874	3.72
303.249	3.77
303.625	3.16
304	3.81
304.376	4.05
304.751	3.52
305.127	3.54
305.502	3.61
305.878	3.67
306.253	3.62
306.628	3.65
307.003	3.39
307.378	3.47
307.754	3.72
308.129	3.78
308.504	3.74
308.879	3.61
309.254	3.74
309.629	3.29
310.003	3.27
310.378	3.88
310.753	3.29
311.128	3.38
311.502	3.53
311.877	3.44
312.252	3.63
312.626	3.79
313.001	3.66
313.375	3.96
313.75	3.51
314.124	3.88
314.498	3.59
314.873	3.29
315.247	3.75
315.621	3.41
315.995	3.42
316.369	2.97
316.743	3.5
317.117	3.84
317.491	3.83
317.865	2.99
318.239	3.98
318.613	3.35
318.987	3.5
319.361	3.89
319.734	3.46
320.108	3.59
320.482	4.05
320.855	3.79
321.229	3.63
321.602	3.25
321.976	2.98
322.349	3.95
322.723	3.53
323.096	3.79
323.469	3.89
323.843	3.43
324.216	3.34
324.589	3.87
324.962	3.49
325.335	3.35
325.708	3.44
326.081	3.58
326.454	4.17
326.827	3.7
327.2	3.36
327.573	4.21
327.945	3.73
328.318	3.41
328.691	3.82
329.063	3.53
329.436	3.15
329.809	4.06
330.181	4.46
330.553	3.66
330.926	4.16
331.298	3.28
331.671	3.72
332.043	3.96
332.415	4.2
332.787	3.43
333.159	3.72
333.532	3.88
333.904	3.56
334.276	4.03
334.648	3.95
335.02	3.76
335.391	3.55
335.763	3.84
336.135	4.06
336.507	3.86
336.879	3.57
337.25	3.57
337.622	3.96
337.993	3.27
338.365	3.91
338.736	3.51
339.108	3.36
339.479	3.84
339.851	3.94
340.222	4.27
340.593	3.84
340.964	3.67
341.336	3.86
341.707	3.73
342.078	3.6
342.449	3.55
342.82	3.74
343.191	3.79
343.562	3.56
343.933	3.59
344.303	3.68
344.674	3.95
345.045	4.03
345.416	4.28
345.786	3.52
346.157	4.15
346.527	3.94
346.898	3.11
347.268	3.76
347.639	3.64
348.009	3.95
348.38	3.55
348.75	4.15
349.12	3.94
349.49	3.78
349.861	3.56
350.231	3.5
350.601	3.66
350.971	3.32
351.341	3.82
351.711	4.24
352.081	3.61
352.45	3.36
352.82	3.78
353.19	3.94
353.56	3.59
353.929	3.88
354.299	4.2
354.669	4.1
355.038	4.07
355.408	3.75
355.777	4.1
356.147	3.78
356.516	3.65
356.885	4.03
357.254	3.45
357.624	3.69
357.993	3.86
358.362	3.9
358.731	4.19
359.1	3.74
359.469	4.07
359.838	3.88
360.207	4.16
360.576	4.07
360.945	3.9
361.314	3.98
361.682	3.79
362.051	3.98
362.42	4.01
362.788	4.16
363.157	3.71
363.525	4.01
363.894	3.72
364.262	3.87
364.631	4.09
364.999	4.17
365.367	4.1
365.735	3.76
366.104	3.68
366.472	3.84
366.84	4.02
367.208	4.25
367.576	3.94
367.944	3.61
368.312	3.83
368.68	4.23
369.048	3.91
369.416	3.5
369.783	3.81
370.151	4.15
370.519	4.35
370.886	4.07
371.254	4.16
371.621	4.21
371.989	4.37
372.356	4.07
372.724	3.96
373.091	3.97
373.458	3.71
373.826	4.08
374.193	4.06
374.56	4.04
374.927	4.16
375.294	4.14
375.661	4.3
376.028	4.07
376.395	4.3
376.762	3.92
377.129	3.91
377.496	3.96
377.863	4.34
378.229	4.18
378.596	4.34
378.963	4.27
379.329	4.37
379.696	3.86
380.062	4.06
380.429	3.9
380.795	4.28
381.161	3.58
381.528	3.65
381.894	3.94
382.26	4.09
382.626	4.28
382.993	4.41
383.359	4.18
383.725	3.84
384.091	4.23
384.457	4.16
384.823	4.12
385.188	4.54
385.554	4.31
385.92	3.94
386.286	4.19
386.651	4.34
387.017	4.62
387.383	4.31
387.748	4.32
388.114	4.36
388.479	4.08
388.845	3.83
389.21	4.38
389.575	4.37
389.94	4.41
390.306	4.22
390.671	4.27
391.036	4.05
391.401	4.33
391.766	4.36
392.131	4.15
392.496	4.21
392.861	4.25
393.226	4.19
393.591	4.18
393.956	4.32
394.32	4.63
394.685	4.33
395.05	4.14
395.414	4.47
395.779	4.56
396.143	4.23
396.508	4.26
396.872	4.06
397.236	4.53
397.601	4.42
397.965	4.38
398.329	4.19
398.694	4.05
399.058	4.31
399.422	4.4
399.786	4.21
400.15	4.22
400.514	4.62
400.878	4.3
401.242	4.19
401.605	4.34
401.969	4.46
402.333	4.43
402.697	4.52
403.06	4.37
403.424	4.63
403.787	4.42
404.151	4.35
404.514	4.16
404.878	4.27
405.241	4.44
405.604	4.46
405.968	4.33
406.331	4.5
406.694	4.33
407.057	4.15
407.42	4.48
407.783	4.49
408.146	4.36
408.509	4.42
408.872	4.47
409.235	4.41
409.598	4.43
409.961	4.49
410.323	4.4
410.686	4.35
411.049	4.55
411.411	4.28
411.774	4.5
412.136	4.45
412.499	4.69
412.861	3.88
413.223	4.25
413.586	4.57
413.948	4.41
414.31	4.62
414.672	4.47
415.035	4.72
415.397	4.41
415.759	4.43
416.121	4.63
416.483	4.36
416.845	4.48
417.206	4.48
417.568	4.45
417.93	4.44
418.292	4.47
418.653	4.27
419.015	4.38
419.377	4.3
419.738	4.53
420.1	4.42
420.461	4.47
420.822	4.46
421.184	4.47
421.545	4.41
421.906	4.44
422.267	4.44
422.629	4.4
422.99	4.37
423.351	4.43
423.712	4.41
424.073	4.54
424.434	4.67
424.795	4.5
425.155	4.36
425.516	4.32
425.877	4.48
426.238	4.51
426.598	4.56
426.959	4.55
427.32	4.51
427.68	4.53
428.041	4.56
428.401	4.58
428.761	4.58
429.122	4.53
429.482	4.66
429.842	4.46
430.202	4.71
430.563	4.63
430.923	4.71
431.283	4.8
431.643	4.6
432.003	4.7
432.363	4.82
432.722	4.52
433.082	4.55
433.442	4.73
433.802	4.64
434.161	4.59
434.521	4.6
434.881	4.67
435.24	4.67
435.6	4.85
435.959	4.65
436.319	4.74
436.678	4.85
437.037	4.71
437.396	4.73
437.756	4.62
438.115	4.67
438.474	4.74
438.833	4.7
439.192	4.66
439.551	4.62
439.91	4.56
440.269	4.66
440.628	4.68
440.987	4.66
441.345	4.67
441.704	4.76
442.063	4.67
442.421	4.76
442.78	4.66
443.138	4.77
443.497	4.67
443.855	4.77
444.214	4.66
444.572	4.96
444.93	4.72
445.288	4.77
445.647	4.63
446.005	4.69
446.363	4.87
446.721	4.82
447.079	4.7
447.437	4.75
447.795	4.75
448.153	4.78
448.51	4.79
448.868	4.69
449.226	4.75
449.584	4.77
449.941	4.82
450.299	4.8
450.656	4.71
451.014	4.82
451.371	4.79
451.729	4.81
452.086	4.96
452.443	4.9
452.801	4.94
453.158	5
453.515	4.82
453.872	4.91
454.229	4.68
454.586	4.67
454.943	4.87
455.3	4.94
455.657	4.87
456.014	4.85
456.371	5.1
456.727	4.97
457.084	5.09
457.441	4.91
457.797	4.92
458.154	4.95
458.51	4.92
458.867	4.85
459.223	4.9
459.58	4.98
459.936	4.73
460.292	4.78
460.648	4.98
461.005	4.88
461.361	4.85
461.717	4.87
462.073	4.92
462.429	4.99
462.785	5.12
463.141	5.04
463.496	5.08
463.852	4.99
464.208	5.04
464.564	5.08
464.919	4.95
465.275	4.98
465.631	5.36
465.986	5.13
466.342	4.96
466.697	5.1
467.052	5.16
467.408	5.05
467.763	5.01
468.118	5
468.473	4.94
468.829	4.87
469.184	5.13
469.539	4.91
469.894	5.05
470.249	5.04
470.603	5.26
470.958	5.17
471.313	5.21
471.668	5.11
472.023	5.18
472.377	5.02
472.732	5.18
473.086	5.17
473.441	5.19
473.795	5.4
474.15	5.21
474.504	5.27
474.859	5
475.213	5.19
475.567	5.08
475.921	5.28
476.275	5.33
476.63	5.32
476.984	5
477.338	5.17
477.692	5.2
478.045	5.21
478.399	5.33
478.753	5.05
479.107	5.23
479.461	5.25
479.814	5.19
480.168	5.2
480.521	5.38
480.875	5.25
481.228	5.29
481.582	5.26
481.935	5.29
482.289	5.3
482.642	5.35
482.995	5.18
483.348	5.25
483.701	5.18
484.055	5.19
484.408	5.24
484.761	5.1
485.114	5.02
485.466	5
485.819	5.05
486.172	5.08
486.525	5.12
486.878	5.17
487.23	5.16
487.583	5.21
487.936	5.17
488.288	5.2
488.641	5.18
488.993	5.15
489.345	5.18
489.698	5.16
490.05	5.19
490.402	5.28
490.754	5.19
491.107	5.26
491.459	5.32
491.811	5.35
492.163	5.34
492.515	5.32
492.866	5.23
493.218	5.21
493.57	5.29
493.922	5.28
494.274	5.42
494.625	5.43
494.977	5.43
495.328	5.55
495.68	5.52
496.031	5.54
496.383	5.49
496.734	5.36
497.086	5.61
497.437	5.57
497.788	5.6
498.139	5.56
498.49	5.56
498.842	5.59
499.193	5.38
499.544	5.62
499.894	5.57
500.245	5.57
500.596	5.61
500.947	5.68
501.298	5.66
501.648	5.61
501.999	5.66
502.35	5.6
502.7	5.85
503.051	5.75
503.401	5.79
503.752	5.67
504.102	5.79
504.452	5.61
504.803	5.65
505.153	5.91
505.503	5.73
505.853	5.82
506.203	5.77
506.553	5.76
506.903	5.79
507.253	5.8
507.603	5.75
507.953	5.75
508.303	5.81
508.652	5.74
509.002	5.85
509.352	5.87
509.701	5.79
510.051	5.96
510.4	5.93
510.75	5.81
511.099	5.78
511.449	5.93
511.798	5.81
512.147	5.85
512.496	5.94
512.846	5.88
513.195	5.9
513.544	6
513.893	5.89
514.242	5.91
514.591	5.87
514.939	5.86
515.288	6.09
515.637	5.95
515.986	6
516.334	5.99
516.683	6.01
517.032	6.11
517.38	5.99
517.729	5.98
518.077	5.99
518.426	6.12
518.774	6.11
519.122	6.02
519.47	5.99
519.819	6.03
520.167	5.96
520.515	6.05
520.863	5.99
521.211	6.01
521.559	6.06
521.907	6.08
522.255	6.08
522.602	6.27
522.95	6.23
523.298	6.24
523.645	6.14
523.993	6.19
524.341	6.16
524.688	6.23
525.036	6.18
525.383	6.32
525.73	6.12
526.078	6.4
526.425	6.33
526.772	6.19
527.119	6.2
527.466	6.25
527.814	6.22
528.161	6.24
528.508	6.32
528.854	6.27
529.201	6.24
529.548	6.18
529.895	6.16
530.242	6.13
530.588	6.13
530.935	6.16
531.282	6.18
531.628	6.22
531.975	6.31
532.321	6.4
532.667	6.39
533.014	6.48
533.36	6.42
533.706	6.42
534.052	6.42
534.399	6.35
534.745	6.38
535.091	6.42
535.437	6.4
535.783	6.41
536.129	6.44
536.474	6.51
536.82	6.62
537.166	6.5
537.512	6.61
537.857	6.71
538.203	6.59
538.549	6.6
538.894	6.67
539.239	6.71
539.585	6.74
539.93	6.78
540.276	6.75
540.621	6.78
540.966	6.86
541.311	6.86
541.656	6.75
542.001	6.73
542.346	6.73
542.691	6.68
543.036	6.68
543.381	6.7
543.726	6.72
544.071	6.76
544.415	6.77
544.76	6.84
545.105	6.84
545.449	6.94
545.794	6.91
546.138	6.86
546.483	7.09
546.827	7
547.171	7.05
547.516	7.11
547.86	7.04
548.204	7.14
548.548	6.99
548.892	7.11
549.236	7.05
549.58	7.25
549.924	7.23
550.268	7.28
550.612	7.28
550.956	7.28
551.3	7.52
551.643	7.26
551.987	7.36
552.33	7.52
552.674	7.33
553.017	7.32
553.361	7.55
553.704	7.55
554.048	7.53
554.391	7.41
554.734	7.39
555.077	7.39
555.42	7.33
555.764	7.33
556.107	7.63
556.45	7.57
556.793	7.76
557.135	7.7
557.478	7.66
557.821	7.6
558.164	7.9
558.507	7.57
558.849	7.76
559.192	7.67
559.534	7.68
559.877	7.76
560.219	7.65
560.562	7.8
560.904	8
561.246	7.83
561.589	8.06
561.931	8.05
562.273	8.01
562.615	7.86
562.957	7.86
563.299	7.89
563.641	8
563.983	7.88
564.325	8.26
564.667	8.03
565.008	8.12
565.35	7.95
565.692	8.08
566.033	8.07
566.375	8.1
566.716	8.18
567.058	8.18
567.399	8.23
567.741	8.4
568.082	8.18
568.423	8.3
568.764	8.24
569.105	8.29
569.447	8.15
569.788	8.39
570.129	8.48
570.47	8.5
570.811	8.1
571.151	8.48
571.492	8.38
571.833	8.32
572.174	8.58
572.514	8.47
572.855	8.59
573.195	8.54
573.536	8.6
573.876	8.52
574.217	8.51
574.557	8.78
574.898	8.62
575.238	8.75
575.578	8.69
575.918	8.8
576.258	8.85
576.598	8.71
576.938	8.73
577.278	8.79
577.618	8.87
577.958	8.89
578.298	8.91
578.638	8.81
578.977	8.99
579.317	9
579.657	9.07
579.996	9.1
580.336	9.21
580.675	9.16
581.014	9.24
581.354	9.21
581.693	9.32
582.032	9.35
582.372	9.29
582.711	9.3
583.05	9.34
583.389	9.34
583.728	9.28
584.067	9.29
584.406	9.3
584.745	9.15
585.083	9.4
585.422	9.54
585.761	9.64
586.1	9.59
586.438	9.56
586.777	9.52
587.115	9.39
587.454	9.39
587.792	9.71
588.13	9.45
588.469	9.59
588.807	9.71
589.145	9.75
589.483	9.61
589.821	9.98
590.159	9.6
590.497	9.91
590.835	9.83
591.173	10.01
591.511	10.06
591.849	9.95
592.187	9.73
592.524	10.31
592.862	9.93
593.2	10.09
593.537	9.81
593.875	9.84
594.212	10.12
594.55	10.05
594.887	10.14
595.224	10.3
595.561	10.13
595.899	10.28
596.236	10.21
596.573	10.26
596.91	10.37
597.247	10.53
597.584	10.49
597.921	10.08
598.258	10.58
598.594	10.35
598.931	10.3
599.268	10.25
599.604	10.51
599.941	10.4
600.277	10.63
600.614	10.7
600.95	10.54
601.287	10.35
601.623	10.53
601.959	11.07
602.296	10.81
602.632	10.85
602.968	10.8
603.304	10.74
603.64	10.61
603.976	10.73
604.312	10.67
604.648	11.07
604.984	11.06
605.319	11.02
605.655	10.76
605.991	10.92
606.326	11.03
606.662	10.75
606.998	11.06
607.333	11.11
607.668	10.89
608.004	11.08
608.339	11.06
608.674	11.38
609.01	11.2
609.345	11.57
609.68	11.05
610.015	11.36
610.35	11.52
610.685	11.21
611.02	11.21
611.355	11.32
611.689	11.12
612.024	11.6
612.359	11.49
612.694	11.59
613.028	11.41
613.363	11.55
613.697	11.54
614.032	11.57
614.366	11.59
614.7	11.72
615.035	11.98
615.369	11.89
615.703	11.88
616.037	11.9
616.371	11.81
616.705	12
617.039	12.06
617.373	11.99
617.707	11.86
618.041	11.72
618.375	11.55
618.709	11.89
619.042	12.27
619.376	12.22
619.71	12.17
620.043	12.49
620.377	12.25
620.71	12.04
621.043	12.47
621.377	12.74
621.71	12.32
622.043	12.43
622.376	12.48
622.709	12.69
623.043	12.17
623.376	12.22
623.709	12.72
624.041	12.42
624.374	12.69
624.707	12.38
625.04	12.58
625.373	12.86
625.705	12.95
626.038	12.35
626.37	12.59
626.703	12.66
627.035	13.13
627.368	13.08
627.7	13.1
628.032	13.04
628.365	13.19
628.697	12.99
629.029	13.03
629.361	13.27
629.693	13.07
630.025	13.2
630.357	13.13
630.689	12.94
631.021	13.33
631.353	13.5
631.684	13.16
632.016	13.01
632.348	12.82
632.679	13.38
633.011	13.06
633.342	13.2
633.674	13.3
634.005	13.43
634.336	13.65
634.668	13.44
634.999	13.4
635.33	13.67
635.661	13.77
635.992	13.62
636.323	13.64
636.654	13.48
636.985	13.69
637.316	13.54
637.647	14.04
637.977	13.72
638.308	14.26
638.639	14.13
638.969	13.73
639.3	13.86
639.63	13.66
639.961	14.21
640.291	13.97
640.622	14.32
640.952	14.41
641.282	13.69
641.612	14.11
641.943	14.26
642.273	14.15
642.603	14.27
642.933	14.27
643.263	14.32
643.592	14.33
643.922	14.73
644.252	14.42
644.582	14.38
644.911	14.78
645.241	13.81
645.571	14.4
645.9	14.64
646.23	14.53
646.559	14.35
646.888	14.55
647.218	14.6
647.547	14.52
647.876	14.71
648.205	14.69
648.534	14.52
648.863	14.69
649.192	14.72
649.521	14.91
649.85	14.67
650.179	14.68
650.508	14.44
650.837	15.01
651.165	15
651.494	15.08
651.822	15.11
652.151	14.72
652.479	15.45
652.808	15.02
653.136	15.04
653.465	15.17
653.793	15.29
654.121	15.03
654.449	15.03
654.777	15.41
655.105	15.3
655.433	15.95
655.761	14.69
656.089	15.46
656.417	15.92
656.745	15.66
657.073	14.94
657.4	14.82
657.728	14.85
658.056	15.61
658.383	15.8
658.711	15.75
659.038	16.33
659.365	15.57
659.693	15.52
660.02	15.44
660.347	16.06
660.674	15.91
661.001	16.12
661.329	15.67
661.656	15.61
661.982	15.86
662.309	15.6
662.636	15.98
662.963	15.86
663.29	15.79
663.616	15.78
663.943	16.14
664.27	16.01
664.596	15.98
664.923	16.29
665.249	16.7
665.576	15.41
665.902	16.09
666.228	16.83
666.554	16.69
666.881	16.15
667.207	16.51
667.533	16.69
667.859	16.56
668.185	16.69
668.511	16.74
668.837	16.28
669.162	16.57
669.488	16.47
669.814	16.68
670.139	16.02
670.465	16.89
670.791	16.57
671.116	17.06
671.442	16.24
671.767	16.82
672.092	16.73
672.418	17.03
672.743	16.78
673.068	16.39
673.393	16.84
673.718	16.88
674.043	17.16
674.368	17.29
674.693	17.17
675.018	17.3
675.343	17.27
675.667	17.33
675.992	16.62
676.317	16.6
676.641	16.99
676.966	17.58
677.29	16.77
677.615	16.51
677.939	17.45
678.264	17.12
678.588	17.4
678.912	17.7
679.236	16.79
679.56	17.25
679.885	17.53
680.209	17.46
680.532	18.01
680.856	18.2
681.18	18.11
681.504	17.69
681.828	17.47
682.152	17.85
682.475	18.16
682.799	17.52
683.122	18.08
683.446	17.53
683.769	18.1
684.093	18.06
684.416	17.43
684.739	18.1
685.062	18.64
685.386	17.99
