Data from 0005_chest_Reflection__2__364.txt Node

Date: Thu Dec 15 19:28:03 CST 2022
User: ToomeyLab
Spectrometer: FLMS14357
Trigger mode: 0
Integration Time (sec): 1.000000E-2
Scans to average: 100
Electric dark correction enabled: true
Nonlinearity correction enabled: false
Boxcar width: 0
XAxis mode: Wavelengths
Number of Pixels in Spectrum: 2048
>>>>>Begin Spectral Data<<<<<
189.047	-17.96
189.435	-17.96
189.823	-17.96
190.211	-301.1
190.599	15.31
190.987	271.91
191.375	-180.99
191.763	20.62
192.151	136.81
192.538	-157.57
192.926	-30.43
193.314	1719.64
193.702	-35.3
194.089	309.73
194.477	-2.56
194.864	715.67
195.252	207.26
195.639	1.81
196.027	-531.24
196.414	535.49
196.801	19.75
197.189	157.84
197.576	-182.38
197.963	168.27
198.351	44.36
198.738	39.27
199.125	-19.7
199.512	17.05
199.899	-98.75
200.286	-21.22
200.673	15.91
201.06	-9.37
201.447	-3.5
201.833	49.6
202.22	-52.01
202.607	-17.24
202.994	44.68
203.38	-3.26
203.767	1.24
204.154	25.35
204.54	12.43
204.927	1.31
205.313	13.83
205.699	22.91
206.086	30.42
206.472	23.1
206.858	-36.38
207.245	-21.02
207.631	8.48
208.017	32.12
208.403	-52.92
208.789	-34.51
209.175	-11.93
209.561	-118.29
209.947	-77.58
210.333	-26.43
210.719	11.19
211.105	18.95
211.491	34.36
211.876	-10.88
212.262	-14.74
212.648	4.91
213.034	5.28
213.419	-3.94
213.805	-28.3
214.19	-5.87
214.576	-53.81
214.961	35.7
215.346	-16.57
215.732	27.83
216.117	13.91
216.502	3.78
216.888	0.34
217.273	12.15
217.658	-23.84
218.043	-18.25
218.428	-18.18
218.813	8.86
219.198	-46.44
219.583	-20.31
219.968	7.45
220.353	-27.2
220.738	-2.33
221.122	-14.03
221.507	-17.99
221.892	-39.88
222.276	-16.68
222.661	1.94
223.046	-16.79
223.43	19.83
223.815	-4.28
224.199	4.23
224.583	-11.1
224.968	-8.96
225.352	-12.77
225.736	-2.77
226.121	-0.74
226.505	-10.64
226.889	-3.19
227.273	-6.17
227.657	0.32
228.041	1.6
228.425	-1.8
228.809	-0.66
229.193	0.32
229.577	0.78
229.961	0.39
230.344	1.45
230.728	1.55
231.112	1.2
231.495	-0.27
231.879	1.72
232.263	1.96
232.646	0.35
233.03	2.06
233.413	0.84
233.797	-0.23
234.18	0.9
234.563	0.62
234.946	0.41
235.33	0.22
235.713	1.03
236.096	1.84
236.479	2.05
236.862	1.07
237.245	-0.11
237.628	1.13
238.011	0.58
238.394	-0.28
238.777	0.69
239.16	2.95
239.543	1.92
239.925	0.03
240.308	0.47
240.691	0.31
241.073	0.11
241.456	0.81
241.838	1.93
242.221	1.76
242.603	1.45
242.986	2.1
243.368	1.65
243.75	1.62
244.133	1.91
244.515	1.99
244.897	1.34
245.279	1.73
245.661	1.01
246.043	0.43
246.425	1.59
246.807	1.2
247.189	1.08
247.571	1.35
247.953	1.2
248.335	1.8
248.717	1.54
249.098	1.71
249.48	1.34
249.862	1.84
250.243	1.67
250.625	1.36
251.006	2.17
251.388	1.29
251.769	1.1
252.151	0.88
252.532	0.52
252.913	1.42
253.295	1.54
253.676	1.74
254.057	1.8
254.438	1.72
254.819	1.02
255.2	1.39
255.581	2.88
255.962	2.19
256.343	1.11
256.724	1.95
257.105	1.68
257.486	0.23
257.867	1.67
258.247	1.62
258.628	1.15
259.009	1.03
259.389	0.6
259.77	0.97
260.15	2.29
260.531	1.58
260.911	1.37
261.292	1.48
261.672	1.35
262.052	1.66
262.432	1.02
262.813	1.84
263.193	1.02
263.573	1.27
263.953	0.93
264.333	1.46
264.713	1.82
265.093	1.73
265.473	1.81
265.853	0.74
266.233	1.61
266.612	0.86
266.992	1.49
267.372	1.86
267.752	1.21
268.131	1.32
268.511	1.46
268.89	1.56
269.27	0.76
269.649	1.28
270.029	1.55
270.408	1.03
270.787	1.6
271.167	1.57
271.546	1.66
271.925	1.34
272.304	1.22
272.683	1.56
273.062	1.54
273.441	1.39
273.82	1.13
274.199	1.23
274.578	1.08
274.957	1.3
275.336	1.66
275.715	1.39
276.093	0.87
276.472	0.82
276.851	1.33
277.229	1.41
277.608	1.09
277.986	1.11
278.365	1.62
278.743	1.38
279.122	1.07
279.5	1.49
279.878	1.05
280.257	0.9
280.635	1.71
281.013	1.34
281.391	1.29
281.769	1.8
282.147	1.27
282.525	1.16
282.903	0.96
283.281	1.68
283.659	1.49
284.037	1.41
284.415	1.42
284.792	1.1
285.17	1.12
285.548	1.19
285.925	1.36
286.303	1.98
286.68	1.37
287.058	1.43
287.435	1.04
287.813	1.46
288.19	1.55
288.567	1.39
288.945	1.19
289.322	1.26
289.699	1.47
290.076	0.95
290.453	1.09
290.83	1.75
291.207	1.59
291.584	1.66
291.961	1.42
292.338	1.26
292.715	1.34
293.092	1.72
293.469	1.48
293.845	1.47
294.222	2.15
294.599	1.29
294.975	1.15
295.352	1.73
295.728	2.03
296.105	1.88
296.481	1.91
296.858	2.02
297.234	1.77
297.61	1.83
297.986	2.04
298.363	1.83
298.739	1.83
299.115	1.97
299.491	2.35
299.867	1.72
300.243	1.9
300.619	1.74
300.995	1.75
301.371	1.93
301.746	1.93
302.122	1.28
302.498	1.85
302.874	1.84
303.249	1.96
303.625	1.67
304	1.67
304.376	2.18
304.751	2.12
305.127	1.7
305.502	1.87
305.878	2.23
306.253	1.92
306.628	2.25
307.003	1.55
307.378	1.91
307.754	2.26
308.129	1.54
308.504	2.43
308.879	2.31
309.254	2.35
309.629	1.95
310.003	2.22
310.378	2.23
310.753	2.12
311.128	2.11
311.502	1.9
311.877	2.06
312.252	2.16
312.626	2.7
313.001	2.14
313.375	2.27
313.75	2.38
314.124	2.47
314.498	2.47
314.873	2.12
315.247	2.06
315.621	2.1
315.995	2.53
316.369	2.25
316.743	2.06
317.117	2.12
317.491	2.58
317.865	1.96
318.239	2.83
318.613	2.26
318.987	1.9
319.361	2.59
319.734	2.37
320.108	2.14
320.482	2.95
320.855	2.45
321.229	2.39
321.602	2.67
321.976	2.19
322.349	2.94
322.723	2.52
323.096	2.69
323.469	2.46
323.843	2.65
324.216	2.19
324.589	2.84
324.962	2.37
325.335	2.13
325.708	2.59
326.081	2.54
326.454	2.5
326.827	2.25
327.2	2.27
327.573	2.81
327.945	2.24
328.318	2.27
328.691	2.64
329.063	2.38
329.436	2.57
329.809	2.8
330.181	3.3
330.553	2.66
330.926	2.96
331.298	2.8
331.671	2.7
332.043	2.27
332.415	2.7
332.787	2.66
333.159	2.34
333.532	3.02
333.904	3.02
334.276	2.77
334.648	2.95
335.02	2.57
335.391	2.26
335.763	2.57
336.135	2.67
336.507	2.6
336.879	2.29
337.25	2.95
337.622	3.01
337.993	2.87
338.365	3.1
338.736	2.72
339.108	2.89
339.479	2.72
339.851	3.01
340.222	3.14
340.593	2.96
340.964	3.07
341.336	2.81
341.707	3.09
342.078	2.57
342.449	2.71
342.82	2.58
343.191	2.74
343.562	2.74
343.933	2.9
344.303	3.25
344.674	2.36
345.045	2.87
345.416	3.39
345.786	3.1
346.157	2.97
346.527	2.54
346.898	2.51
347.268	2.98
347.639	2.46
348.009	3.05
348.38	2.54
348.75	2.99
349.12	2.85
349.49	2.55
349.861	2.98
350.231	2.97
350.601	3.01
350.971	2.96
351.341	2.98
351.711	3.03
352.081	2.49
352.45	2.54
352.82	2.77
353.19	2.84
353.56	2.51
353.929	2.83
354.299	3.12
354.669	2.97
355.038	3.09
355.408	2.86
355.777	2.9
356.147	2.7
356.516	2.62
356.885	3.02
357.254	2.83
357.624	2.49
357.993	3.05
358.362	2.94
358.731	3.17
359.1	2.96
359.469	3.12
359.838	2.97
360.207	2.99
360.576	3.29
360.945	3.35
361.314	3.04
361.682	2.99
362.051	2.78
362.42	3.13
362.788	3.13
363.157	3.09
363.525	3.13
363.894	2.85
364.262	2.74
364.631	3.45
364.999	3.05
365.367	3
365.735	2.69
366.104	2.83
366.472	2.81
366.84	3.07
367.208	3.22
367.576	3.11
367.944	3.23
368.312	2.9
368.68	3.33
369.048	2.99
369.416	2.8
369.783	3.27
370.151	3.35
370.519	3.33
370.886	3.09
371.254	3.36
371.621	3.33
371.989	3.34
372.356	3.34
372.724	3.14
373.091	3.2
373.458	2.96
373.826	3.4
374.193	3.17
374.56	3.33
374.927	2.96
375.294	3.42
375.661	3.33
376.028	3.29
376.395	3.63
376.762	3.09
377.129	3.28
377.496	3.33
377.863	3.2
378.229	3.47
378.596	3.37
378.963	3.45
379.329	3.38
379.696	3.25
380.062	3.37
380.429	3.06
380.795	3.53
381.161	2.9
381.528	3.05
381.894	3.33
382.26	3.26
382.626	3.43
382.993	3.57
383.359	3.43
383.725	3.26
384.091	3.25
384.457	3.18
384.823	3.5
385.188	3.36
385.554	3.28
385.92	3.04
386.286	3.12
386.651	3.33
387.017	3.36
387.383	3.37
387.748	3.36
388.114	3.3
388.479	3.42
388.845	3.16
389.21	3.59
389.575	3.78
389.94	3.62
390.306	3.39
390.671	3.36
391.036	3.55
391.401	3.5
391.766	3.53
392.131	3.79
392.496	3.75
392.861	3.39
393.226	3.23
393.591	3.53
393.956	3.61
394.32	3.75
394.685	3.63
395.05	3.68
395.414	3.75
395.779	3.52
396.143	3.48
396.508	3.51
396.872	3.55
397.236	3.83
397.601	3.86
397.965	3.67
398.329	3.88
398.694	3.44
399.058	3.79
399.422	3.45
399.786	3.58
400.15	3.54
400.514	3.65
400.878	3.69
401.242	3.63
401.605	3.64
401.969	3.36
402.333	3.52
402.697	3.9
403.06	3.7
403.424	3.42
403.787	3.64
404.151	3.64
404.514	3.52
404.878	3.77
405.241	3.75
405.604	3.69
405.968	3.68
406.331	3.81
406.694	3.59
407.057	3.67
407.42	3.5
407.783	3.7
408.146	3.66
408.509	3.8
408.872	3.64
409.235	3.83
409.598	3.7
409.961	3.84
410.323	3.83
410.686	3.5
411.049	3.75
411.411	3.72
411.774	3.84
412.136	3.84
412.499	3.81
412.861	3.5
413.223	3.66
413.586	3.99
413.948	3.93
414.31	3.9
414.672	3.78
415.035	4.01
415.397	3.83
415.759	3.69
416.121	4.1
416.483	3.75
416.845	3.92
417.206	3.78
417.568	3.82
417.93	3.92
418.292	3.75
418.653	3.71
419.015	3.87
419.377	3.81
419.738	3.84
420.1	3.93
420.461	3.8
420.822	3.89
421.184	3.86
421.545	3.92
421.906	3.87
422.267	3.59
422.629	3.81
422.99	3.87
423.351	3.78
423.712	3.76
424.073	3.88
424.434	3.92
424.795	3.83
425.155	3.87
425.516	3.8
425.877	3.84
426.238	3.89
426.598	3.88
426.959	3.87
427.32	3.88
427.68	3.95
428.041	3.88
428.401	3.88
428.761	4.04
429.122	3.97
429.482	3.86
429.842	4
430.202	4.12
430.563	3.84
430.923	4.05
431.283	4.23
431.643	4.11
432.003	4.04
432.363	4.09
432.722	4.04
433.082	4.08
433.442	4.11
433.802	4.01
434.161	4.09
434.521	4.11
434.881	4.07
435.24	4.07
435.6	4
435.959	4.04
436.319	4.09
436.678	4.06
437.037	4.01
437.396	4.08
437.756	4.12
438.115	4.08
438.474	4.23
438.833	4.14
439.192	4.12
439.551	4.12
439.91	4.05
440.269	4.06
440.628	4.08
440.987	4.13
441.345	4.18
441.704	4.07
442.063	4.05
442.421	4.07
442.78	4.18
443.138	4.21
443.497	4.17
443.855	4.16
444.214	4.03
444.572	4.31
444.93	4.07
445.288	4.29
445.647	4.15
446.005	4.12
446.363	4.12
446.721	4.23
447.079	4.14
447.437	4.22
447.795	4.15
448.153	4.11
448.51	4.2
448.868	4.14
449.226	4.29
449.584	4.25
449.941	4.32
450.299	4.15
450.656	4.21
451.014	4.35
451.371	4.24
451.729	4.33
452.086	4.23
452.443	4.38
452.801	4.27
453.158	4.54
453.515	4.33
453.872	4.37
454.229	4.2
454.586	4.18
454.943	4.33
455.3	4.44
455.657	4.29
456.014	4.41
456.371	4.52
456.727	4.43
457.084	4.41
457.441	4.58
457.797	4.35
458.154	4.47
458.51	4.42
458.867	4.31
459.223	4.38
459.58	4.49
459.936	4.52
460.292	4.33
460.648	4.41
461.005	4.35
461.361	4.37
461.717	4.35
462.073	4.43
462.429	4.43
462.785	4.52
463.141	4.52
463.496	4.4
463.852	4.65
464.208	4.49
464.564	4.48
464.919	4.51
465.275	4.48
465.631	4.76
465.986	4.54
466.342	4.49
466.697	4.49
467.052	4.77
467.408	4.73
467.763	4.58
468.118	4.47
468.473	4.61
468.829	4.61
469.184	4.62
469.539	4.58
469.894	4.66
470.249	4.55
470.603	4.86
470.958	4.8
471.313	4.76
471.668	4.78
472.023	4.7
472.377	4.68
472.732	4.84
473.086	4.7
473.441	4.63
473.795	4.95
474.15	4.82
474.504	4.63
474.859	4.5
475.213	4.89
475.567	4.77
475.921	4.82
476.275	4.86
476.63	4.84
476.984	4.56
477.338	4.85
477.692	4.72
478.045	4.82
478.399	4.88
478.753	4.62
479.107	4.76
479.461	4.9
479.814	4.84
480.168	4.7
480.521	4.82
480.875	4.81
481.228	4.9
481.582	4.85
481.935	4.99
482.289	4.87
482.642	4.94
482.995	4.76
483.348	4.76
483.701	4.89
484.055	4.77
484.408	4.75
484.761	4.68
485.114	4.53
485.466	4.53
485.819	4.51
486.172	4.61
486.525	4.65
486.878	4.7
487.23	4.78
487.583	4.81
487.936	4.77
488.288	4.7
488.641	4.64
488.993	4.64
489.345	4.67
489.698	4.68
490.05	4.69
490.402	4.74
490.754	4.77
491.107	4.82
491.459	5.04
491.811	4.82
492.163	4.88
492.515	4.8
492.866	4.77
493.218	4.76
493.57	4.85
493.922	4.81
494.274	4.91
494.625	5.03
494.977	5.04
495.328	5.14
495.68	5.04
496.031	5.16
496.383	5.06
496.734	5.05
497.086	5.18
497.437	5.19
497.788	5.2
498.139	5.07
498.49	5.08
498.842	5.19
499.193	5.07
499.544	5.14
499.894	5.14
500.245	5.2
500.596	5.21
500.947	5.15
501.298	5.17
501.648	5.19
501.999	5.31
502.35	5.19
502.7	5.42
503.051	5.21
503.401	5.3
503.752	5.25
504.102	5.22
504.452	5.19
504.803	5.2
505.153	5.4
505.503	5.47
505.853	5.28
506.203	5.24
506.553	5.27
506.903	5.44
507.253	5.31
507.603	5.27
507.953	5.39
508.303	5.4
508.652	5.24
509.002	5.36
509.352	5.37
509.701	5.28
510.051	5.47
510.4	5.33
510.75	5.26
511.099	5.3
511.449	5.39
511.798	5.44
512.147	5.43
512.496	5.32
512.846	5.38
513.195	5.38
513.544	5.42
513.893	5.4
514.242	5.35
514.591	5.36
514.939	5.46
515.288	5.55
515.637	5.44
515.986	5.41
516.334	5.52
516.683	5.43
517.032	5.43
517.38	5.46
517.729	5.41
518.077	5.54
518.426	5.62
518.774	5.5
519.122	5.41
519.47	5.44
519.819	5.48
520.167	5.44
520.515	5.4
520.863	5.45
521.211	5.43
521.559	5.5
521.907	5.59
522.255	5.53
522.602	5.6
522.95	5.65
523.298	5.66
523.645	5.69
523.993	5.64
524.341	5.67
524.688	5.54
525.036	5.63
525.383	5.71
525.73	5.6
526.078	5.73
526.425	5.56
526.772	5.63
527.119	5.57
527.466	5.67
527.814	5.56
528.161	5.72
528.508	5.74
528.854	5.59
529.201	5.57
529.548	5.49
529.895	5.42
530.242	5.38
530.588	5.4
530.935	5.46
531.282	5.5
531.628	5.56
531.975	5.6
532.321	5.7
532.667	5.72
533.014	5.76
533.36	5.8
533.706	5.8
534.052	5.72
534.399	5.69
534.745	5.61
535.091	5.53
535.437	5.6
535.783	5.67
536.129	5.74
536.474	5.81
536.82	5.89
537.166	5.8
537.512	5.8
537.857	5.9
538.203	5.79
538.549	5.72
538.894	5.83
539.239	5.87
539.585	5.91
539.93	5.92
540.276	5.94
540.621	6.01
540.966	6.05
541.311	6.09
541.656	5.81
542.001	5.88
542.346	5.81
542.691	5.71
543.036	5.71
543.381	5.78
543.726	5.91
544.071	5.88
544.415	5.9
544.76	5.96
545.105	5.97
545.449	5.99
545.794	5.99
546.138	6.03
546.483	6.17
546.827	6.12
547.171	6.18
547.516	6.09
547.86	6.16
548.204	6.12
548.548	6.13
548.892	6.18
549.236	6.08
549.58	6.22
549.924	6.31
550.268	6.31
550.612	6.38
550.956	6.44
551.3	6.49
551.643	6.35
551.987	6.42
552.33	6.49
552.674	6.15
553.017	6.4
553.361	6.38
553.704	6.36
554.048	6.35
554.391	6.5
554.734	6.32
555.077	6.3
555.42	6.21
555.764	6.41
556.107	6.51
556.45	6.5
556.793	6.64
557.135	6.54
557.478	6.6
557.821	6.56
558.164	6.59
558.507	6.39
558.849	6.55
559.192	6.58
559.534	6.48
559.877	6.46
560.219	6.59
560.562	6.37
560.904	6.77
561.246	6.65
561.589	6.82
561.931	6.65
562.273	6.66
562.615	6.55
562.957	6.45
563.299	6.68
563.641	6.56
563.983	6.43
564.325	6.72
564.667	6.68
565.008	6.6
565.35	6.6
565.692	6.67
566.033	6.6
566.375	6.66
566.716	6.55
567.058	6.85
567.399	6.83
567.741	6.79
568.082	6.75
568.423	6.58
568.764	6.85
569.105	6.78
569.447	6.72
569.788	6.79
570.129	6.68
570.47	6.79
570.811	6.92
571.151	6.78
571.492	6.86
571.833	6.87
572.174	6.92
572.514	6.91
572.855	6.85
573.195	6.72
573.536	6.8
573.876	6.88
574.217	6.85
574.557	6.86
574.898	6.94
575.238	7
575.578	7.17
575.918	6.97
576.258	7.18
576.598	6.87
576.938	6.92
577.278	7.04
577.618	7.06
577.958	7.09
578.298	7.04
578.638	6.91
578.977	7.08
579.317	6.99
579.657	6.93
579.996	7.18
580.336	7.17
580.675	6.99
581.014	7.33
581.354	6.97
581.693	7.23
582.032	7.42
582.372	7.07
582.711	7.42
583.05	7.41
583.389	7.31
583.728	7.25
584.067	7.16
584.406	7.32
584.745	7.12
585.083	7.26
585.422	7.52
585.761	7.36
586.1	7.5
586.438	7.12
586.777	7.45
587.115	7.4
587.454	7.33
587.792	7.39
588.13	7.24
588.469	7.11
588.807	7.45
589.145	7.4
589.483	7.18
589.821	7.41
590.159	7.58
590.497	7.47
590.835	7.49
591.173	7.62
591.511	7.74
591.849	7.67
592.187	7.3
592.524	7.5
592.862	7.23
593.2	7.52
593.537	7.63
593.875	7.59
594.212	7.61
594.55	7.77
594.887	7.75
595.224	7.61
595.561	7.49
595.899	7.48
596.236	7.59
596.573	7.53
596.91	7.43
597.247	7.66
597.584	7.76
597.921	7.46
598.258	7.67
598.594	7.47
598.931	7.43
599.268	7.43
599.604	7.67
599.941	7.61
600.277	7.7
600.614	7.52
600.95	7.78
601.287	7.49
601.623	7.46
601.959	8
602.296	7.98
602.632	7.72
602.968	7.8
603.304	7.92
603.64	7.65
603.976	7.77
604.312	7.71
604.648	7.9
604.984	7.96
605.319	7.88
605.655	7.77
605.991	7.8
606.326	7.79
606.662	7.7
606.998	7.99
607.333	7.74
607.668	7.87
608.004	7.89
608.339	7.77
608.674	7.97
609.01	8.22
609.345	8.12
609.68	7.94
610.015	8.04
610.35	8.13
610.685	7.94
611.02	7.89
611.355	7.96
611.689	7.92
612.024	8.15
612.359	8.18
612.694	8.2
613.028	7.99
613.363	8.12
613.697	8.14
614.032	8.06
614.366	8.08
614.7	8.19
615.035	8.26
615.369	8.32
615.703	8.29
616.037	8.22
616.371	7.94
616.705	8.03
617.039	8.31
617.373	8.34
617.707	8.22
618.041	7.98
618.375	7.86
618.709	8.39
619.042	8.67
619.376	8.49
619.71	8.37
620.043	8.62
620.377	8.57
620.71	8.32
621.043	8.43
621.377	8.62
621.71	8.89
622.043	8.54
622.376	8.46
622.709	8.66
623.043	8.28
623.376	8.34
623.709	8.62
624.041	8.47
624.374	8.43
624.707	8.13
625.04	8.21
625.373	8.54
625.705	8.53
626.038	8.78
626.37	8.52
626.703	8.42
627.035	8.56
627.368	8.6
627.7	8.68
628.032	8.57
628.365	8.66
628.697	8.84
629.029	8.54
629.361	8.98
629.693	8.69
630.025	8.65
630.357	8.88
630.689	8.64
631.021	8.9
631.353	8.68
631.684	8.46
632.016	8.4
632.348	8.69
632.679	8.93
633.011	8.77
633.342	8.63
633.674	8.37
634.005	8.56
634.336	8.96
634.668	8.79
634.999	9.02
635.33	9.1
635.661	8.84
635.992	8.59
636.323	9.04
636.654	8.67
636.985	8.72
637.316	8.54
637.647	8.85
637.977	8.86
638.308	9.19
638.639	8.66
638.969	8.96
639.3	8.94
639.63	9.08
639.961	9.11
640.291	8.77
640.622	8.85
640.952	9.5
641.282	8.47
641.612	8.89
641.943	8.99
642.273	9.07
642.603	8.92
642.933	9.31
643.263	9.46
643.592	9.45
643.922	9.2
644.252	8.98
644.582	9.16
644.911	9.02
645.241	8.65
645.571	9.2
645.9	9.13
646.23	9.36
646.559	9.23
646.888	9.55
647.218	9.23
647.547	9.07
647.876	9.29
648.205	8.8
648.534	9.39
648.863	9.35
649.192	9.5
649.521	9.56
649.85	9.54
650.179	9.54
650.508	9.47
650.837	9.56
651.165	9.43
651.494	9.47
651.822	9.29
652.151	9.3
652.479	9.4
652.808	9.26
653.136	8.88
653.465	9.2
653.793	9.47
654.121	9.64
654.449	9.09
654.777	9.23
655.105	9.03
655.433	9.61
655.761	9.57
656.089	9.39
656.417	9.98
656.745	9.82
657.073	9.36
657.4	8.96
657.728	9.32
658.056	9.39
658.383	9.55
658.711	9.82
659.038	10.06
659.365	9.82
659.693	9.47
660.02	9.24
660.347	9.69
660.674	9.5
661.001	9.43
661.329	9.28
661.656	9.52
661.982	9.5
662.309	9.64
662.636	9.74
662.963	9.86
663.29	9.5
663.616	9.46
663.943	9.54
664.27	9.37
664.596	9.54
664.923	9.48
665.249	9.89
665.576	10.04
665.902	9.41
666.228	10.37
666.554	10.5
666.881	9.62
667.207	9.66
667.533	9.85
667.859	9.59
668.185	10.08
668.511	10.25
668.837	10.13
669.162	9.89
669.488	9.8
669.814	9.69
670.139	9.21
670.465	10.49
670.791	9.56
671.116	9.59
671.442	9.5
671.767	9.84
672.092	9.91
672.418	10.02
672.743	9.88
673.068	9.48
673.393	10.19
673.718	9.54
674.043	10.06
674.368	10.14
674.693	10.26
675.018	10.33
675.343	10.4
675.667	10.31
675.992	10.26
676.317	9.76
676.641	10.24
676.966	10.26
677.29	10.26
677.615	10.62
677.939	10.5
678.264	10.04
678.588	10.19
678.912	10.59
679.236	10.34
679.56	9.96
679.885	10.2
680.209	10.57
680.532	10.56
680.856	10.19
681.18	10.88
681.504	10.21
681.828	9.89
682.152	10.28
682.475	10.4
682.799	10.32
683.122	10.5
683.446	10.17
683.769	10.39
684.093	10.65
684.416	10.38
684.739	10.35
685.062	11.16
685.386	10.89
685.709	10.63
686.032	11.05
686.355	10.88
686.678	10.95
687.001	10.26
687.324	10.41
687.646	11.13
687.969	10.41
688.292	10.7
688.614	10.77
688.937	11.11
689.26	10.89
689.582	10.77
689.904	10.56
690.227	11.06
690.549	11.02
