Data from 0005_crown_Reflection__4__371.txt Node

Date: Thu Dec 15 19:30:07 CST 2022
User: ToomeyLab
Spectrometer: FLMS14357
Trigger mode: 0
Integration Time (sec): 1.000000E-2
Scans to average: 100
Electric dark correction enabled: true
Nonlinearity correction enabled: false
Boxcar width: 0
XAxis mode: Wavelengths
Number of Pixels in Spectrum: 2048
>>>>>Begin Spectral Data<<<<<
189.047	0.17
189.435	0.17
189.823	0.17
190.211	-8.36
190.599	85.95
190.987	166.31
191.375	56.06
191.763	42.72
192.151	94.33
192.538	-196.41
192.926	-36.14
193.314	700.52
193.702	86.02
194.089	172.22
194.477	24.4
194.864	261.76
195.252	129.73
195.639	65.83
196.027	113.64
196.414	-332.53
196.801	-16.38
197.189	377.4
197.576	80.19
197.963	-128.74
198.351	16.43
198.738	-60.97
199.125	-26.57
199.512	5.17
199.899	-75.98
200.286	-22.39
200.673	38.82
201.06	-72.15
201.447	-28.63
201.833	-11.84
202.22	-9.04
202.607	-73.2
202.994	9.27
203.38	16.4
203.767	19.85
204.154	15.64
204.54	13.53
204.927	25.08
205.313	18.92
205.699	1.4
206.086	3.73
206.472	27.12
206.858	-39.04
207.245	14
207.631	-49.86
208.017	29.66
208.403	-121.08
208.789	-14.23
209.175	-20.64
209.561	-108.41
209.947	-59.1
210.333	-36.53
210.719	-3.14
211.105	12.13
211.491	-6.53
211.876	-18.96
212.262	-5.81
212.648	-20.56
213.034	-19.87
213.419	-25.09
213.805	-65.77
214.19	-52.42
214.576	-71.25
214.961	19.13
215.346	-28.15
215.732	-21.07
216.117	14.61
216.502	-57.32
216.888	-1.74
217.273	-23.87
217.658	-21.67
218.043	-50.45
218.428	-44.97
218.813	1.04
219.198	-50.36
219.583	-31.09
219.968	-24.27
220.353	-20.06
220.738	-2.44
221.122	-12.96
221.507	-8.11
221.892	-31.66
222.276	-27.89
222.661	-31.09
223.046	-12.73
223.43	9.47
223.815	-5.87
224.199	-7.48
224.583	-5.49
224.968	-3.28
225.352	-9.5
225.736	9.94
226.121	-3.63
226.505	-7.41
226.889	-2.36
227.273	-4.04
227.657	0.39
228.041	4.96
228.425	-1.1
228.809	-1.88
229.193	1.2
229.577	3.74
229.961	3.34
230.344	3.17
230.728	3.52
231.112	3.37
231.495	1.74
231.879	3.41
232.263	3.79
232.646	2.53
233.03	4.59
233.413	2.68
233.797	1.13
234.18	0.44
234.563	3.92
234.946	1.7
235.33	2.77
235.713	3.33
236.096	3.63
236.479	2.52
236.862	2.8
237.245	0.87
237.628	3.14
238.011	3
238.394	2.07
238.777	1.08
239.16	2.63
239.543	4.14
239.925	0.83
240.308	2.49
240.691	1.96
241.073	2.47
241.456	3.42
241.838	2.16
242.221	2.74
242.603	3.28
242.986	2.75
243.368	3.16
243.75	3.06
244.133	3.31
244.515	2.75
244.897	2.61
245.279	2.37
245.661	2.35
246.043	2.49
246.425	3.56
246.807	2.88
247.189	3.17
247.571	2.54
247.953	3.07
248.335	2.94
248.717	2.92
249.098	3.07
249.48	2.77
249.862	2.81
250.243	3.26
250.625	2.99
251.006	3.61
251.388	2.6
251.769	2.41
252.151	3.24
252.532	1.81
252.913	2.54
253.295	2.83
253.676	2.85
254.057	2.68
254.438	2.51
254.819	2.21
255.2	2.95
255.581	2.73
255.962	2.96
256.343	2.34
256.724	1.69
257.105	1.94
257.486	1.42
257.867	1.6
258.247	2.3
258.628	3.47
259.009	2.67
259.389	2.03
259.77	2.36
260.15	3.55
260.531	2.84
260.911	2.92
261.292	2.8
261.672	2.92
262.052	2.58
262.432	2.58
262.813	2.66
263.193	2.67
263.573	3.12
263.953	2.05
264.333	2.64
264.713	2.94
265.093	2.68
265.473	3.44
265.853	3.15
266.233	2.31
266.612	3.12
266.992	2.57
267.372	2.27
267.752	3.12
268.131	2.48
268.511	2.68
268.89	3.23
269.27	2.46
269.649	2.31
270.029	2.41
270.408	2.17
270.787	2.61
271.167	2.55
271.546	3.56
271.925	2.79
272.304	2.57
272.683	1.98
273.062	2.41
273.441	2.16
273.82	2.44
274.199	2.36
274.578	2.67
274.957	2.32
275.336	2.68
275.715	2.83
276.093	2.49
276.472	2.01
276.851	2.59
277.229	2.51
277.608	1.82
277.986	2.73
278.365	2.61
278.743	2.33
279.122	2.65
279.5	2.03
279.878	2.08
280.257	2.15
280.635	2.66
281.013	2.31
281.391	2.5
281.769	2.99
282.147	2.64
282.525	1.96
282.903	2.33
283.281	2.72
283.659	2.81
284.037	2.6
284.415	2.32
284.792	2.26
285.17	1.92
285.548	2.25
285.925	2.06
286.303	2.73
286.68	2.29
287.058	2.66
287.435	2.36
287.813	2.42
288.19	2.1
288.567	2.26
288.945	2.36
289.322	2.55
289.699	2.32
290.076	2.49
290.453	2.05
290.83	2.49
291.207	2.26
291.584	2.31
291.961	2.66
292.338	2.58
292.715	2.45
293.092	2.62
293.469	2.42
293.845	2.07
294.222	2.75
294.599	1.72
294.975	1.88
295.352	2.23
295.728	2.27
296.105	2.46
296.481	2.51
296.858	1.9
297.234	2
297.61	2.82
297.986	2.62
298.363	2.71
298.739	2.7
299.115	2.44
299.491	2.64
299.867	2.19
300.243	2.39
300.619	2.04
300.995	2.37
301.371	2.06
301.746	2.39
302.122	1.62
302.498	2.28
302.874	2.53
303.249	2.36
303.625	1.93
304	2.47
304.376	2.48
304.751	2.56
305.127	2.18
305.502	2.27
305.878	2.49
306.253	2.17
306.628	2.86
307.003	2.49
307.378	2.25
307.754	1.98
308.129	1.69
308.504	2.23
308.879	2.28
309.254	2.67
309.629	2.2
310.003	2.09
310.378	2.22
310.753	2.36
311.128	1.95
311.502	2.46
311.877	2.31
312.252	2.27
312.626	2.73
313.001	2.48
313.375	2.63
313.75	2.6
314.124	2.35
314.498	2.5
314.873	2.4
315.247	2.08
315.621	2.16
315.995	2.2
316.369	2
316.743	1.93
317.117	2.42
317.491	2.41
317.865	1.72
318.239	2.88
318.613	1.85
318.987	2.05
319.361	2.22
319.734	2.34
320.108	1.76
320.482	2.93
320.855	2.68
321.229	2.75
321.602	2.68
321.976	1.48
322.349	2.73
322.723	1.68
323.096	2.07
323.469	1.91
323.843	2.04
324.216	2.15
324.589	2.39
324.962	2.1
325.335	2.29
325.708	2.05
326.081	2.35
326.454	2.25
326.827	2.55
327.2	2.08
327.573	2.74
327.945	2.08
328.318	1.88
328.691	2.05
329.063	2.37
329.436	2.24
329.809	2.35
330.181	3
330.553	2.36
330.926	2.87
331.298	2.09
331.671	2.39
332.043	2.25
332.415	2.6
332.787	2.77
333.159	2.29
333.532	2.41
333.904	2.51
334.276	2.47
334.648	2.51
335.02	2.28
335.391	2.02
335.763	2.51
336.135	2.96
336.507	1.83
336.879	2.07
337.25	2.44
337.622	2.72
337.993	2.66
338.365	2.38
338.736	2.58
339.108	2.66
339.479	2.49
339.851	2.54
340.222	2.56
340.593	2.19
340.964	2.6
341.336	2.06
341.707	2.35
342.078	2.11
342.449	2.47
342.82	2.22
343.191	2.39
343.562	2.31
343.933	2.64
344.303	2.5
344.674	2.19
345.045	2.64
345.416	2.52
345.786	2.6
346.157	2.64
346.527	2.67
346.898	2.08
347.268	2.55
347.639	2.48
348.009	2.4
348.38	2.23
348.75	2.71
349.12	2.51
349.49	2.37
349.861	2.59
350.231	2.47
350.601	2.69
350.971	2.26
351.341	2.29
351.711	2.81
352.081	2.13
352.45	2.54
352.82	2.04
353.19	2.37
353.56	1.91
353.929	2.66
354.299	2.87
354.669	2.73
355.038	2.76
355.408	2.54
355.777	2.93
356.147	2.82
356.516	2.32
356.885	2.26
357.254	2.24
357.624	2.11
357.993	2.56
358.362	2.8
358.731	2.89
359.1	2.7
359.469	2.93
359.838	2.57
360.207	2.56
360.576	2.48
360.945	2.42
361.314	2.7
361.682	2.48
362.051	2.5
362.42	2.45
362.788	2.52
363.157	2.58
363.525	2.63
363.894	2.51
364.262	2.75
364.631	2.69
364.999	2.68
365.367	2.4
365.735	2.35
366.104	2.67
366.472	2.53
366.84	2.57
367.208	2.72
367.576	2.58
367.944	2.63
368.312	2.72
368.68	2.84
369.048	2.81
369.416	2.54
369.783	2.68
370.151	2.84
370.519	3.13
370.886	2.46
371.254	2.82
371.621	2.73
371.989	2.8
372.356	2.82
372.724	2.61
373.091	2.52
373.458	2.37
373.826	2.73
374.193	2.54
374.56	2.76
374.927	2.88
375.294	2.94
375.661	2.88
376.028	2.64
376.395	2.76
376.762	2.42
377.129	2.83
377.496	2.71
377.863	2.95
378.229	3.04
378.596	2.88
378.963	2.97
379.329	2.83
379.696	2.74
380.062	2.61
380.429	2.53
380.795	3.09
381.161	2.42
381.528	2.57
381.894	2.52
382.26	2.96
382.626	2.86
382.993	3.23
383.359	2.6
383.725	2.34
384.091	3
384.457	2.51
384.823	2.71
385.188	3.06
385.554	2.71
385.92	2.64
386.286	2.68
386.651	2.64
387.017	3.15
387.383	2.83
387.748	3.07
388.114	2.88
388.479	2.77
388.845	2.59
389.21	2.99
389.575	3.07
389.94	2.79
390.306	2.79
390.671	2.82
391.036	2.86
391.401	2.77
391.766	2.78
392.131	2.94
392.496	2.9
392.861	2.86
393.226	2.87
393.591	3.03
393.956	2.81
394.32	3.06
394.685	2.84
395.05	2.96
395.414	2.75
395.779	3.07
396.143	2.74
396.508	2.68
396.872	2.93
397.236	3.21
397.601	2.9
397.965	2.84
398.329	2.96
398.694	2.9
399.058	3.09
399.422	3.05
399.786	3
400.15	2.77
400.514	2.97
400.878	2.88
401.242	3.2
401.605	3.2
401.969	2.89
402.333	2.96
402.697	3.25
403.06	3.01
403.424	3.11
403.787	2.87
404.151	3.04
404.514	2.96
404.878	2.72
405.241	2.94
405.604	2.98
405.968	3
406.331	3.04
406.694	2.95
407.057	2.89
407.42	2.9
407.783	3.04
408.146	2.96
408.509	3.21
408.872	2.83
409.235	3.06
409.598	2.91
409.961	3.05
410.323	2.89
410.686	2.78
411.049	3.05
411.411	3.03
411.774	2.93
412.136	3.2
412.499	3.04
412.861	2.67
413.223	2.92
413.586	2.98
413.948	3
414.31	3.04
414.672	2.79
415.035	3.19
415.397	3
415.759	2.76
416.121	3.2
416.483	2.91
416.845	3.13
417.206	2.87
417.568	2.9
417.93	3.04
418.292	2.86
418.653	2.9
419.015	3.05
419.377	2.89
419.738	3.05
420.1	3.05
420.461	3
420.822	3.02
421.184	3
421.545	2.96
421.906	2.98
422.267	2.97
422.629	2.96
422.99	2.93
423.351	2.89
423.712	2.99
424.073	3.07
424.434	3.12
424.795	2.93
425.155	2.91
425.516	2.9
425.877	2.98
426.238	2.97
426.598	3.1
426.959	3.09
427.32	2.9
427.68	3.03
428.041	3.09
428.401	2.92
428.761	3.19
429.122	3.13
429.482	2.9
429.842	2.99
430.202	3.03
430.563	3.02
430.923	3.05
431.283	3.16
431.643	3.16
432.003	3.22
432.363	3.22
432.722	3.17
433.082	3.01
433.442	3.2
433.802	3.04
434.161	3.01
434.521	3.14
434.881	3.04
435.24	3.06
435.6	3.12
435.959	3.16
436.319	3.01
436.678	3.13
437.037	3.14
437.396	2.99
437.756	2.93
438.115	2.91
438.474	3.1
438.833	2.98
439.192	3.01
439.551	3.12
439.91	3.08
440.269	3.11
440.628	3.12
440.987	3.1
441.345	3.11
441.704	3.06
442.063	3.11
442.421	3.03
442.78	3.12
443.138	3.1
443.497	3.1
443.855	2.99
444.214	2.94
444.572	3.19
444.93	3.08
445.288	3.08
445.647	3.01
446.005	3.11
446.363	3.12
446.721	3.02
447.079	3
447.437	3.08
447.795	3.09
448.153	3.02
448.51	3.06
448.868	3.06
449.226	3.06
449.584	3.03
449.941	3.05
450.299	3.07
450.656	3.11
451.014	3.18
451.371	3.18
451.729	3.13
452.086	3.03
452.443	3.22
452.801	3.12
453.158	3.23
453.515	3.01
453.872	3.03
454.229	2.88
454.586	3.04
454.943	3.19
455.3	3.19
455.657	3.11
456.014	3.38
456.371	3.17
456.727	3.21
457.084	3.28
457.441	3.15
457.797	3.08
458.154	3.15
458.51	3.16
458.867	2.98
459.223	3.11
459.58	3.22
459.936	3.09
460.292	3.16
460.648	3.04
461.005	3.06
461.361	3.08
461.717	3.06
462.073	3.12
462.429	3.27
462.785	3.33
463.141	3.17
463.496	3.17
463.852	3.24
464.208	3.09
464.564	3.15
464.919	3.08
465.275	3.19
465.631	3.23
465.986	3.18
466.342	3.03
466.697	3.18
467.052	3.2
467.408	3.11
467.763	3.21
468.118	3.11
468.473	3.24
468.829	3.24
469.184	3.18
469.539	3.12
469.894	3.16
470.249	3.25
470.603	3.34
470.958	3.34
471.313	3.26
471.668	3.34
472.023	3.26
472.377	3.19
472.732	3.29
473.086	3.21
473.441	3.27
473.795	3.41
474.15	3.21
474.504	3.16
474.859	3.04
475.213	3.22
475.567	3.11
475.921	3.24
476.275	3.24
476.63	3.28
476.984	3.09
477.338	3.29
477.692	3.14
478.045	3.16
478.399	3.08
478.753	3.14
479.107	3.29
479.461	3.22
479.814	3.27
480.168	3.18
480.521	3.34
480.875	3.28
481.228	3.13
481.582	3.2
481.935	3.26
482.289	3.19
482.642	3.29
482.995	3.15
483.348	3.21
483.701	3.19
484.055	3.19
484.408	3.18
484.761	3.06
485.114	2.98
485.466	2.94
485.819	2.98
486.172	3.02
486.525	3.06
486.878	3.16
487.23	3.14
487.583	3.18
487.936	3.12
488.288	3.04
488.641	3.04
488.993	3.03
489.345	3.02
489.698	3.04
490.05	3.05
490.402	3.07
490.754	3.14
491.107	3.14
491.459	3.24
491.811	3.21
492.163	3.23
492.515	3.1
492.866	3.04
493.218	3.07
493.57	3.11
493.922	3.14
494.274	3.29
494.625	3.26
494.977	3.25
495.328	3.29
495.68	3.19
496.031	3.21
496.383	3.23
496.734	3.23
497.086	3.21
497.437	3.23
497.788	3.33
498.139	3.17
498.49	3.25
498.842	3.16
499.193	3.26
499.544	3.28
499.894	3.3
500.245	3.29
500.596	3.22
500.947	3.13
501.298	3.21
501.648	3.27
501.999	3.37
502.35	3.24
502.7	3.49
503.051	3.24
503.401	3.23
503.752	3.22
504.102	3.19
504.452	3.19
504.803	3.14
505.153	3.36
505.503	3.21
505.853	3.26
506.203	3.25
506.553	3.17
506.903	3.29
507.253	3.32
507.603	3.29
507.953	3.31
508.303	3.33
508.652	3.23
509.002	3.36
509.352	3.32
509.701	3.21
510.051	3.26
510.4	3.34
510.75	3.22
511.099	3.1
511.449	3.26
511.798	3.21
512.147	3.22
512.496	3.27
512.846	3.18
513.195	3.36
513.544	3.25
513.893	3.24
514.242	3.22
514.591	3.15
514.939	3.31
515.288	3.34
515.637	3.24
515.986	3.3
516.334	3.39
516.683	3.25
517.032	3.2
517.38	3.3
517.729	3.25
518.077	3.19
518.426	3.22
518.774	3.2
519.122	3.24
519.47	3.24
519.819	3.24
520.167	3.22
520.515	3.19
520.863	3.18
521.211	3.22
521.559	3.23
521.907	3.34
522.255	3.26
522.602	3.39
522.95	3.42
523.298	3.35
523.645	3.37
523.993	3.3
524.341	3.37
524.688	3.33
525.036	3.24
525.383	3.31
525.73	3.22
526.078	3.26
526.425	3.2
526.772	3.19
527.119	3.19
527.466	3.28
527.814	3.25
528.161	3.34
528.508	3.33
528.854	3.31
529.201	3.25
529.548	3.16
529.895	3.09
530.242	3.1
530.588	3.11
530.935	3.14
531.282	3.22
531.628	3.22
531.975	3.25
532.321	3.26
532.667	3.27
533.014	3.4
533.36	3.31
533.706	3.26
534.052	3.31
534.399	3.23
534.745	3.16
535.091	3.15
535.437	3.19
535.783	3.31
536.129	3.3
536.474	3.32
536.82	3.41
537.166	3.29
537.512	3.29
537.857	3.27
538.203	3.24
538.549	3.24
538.894	3.31
539.239	3.36
539.585	3.34
539.93	3.3
540.276	3.35
540.621	3.36
540.966	3.3
541.311	3.42
541.656	3.3
542.001	3.23
542.346	3.25
542.691	3.18
543.036	3.19
543.381	3.18
543.726	3.29
544.071	3.26
544.415	3.26
544.76	3.31
545.105	3.24
545.449	3.24
545.794	3.32
546.138	3.27
546.483	3.39
546.827	3.3
547.171	3.29
547.516	3.39
547.86	3.4
548.204	3.34
548.548	3.36
548.892	3.28
549.236	3.3
549.58	3.4
549.924	3.5
550.268	3.52
550.612	3.46
550.956	3.52
551.3	3.54
551.643	3.51
551.987	3.59
552.33	3.57
552.674	3.3
553.017	3.53
553.361	3.31
553.704	3.52
554.048	3.37
554.391	3.48
554.734	3.27
555.077	3.27
555.42	3.31
555.764	3.47
556.107	3.51
556.45	3.5
556.793	3.61
557.135	3.6
557.478	3.34
557.821	3.39
558.164	3.41
558.507	3.36
558.849	3.48
559.192	3.37
559.534	3.33
559.877	3.39
560.219	3.35
560.562	3.43
560.904	3.56
561.246	3.49
561.589	3.59
561.931	3.62
562.273	3.56
562.615	3.32
562.957	3.25
563.299	3.37
563.641	3.52
563.983	3.4
564.325	3.52
564.667	3.51
565.008	3.41
565.35	3.44
565.692	3.42
566.033	3.36
566.375	3.49
566.716	3.27
567.058	3.41
567.399	3.43
567.741	3.4
568.082	3.48
568.423	3.49
568.764	3.5
569.105	3.5
569.447	3.27
569.788	3.49
570.129	3.38
570.47	3.41
570.811	3.4
571.151	3.45
571.492	3.47
571.833	3.55
572.174	3.56
572.514	3.48
572.855	3.6
573.195	3.3
573.536	3.57
573.876	3.51
574.217	3.32
574.557	3.34
574.898	3.44
575.238	3.55
575.578	3.6
575.918	3.44
576.258	3.57
576.598	3.47
576.938	3.47
577.278	3.35
577.618	3.42
577.958	3.46
578.298	3.46
578.638	3.29
578.977	3.52
579.317	3.75
579.657	3.55
579.996	3.52
580.336	3.71
580.675	3.4
581.014	3.68
581.354	3.33
581.693	3.42
582.032	3.56
582.372	3.63
582.711	3.71
583.05	3.43
583.389	3.75
583.728	3.6
584.067	3.33
584.406	3.57
584.745	3.42
585.083	3.43
585.422	3.66
585.761	3.6
586.1	3.49
586.438	3.41
586.777	3.58
587.115	3.59
587.454	3.3
587.792	3.66
588.13	3.48
588.469	3.59
588.807	3.79
589.145	3.59
589.483	3.24
589.821	3.41
590.159	3.67
590.497	3.47
590.835	3.72
591.173	3.74
591.511	3.64
591.849	3.56
592.187	3.2
592.524	3.38
592.862	3.54
593.2	3.55
593.537	3.53
593.875	3.58
594.212	3.57
594.55	3.61
594.887	3.6
595.224	3.65
595.561	3.55
595.899	3.6
596.236	3.53
596.573	3.4
596.91	3.41
597.247	3.68
597.584	3.74
597.921	3.47
598.258	3.63
598.594	3.42
598.931	3.33
599.268	3.44
599.604	3.67
599.941	3.58
600.277	3.67
600.614	3.41
600.95	3.71
601.287	3.34
601.623	3.44
601.959	3.85
602.296	3.53
602.632	3.43
602.968	3.25
603.304	3.64
603.64	3.54
603.976	3.37
604.312	3.5
604.648	3.73
604.984	3.7
605.319	3.47
605.655	3.36
605.991	3.47
606.326	3.5
606.662	3.32
606.998	3.67
607.333	3.56
607.668	3.56
608.004	3.57
608.339	3.58
608.674	3.51
609.01	3.69
609.345	3.41
609.68	3.38
610.015	3.64
610.35	3.63
610.685	3.45
611.02	3.46
611.355	3.43
611.689	3.32
612.024	3.63
612.359	3.6
612.694	3.59
613.028	3.36
613.363	3.34
613.697	3.51
614.032	3.63
614.366	3.46
614.7	3.81
615.035	3.51
615.369	3.5
615.703	3.81
616.037	3.41
616.371	3.39
616.705	3.45
617.039	3.67
617.373	3.67
617.707	3.53
618.041	3.35
618.375	3.01
618.709	3.4
619.042	3.51
619.376	3.6
619.71	3.53
620.043	3.95
620.377	3.66
620.71	3.35
621.043	4.07
621.377	3.74
621.71	3.89
622.043	3.52
622.376	3.57
622.709	3.78
623.043	3.63
623.376	3.76
623.709	3.81
624.041	3.86
624.374	3.73
624.707	3.69
625.04	3.67
625.373	3.72
625.705	3.53
626.038	3.8
626.37	3.35
626.703	3.42
627.035	3.51
627.368	3.93
627.7	3.54
628.032	3.71
628.365	3.78
628.697	3.84
629.029	3.56
629.361	3.83
629.693	3.67
630.025	3.61
630.357	3.66
630.689	3.51
631.021	3.83
631.353	3.84
631.684	3.27
632.016	3.55
632.348	3.48
632.679	3.82
633.011	3.88
633.342	3.68
633.674	3.49
634.005	3.52
634.336	3.78
634.668	3.61
634.999	3.47
635.33	3.74
635.661	3.48
635.992	3.5
636.323	3.68
636.654	3.58
636.985	3.41
637.316	3.43
637.647	3.62
637.977	3.61
638.308	3.88
638.639	3.75
638.969	3.51
639.3	3.52
639.63	3.75
639.961	4.01
640.291	3.5
640.622	3.59
640.952	3.85
641.282	3.68
641.612	3.33
641.943	3.38
642.273	3.6
642.603	3.64
642.933	3.98
643.263	3.88
643.592	3.58
643.922	3.84
644.252	3.9
644.582	3.82
644.911	3.49
645.241	3.47
645.571	3.65
645.9	3.95
646.23	3.68
646.559	3.36
646.888	3.86
647.218	4.09
647.547	3.59
647.876	3.65
648.205	3.44
648.534	3.74
648.863	3.67
649.192	4.09
649.521	3.95
649.85	3.91
650.179	3.8
650.508	3.49
650.837	4.02
651.165	3.84
651.494	3.65
651.822	4.01
652.151	3.86
652.479	4.19
652.808	3.71
653.136	3.8
653.465	3.53
653.793	3.44
654.121	3.66
654.449	3.16
654.777	3.37
655.105	3.18
655.433	3.81
655.761	3.54
656.089	3.55
656.417	4.27
656.745	4.12
657.073	3.71
657.4	3.26
657.728	3.46
658.056	3.63
658.383	3.46
658.711	3.91
659.038	4.4
659.365	3.65
659.693	3.73
660.02	3.56
660.347	3.75
660.674	3.45
661.001	3.72
661.329	3.3
661.656	3.53
661.982	3.59
662.309	3.62
662.636	4.04
662.963	3.54
663.29	3.82
663.616	3.65
663.943	3.69
664.27	3.51
664.596	3.81
664.923	3.66
665.249	4.18
665.576	3.59
665.902	3.25
666.228	3.84
666.554	4.3
666.881	3.81
667.207	3.56
667.533	3.76
667.859	3.65
668.185	3.72
668.511	3.94
668.837	3.55
669.162	3.79
669.488	3.13
669.814	3.98
670.139	2.9
670.465	3.97
670.791	3.45
671.116	3.2
671.442	3.17
671.767	3.71
672.092	3.81
672.418	3.74
672.743	3.47
673.068	3.31
673.393	3.55
673.718	3.1
674.043	3.93
674.368	3.76
674.693	4.42
675.018	4.48
675.343	3.76
675.667	3.2
675.992	4.18
676.317	3.2
676.641	3.57
676.966	3.52
677.29	3.28
677.615	3.26
677.939	4.16
678.264	4.02
678.588	4
678.912	3.58
679.236	3.6
679.56	3.35
679.885	3.6
680.209	3.94
680.532	4.3
680.856	4.28
681.18	4.26
681.504	3.78
681.828	3.74
682.152	3.76
682.475	3.94
682.799	3.43
683.122	3.98
683.446	3.15
683.769	4.26
684.093	4.14
684.416	3.07
684.739	3.69
685.062	3.9
685.386	3.96
685.709	4.19
686.032	4.29
686.355	3.9
686.678	3.88
687.001	3.32
687.324	4.01
687.646	3.78
687.969	3.8
688.292	3.71
688.614	4.01
688.937	3.79
689.26	3.84
689.582	3.91
689.904	3.66
690.227	4.07
690.549	4.05
690.871	3.81
691.194	3.36
691.516	3.73
691.838	4.17
692.16	3.43
