Data from 0005_crown_Reflection__2__369.txt Node

Date: Thu Dec 15 19:29:43 CST 2022
User: ToomeyLab
Spectrometer: FLMS14357
Trigger mode: 0
Integration Time (sec): 1.000000E-2
Scans to average: 100
Electric dark correction enabled: true
Nonlinearity correction enabled: false
Boxcar width: 0
XAxis mode: Wavelengths
Number of Pixels in Spectrum: 2048
>>>>>Begin Spectral Data<<<<<
189.047	50.31
189.435	50.31
189.823	50.31
190.211	-217.13
190.599	97.38
190.987	25.45
191.375	-112.81
191.763	26.28
192.151	192.66
192.538	-143.07
192.926	46.21
193.314	372.35
193.702	-19.37
194.089	31.03
194.477	88.95
194.864	543.26
195.252	140.42
195.639	28.54
196.027	57.27
196.414	963.96
196.801	115.05
197.189	484.94
197.576	-121.65
197.963	-194.5
198.351	-27.52
198.738	-59.78
199.125	-38.27
199.512	3.1
199.899	-55.83
200.286	-67.48
200.673	33.87
201.06	-36.23
201.447	-26.01
201.833	-6.32
202.22	-18.49
202.607	-38.13
202.994	-56.71
203.38	23.76
203.767	-13.59
204.154	19.1
204.54	-3.5
204.927	-18.5
205.313	-16.54
205.699	13.34
206.086	4.2
206.472	13.83
206.858	22.39
207.245	-0.38
207.631	-37.91
208.017	41.29
208.403	-64.07
208.789	-12.7
209.175	2.42
209.561	-150.09
209.947	-38.32
210.333	-21.49
210.719	-18.97
211.105	15.23
211.491	-32.49
211.876	-21.04
212.262	-5.44
212.648	1.87
213.034	-23.84
213.419	-28.72
213.805	-28.9
214.19	-33.57
214.576	-51.36
214.961	-5.47
215.346	-23.8
215.732	-19.42
216.117	-3.99
216.502	-40.43
216.888	1.95
217.273	-5.99
217.658	-43.64
218.043	-39.61
218.428	-43.66
218.813	3.62
219.198	-31.38
219.583	-34.8
219.968	-16.24
220.353	-15.23
220.738	-17.87
221.122	-23.99
221.507	-22.67
221.892	-46.02
222.276	-29.14
222.661	-9.62
223.046	-4.27
223.43	7.34
223.815	15.89
224.199	-5.6
224.583	-1.76
224.968	2.04
225.352	-10.42
225.736	5.44
226.121	-1.97
226.505	-0.09
226.889	6.76
227.273	-0.45
227.657	7.04
228.041	7.55
228.425	4.25
228.809	2.23
229.193	9.37
229.577	8.17
229.961	8.08
230.344	8.86
230.728	9.14
231.112	9.6
231.495	6.1
231.879	8.66
232.263	7.77
232.646	7.4
233.03	8.57
233.413	6.12
233.797	4.95
234.18	3.42
234.563	7.07
234.946	7.35
235.33	8
235.713	8
236.096	7.12
236.479	8.52
236.862	7.23
237.245	6.66
237.628	6.87
238.011	6.77
238.394	5.22
238.777	7.09
239.16	7.21
239.543	6.45
239.925	6.25
240.308	4.26
240.691	8.79
241.073	6.92
241.456	6.84
241.838	7.77
242.221	7.28
242.603	8.32
242.986	7.24
243.368	8.05
243.75	7.65
244.133	7.7
244.515	7.45
244.897	7.44
245.279	6.81
245.661	6.84
246.043	8.13
246.425	7.53
246.807	6.86
247.189	7.16
247.571	7.41
247.953	7.1
248.335	7.35
248.717	7.74
249.098	7.49
249.48	7.24
249.862	7.4
250.243	7.32
250.625	7.56
251.006	7.51
251.388	6.86
251.769	7.3
252.151	7.13
252.532	6.21
252.913	6.94
253.295	6.82
253.676	7.05
254.057	6.9
254.438	7.67
254.819	6.65
255.2	6.74
255.581	7.78
255.962	7.19
256.343	7.6
256.724	7.35
257.105	6.06
257.486	5.73
257.867	5.91
258.247	6.72
258.628	6.62
259.009	6.11
259.389	6.34
259.77	6.38
260.15	7.02
260.531	6.54
260.911	6.79
261.292	6.82
261.672	6.84
262.052	6.71
262.432	6.55
262.813	6.54
263.193	6.51
263.573	6.33
263.953	6.34
264.333	6.34
264.713	6.43
265.093	6.31
265.473	7.3
265.853	6.4
266.233	5.98
266.612	5.32
266.992	6.42
267.372	7.05
267.752	6.65
268.131	6.07
268.511	6.3
268.89	6.55
269.27	5.82
269.649	5.96
270.029	6.23
270.408	5.56
270.787	6.21
271.167	6.85
271.546	6.38
271.925	6.01
272.304	6.21
272.683	6.07
273.062	6.2
273.441	5.67
273.82	6.31
274.199	6.32
274.578	6.26
274.957	6.11
275.336	6.38
275.715	6.52
276.093	6.09
276.472	5.96
276.851	6.34
277.229	6.12
277.608	6.03
277.986	5.88
278.365	6.1
278.743	6
279.122	5.4
279.5	5.57
279.878	5.79
280.257	6.18
280.635	6.26
281.013	5.7
281.391	5.57
281.769	6.11
282.147	5.96
282.525	5.74
282.903	5.89
283.281	6.26
283.659	6.26
284.037	5.73
284.415	5.57
284.792	6
285.17	5.67
285.548	5.74
285.925	5.83
286.303	6.25
286.68	5.86
287.058	5.99
287.435	5.77
287.813	6.07
288.19	5.55
288.567	5.74
288.945	5.37
289.322	5.89
289.699	6.12
290.076	5.55
290.453	5.83
290.83	5.93
291.207	5.55
291.584	6.15
291.961	5.75
292.338	5.53
292.715	5.74
293.092	6.22
293.469	5.45
293.845	5.69
294.222	5.81
294.599	5.2
294.975	5.1
295.352	5.91
295.728	5.3
296.105	5.3
296.481	5.55
296.858	6.03
297.234	5.55
297.61	5.73
297.986	5.77
298.363	5.67
298.739	6.01
299.115	5.85
299.491	5.81
299.867	5.32
300.243	5.39
300.619	5.41
300.995	5.41
301.371	5.75
301.746	5.76
302.122	5.03
302.498	5.41
302.874	5.76
303.249	5.25
303.625	5.27
304	5.39
304.376	5.66
304.751	5.58
305.127	5.01
305.502	5.52
305.878	5.57
306.253	5.39
306.628	5.4
307.003	5.51
307.378	5.44
307.754	5.74
308.129	5.27
308.504	5.71
308.879	5.65
309.254	5.78
309.629	5.88
310.003	5.09
310.378	5.35
310.753	5.97
311.128	5.1
311.502	5.32
311.877	5.05
312.252	5.78
312.626	6
313.001	5.52
313.375	5.58
313.75	5.33
314.124	5.5
314.498	5.72
314.873	5.18
315.247	5.24
315.621	5.09
315.995	5.6
316.369	5.26
316.743	5.29
317.117	4.9
317.491	5.38
317.865	5.05
318.239	5.55
318.613	5.11
318.987	5.16
319.361	5.36
319.734	5.18
320.108	5.55
320.482	5.84
320.855	5.27
321.229	5.34
321.602	5.44
321.976	4.74
322.349	5.53
322.723	4.86
323.096	5
323.469	5.06
323.843	5.01
324.216	5.42
324.589	5.3
324.962	5.28
325.335	5.36
325.708	5.56
326.081	5.2
326.454	5.48
326.827	5.42
327.2	5.16
327.573	5.49
327.945	5.07
328.318	5.21
328.691	5.2
329.063	4.85
329.436	4.75
329.809	5.57
330.181	6.08
330.553	5.52
330.926	5.44
331.298	5.4
331.671	5.33
332.043	5.01
332.415	5.12
332.787	5.4
333.159	5.21
333.532	5.38
333.904	5.86
334.276	5.55
334.648	5.51
335.02	5.37
335.391	5.28
335.763	4.98
336.135	5.59
336.507	4.97
336.879	5.27
337.25	5.4
337.622	5.37
337.993	5.19
338.365	5.57
338.736	5.4
339.108	5.63
339.479	5.25
339.851	5.39
340.222	5.77
340.593	5.31
340.964	5.81
341.336	5.25
341.707	5.42
342.078	5.34
342.449	5.75
342.82	5.77
343.191	5.4
343.562	5.54
343.933	5.47
344.303	5.66
344.674	5.69
345.045	5.36
345.416	5.88
345.786	5.68
346.157	5.82
346.527	6.01
346.898	5.38
347.268	5.93
347.639	5.84
348.009	5.65
348.38	5.6
348.75	5.62
349.12	6.05
349.49	5.76
349.861	5.74
350.231	5.6
350.601	5.54
350.971	5.52
351.341	5.98
351.711	5.41
352.081	5.37
352.45	5.3
352.82	5.55
353.19	5.43
353.56	5.41
353.929	5.7
354.299	5.92
354.669	6.14
355.038	6.13
355.408	5.82
355.777	5.63
356.147	5.66
356.516	5.45
356.885	5.67
357.254	5.69
357.624	5.22
357.993	5.62
358.362	5.77
358.731	5.85
359.1	6
359.469	6.15
359.838	5.77
360.207	5.79
360.576	5.95
360.945	5.88
361.314	5.91
361.682	5.65
362.051	6.06
362.42	5.82
362.788	5.98
363.157	5.73
363.525	5.97
363.894	5.68
364.262	6.04
364.631	6.23
364.999	5.89
365.367	5.95
365.735	5.9
366.104	5.83
366.472	6.04
366.84	5.76
367.208	6.16
367.576	5.94
367.944	5.91
368.312	5.74
368.68	5.95
369.048	5.97
369.416	5.69
369.783	5.94
370.151	6.17
370.519	6.13
370.886	6.18
371.254	5.96
371.621	5.88
371.989	6.12
372.356	6.01
372.724	5.86
373.091	5.85
373.458	5.87
373.826	6.17
374.193	6.07
374.56	6.22
374.927	5.56
375.294	6.23
375.661	6.22
376.028	5.9
376.395	6.04
376.762	5.57
377.129	6.06
377.496	6
377.863	6.05
378.229	6.27
378.596	6.25
378.963	6.4
379.329	6.36
379.696	6.1
380.062	6.31
380.429	5.76
380.795	6.33
381.161	5.88
381.528	5.98
381.894	6.19
382.26	6.27
382.626	6.02
382.993	6.45
383.359	6.1
383.725	6.06
384.091	6.18
384.457	6.26
384.823	6.24
385.188	6.2
385.554	6.43
385.92	6.05
386.286	6.38
386.651	5.98
387.017	6.61
387.383	6.21
387.748	6.5
388.114	6.2
388.479	6.16
388.845	6.09
389.21	6.39
389.575	6.32
389.94	6.68
390.306	6.21
390.671	6.41
391.036	6.16
391.401	6.35
391.766	6.24
392.131	6.58
392.496	6.1
392.861	6.1
393.226	6.31
393.591	6.61
393.956	6.34
394.32	6.27
394.685	6.35
395.05	6.37
395.414	6.24
395.779	6.51
396.143	6.23
396.508	6.43
396.872	6.32
397.236	6.49
397.601	6.45
397.965	6.14
398.329	6.37
398.694	6.18
399.058	6.23
399.422	6.44
399.786	6.42
400.15	6.25
400.514	6.59
400.878	6.31
401.242	6.55
401.605	6.44
401.969	6.06
402.333	6.34
402.697	6.67
403.06	6.43
403.424	6.36
403.787	6.46
404.151	6.14
404.514	6.34
404.878	6.36
405.241	6.41
405.604	6.3
405.968	6.6
406.331	6.45
406.694	6.51
407.057	6.21
407.42	6.33
407.783	6.51
408.146	6.44
408.509	6.39
408.872	6.48
409.235	6.49
409.598	6.42
409.961	6.66
410.323	6.26
410.686	6.44
411.049	6.64
411.411	6.47
411.774	6.46
412.136	6.5
412.499	6.58
412.861	6.25
413.223	6.29
413.586	6.48
413.948	6.54
414.31	6.58
414.672	6.65
415.035	6.66
415.397	6.38
415.759	6.19
416.121	6.71
416.483	6.38
416.845	6.35
417.206	6.31
417.568	6.37
417.93	6.45
418.292	6.28
418.653	6.09
419.015	6.43
419.377	6.29
419.738	6.41
420.1	6.43
420.461	6.23
420.822	6.39
421.184	6.38
421.545	6.39
421.906	6.36
422.267	6.27
422.629	6.2
422.99	6.35
423.351	6.4
423.712	6.39
424.073	6.42
424.434	6.33
424.795	6.36
425.155	6.23
425.516	6.23
425.877	6.35
426.238	6.38
426.598	6.41
426.959	6.39
427.32	6.38
427.68	6.4
428.041	6.41
428.401	6.38
428.761	6.46
429.122	6.5
429.482	6.41
429.842	6.32
430.202	6.57
430.563	6.47
430.923	6.41
431.283	6.54
431.643	6.62
432.003	6.51
432.363	6.46
432.722	6.45
433.082	6.39
433.442	6.55
433.802	6.46
434.161	6.44
434.521	6.42
434.881	6.52
435.24	6.52
435.6	6.5
435.959	6.48
436.319	6.38
436.678	6.5
437.037	6.49
437.396	6.39
437.756	6.48
438.115	6.43
438.474	6.49
438.833	6.34
439.192	6.42
439.551	6.35
439.91	6.47
440.269	6.44
440.628	6.37
440.987	6.43
441.345	6.41
441.704	6.55
442.063	6.5
442.421	6.41
442.78	6.32
443.138	6.47
443.497	6.36
443.855	6.5
444.214	6.49
444.572	6.49
444.93	6.35
445.288	6.36
445.647	6.28
446.005	6.45
446.363	6.4
446.721	6.48
447.079	6.38
447.437	6.37
447.795	6.4
448.153	6.42
448.51	6.36
448.868	6.37
449.226	6.43
449.584	6.42
449.941	6.45
450.299	6.31
450.656	6.3
451.014	6.41
451.371	6.48
451.729	6.53
452.086	6.44
452.443	6.61
452.801	6.49
453.158	6.62
453.515	6.37
453.872	6.5
454.229	6.28
454.586	6.41
454.943	6.53
455.3	6.39
455.657	6.43
456.014	6.32
456.371	6.55
456.727	6.6
457.084	6.64
457.441	6.29
457.797	6.36
458.154	6.35
458.51	6.31
458.867	6.45
459.223	6.26
459.58	6.44
459.936	6.39
460.292	6.37
460.648	6.29
461.005	6.26
461.361	6.39
461.717	6.31
462.073	6.31
462.429	6.34
462.785	6.38
463.141	6.39
463.496	6.37
463.852	6.46
464.208	6.51
464.564	6.53
464.919	6.42
465.275	6.62
465.631	6.51
465.986	6.45
466.342	6.5
466.697	6.37
467.052	6.57
467.408	6.74
467.763	6.38
468.118	6.22
468.473	6.55
468.829	6.42
469.184	6.44
469.539	6.26
469.894	6.43
470.249	6.52
470.603	6.53
470.958	6.58
471.313	6.49
471.668	6.39
472.023	6.44
472.377	6.42
472.732	6.57
473.086	6.45
473.441	6.38
473.795	6.55
474.15	6.49
474.504	6.54
474.859	6.2
475.213	6.49
475.567	6.39
475.921	6.5
476.275	6.39
476.63	6.33
476.984	6.33
477.338	6.39
477.692	6.18
478.045	6.53
478.399	6.39
478.753	6.38
479.107	6.31
479.461	6.25
479.814	6.31
480.168	6.46
480.521	6.47
480.875	6.33
481.228	6.38
481.582	6.46
481.935	6.53
482.289	6.39
482.642	6.38
482.995	6.43
483.348	6.28
483.701	6.33
484.055	6.22
484.408	6.22
484.761	6.17
485.114	6.01
485.466	6.05
485.819	6.06
486.172	6.04
486.525	6.09
486.878	6.08
487.23	6.15
487.583	6.14
487.936	6.16
488.288	6.17
488.641	6.11
488.993	6.06
489.345	6.09
489.698	6.07
490.05	6.06
490.402	6.11
490.754	6.12
491.107	6.15
491.459	6.28
491.811	6.35
492.163	6.23
492.515	6.1
492.866	6.08
493.218	6.12
493.57	6.17
493.922	6.14
494.274	6.2
494.625	6.25
494.977	6.26
495.328	6.38
495.68	6.29
496.031	6.36
496.383	6.37
496.734	6.15
497.086	6.33
497.437	6.31
497.788	6.34
498.139	6.33
498.49	6.31
498.842	6.31
499.193	6.23
499.544	6.34
499.894	6.2
500.245	6.36
500.596	6.27
500.947	6.34
501.298	6.36
501.648	6.31
501.999	6.38
502.35	6.29
502.7	6.38
503.051	6.34
503.401	6.45
503.752	6.22
504.102	6.32
504.452	6.21
504.803	6.35
505.153	6.35
505.503	6.44
505.853	6.37
506.203	6.33
506.553	6.29
506.903	6.39
507.253	6.3
507.603	6.28
507.953	6.27
508.303	6.17
508.652	6.17
509.002	6.18
509.352	6.23
509.701	6.17
510.051	6.33
510.4	6.34
510.75	6.2
511.099	6.15
511.449	6.28
511.798	6.32
512.147	6.17
512.496	6.23
512.846	6.17
513.195	6.26
513.544	6.26
513.893	6.23
514.242	6.3
514.591	6.25
514.939	6.32
515.288	6.29
515.637	6.18
515.986	6.3
516.334	6.09
516.683	6.2
517.032	6.34
517.38	6.2
517.729	6.28
518.077	6.28
518.426	6.37
518.774	6.22
519.122	6.24
519.47	6.11
519.819	6.19
520.167	6.16
520.515	6.2
520.863	6.21
521.211	6.19
521.559	6.13
521.907	6.25
522.255	6.22
522.602	6.26
522.95	6.3
523.298	6.26
523.645	6.3
523.993	6.15
524.341	6.21
524.688	6.27
525.036	6.29
525.383	6.2
525.73	6.16
526.078	6.19
526.425	6.2
526.772	6.22
527.119	6.16
527.466	6.18
527.814	6.14
528.161	6.27
528.508	6.24
528.854	6.15
529.201	6.08
529.548	6.08
529.895	5.99
530.242	5.96
530.588	5.95
530.935	6
531.282	5.95
531.628	6.01
531.975	6.06
532.321	6.11
532.667	6.15
533.014	6.14
533.36	6.12
533.706	6.16
534.052	6.13
534.399	6.07
534.745	6.04
535.091	6.02
535.437	6.03
535.783	6.06
536.129	6.05
536.474	6.21
536.82	6.14
537.166	6.08
537.512	6.11
537.857	6.17
538.203	6.05
538.549	6.03
538.894	6.12
539.239	6.15
539.585	6.14
539.93	6.22
540.276	6.19
540.621	6.18
540.966	6.23
541.311	6.3
541.656	6.15
542.001	6.19
542.346	6.07
542.691	5.92
543.036	5.98
543.381	5.95
543.726	6.03
544.071	6.06
544.415	6.03
544.76	6.06
545.105	6.05
545.449	6.07
545.794	6.08
546.138	6.08
546.483	6.16
546.827	6.03
547.171	6.11
547.516	6.18
547.86	6.14
548.204	6.16
548.548	6.13
548.892	6.13
549.236	5.99
549.58	6.26
549.924	6.33
550.268	6.25
550.612	6.29
550.956	6.26
551.3	6.41
551.643	6.17
551.987	6.36
552.33	6.35
552.674	6.24
553.017	6.32
553.361	6.31
553.704	6.22
554.048	6.27
554.391	6.24
554.734	6.04
555.077	6.24
555.42	6.22
555.764	6.17
556.107	6.3
556.45	6.23
556.793	6.46
557.135	6.38
557.478	6.14
557.821	6.22
558.164	6.25
558.507	6.16
558.849	6.29
559.192	6.16
559.534	6.18
559.877	6.31
560.219	6.29
560.562	6.12
560.904	6.27
561.246	6.19
561.589	6.45
561.931	6.3
562.273	6.12
562.615	6.06
562.957	6.21
563.299	6.25
563.641	6.1
563.983	6.06
564.325	6.17
564.667	5.93
565.008	6.15
565.35	6.12
565.692	6.26
566.033	6.1
566.375	6.2
566.716	6.06
567.058	6.15
567.399	6.26
567.741	6.25
568.082	6.09
568.423	6.25
568.764	6.19
569.105	6.18
569.447	6.07
569.788	6.18
570.129	6.14
570.47	6.14
570.811	6.24
571.151	6.26
571.492	5.97
571.833	6.06
572.174	6.2
572.514	6.18
572.855	6.18
573.195	6.09
573.536	6.32
573.876	6.3
574.217	6.05
574.557	5.95
574.898	6.08
575.238	6.11
575.578	6.17
575.918	5.98
576.258	6.19
576.598	6.06
576.938	6.08
577.278	6.16
577.618	6.21
577.958	6.23
578.298	6.26
578.638	6.25
578.977	6.09
579.317	6.14
579.657	6.17
579.996	6.2
580.336	6.25
580.675	6.1
581.014	6.15
581.354	6.01
581.693	6.21
582.032	6.16
582.372	6.19
582.711	6.27
583.05	6.32
583.389	6.3
583.728	6.36
584.067	5.99
584.406	6.36
584.745	6.04
585.083	6.12
585.422	6.48
585.761	6.25
586.1	6.17
586.438	5.93
586.777	6.24
587.115	6.42
587.454	6.06
587.792	6.16
588.13	6.17
588.469	5.99
588.807	6.17
589.145	6.37
589.483	5.92
589.821	6.2
590.159	6.11
590.497	6.08
590.835	6.15
591.173	6.27
591.511	6.38
591.849	6.16
592.187	6.06
592.524	6.46
592.862	6.01
593.2	6.29
593.537	6.11
593.875	6.09
594.212	6.4
594.55	6.21
594.887	6.14
595.224	6.3
595.561	6.1
595.899	6.31
596.236	6.25
596.573	5.9
596.91	6.05
597.247	6.1
597.584	5.98
597.921	6.15
598.258	6.16
598.594	6.01
598.931	5.87
599.268	5.85
599.604	6.12
599.941	6.06
600.277	6.28
600.614	6.04
600.95	5.9
601.287	5.89
601.623	5.85
601.959	6.48
602.296	6.07
602.632	5.93
602.968	6.09
603.304	6.23
603.64	6.05
603.976	6.05
604.312	6.15
604.648	6.14
604.984	6.2
605.319	6.09
605.655	5.86
605.991	5.97
606.326	6.15
606.662	5.84
606.998	6.23
607.333	5.99
607.668	6.02
608.004	5.94
608.339	6.05
608.674	6.05
609.01	6.27
609.345	6.09
609.68	5.82
610.015	5.9
610.35	6.03
610.685	5.64
611.02	5.92
611.355	5.89
611.689	6.15
612.024	6
612.359	6.07
612.694	6.26
613.028	6.06
613.363	6
613.697	5.86
614.032	5.8
614.366	6.12
614.7	6.06
615.035	5.98
615.369	6.19
615.703	6.26
616.037	6.33
616.371	5.88
616.705	6.02
617.039	6.22
617.373	6.16
617.707	6.27
618.041	5.86
618.375	5.75
618.709	5.93
619.042	5.81
619.376	6.02
619.71	6.04
620.043	6.45
620.377	6.2
620.71	5.62
621.043	5.88
621.377	6.22
621.71	6.29
622.043	5.92
622.376	5.93
622.709	6.24
623.043	6.06
623.376	5.93
623.709	6.18
624.041	5.94
624.374	6.37
624.707	6.17
625.04	6.05
625.373	6.2
625.705	6.11
626.038	5.98
626.37	5.87
626.703	6.09
627.035	5.97
627.368	6.16
627.7	5.91
628.032	5.97
628.365	6.26
628.697	6.15
629.029	5.98
629.361	6.39
629.693	6.11
630.025	6.06
630.357	6.1
630.689	6.1
631.021	6.12
631.353	6.22
631.684	5.92
632.016	5.58
632.348	5.89
632.679	6.09
633.011	6
633.342	6.02
633.674	5.96
634.005	6.08
634.336	6.44
634.668	6.32
634.999	5.97
635.33	6.29
635.661	6
635.992	5.99
636.323	6.22
636.654	5.96
636.985	5.88
637.316	6
637.647	6.3
637.977	5.89
638.308	6.17
638.639	6.04
638.969	5.8
639.3	5.64
639.63	6.09
639.961	6.09
640.291	6.05
640.622	6.37
640.952	6.27
641.282	5.45
641.612	5.91
641.943	6.29
642.273	6.08
642.603	6.33
642.933	6.11
643.263	6
643.592	6.28
643.922	6.27
644.252	6.15
644.582	6.4
644.911	6.24
645.241	5.9
645.571	5.7
645.9	6.3
646.23	6.16
646.559	5.66
646.888	6.2
647.218	5.65
647.547	5.9
647.876	6.25
648.205	5.94
648.534	6.28
648.863	5.93
649.192	6.28
649.521	6.19
649.85	6.25
650.179	6.37
650.508	6.13
650.837	6.1
651.165	6.28
651.494	6.02
651.822	6.35
652.151	5.61
652.479	6.05
652.808	6
653.136	5.67
653.465	5.83
653.793	6.13
654.121	5.95
654.449	6.14
654.777	5.78
655.105	5.59
655.433	6.21
655.761	6.28
656.089	6.19
656.417	6.09
656.745	6.66
657.073	6.1
657.4	6.11
657.728	5.95
658.056	5.94
658.383	6
658.711	6.37
659.038	6.55
659.365	6.44
659.693	5.77
660.02	5.73
660.347	5.99
660.674	5.71
661.001	6.11
661.329	5.9
661.656	5.98
661.982	5.76
662.309	6.09
662.636	5.83
662.963	6.03
663.29	6.22
663.616	5.69
663.943	5.88
664.27	6.32
664.596	5.64
664.923	6.48
665.249	6.32
665.576	6.14
665.902	6.27
666.228	6.16
666.554	6.68
666.881	5.59
667.207	6.19
667.533	6.22
667.859	5.91
668.185	6.34
668.511	6.4
668.837	6.18
669.162	5.95
669.488	5.59
669.814	6.19
670.139	5.43
670.465	6.52
670.791	5.64
671.116	6.13
671.442	5.27
671.767	5.92
672.092	5.61
672.418	5.86
672.743	6.39
673.068	5.52
673.393	6.4
673.718	5.92
674.043	6.07
674.368	6.42
674.693	6.14
675.018	6.32
675.343	6.01
675.667	5.77
675.992	6.11
676.317	5.53
676.641	6.62
676.966	5.97
677.29	5.94
677.615	5.43
677.939	6.69
678.264	5.97
678.588	6.2
678.912	6.56
679.236	5.81
679.56	5.63
679.885	5.17
680.209	6.12
680.532	6.44
680.856	6.19
681.18	6.43
681.504	6.02
681.828	5.97
682.152	6.16
682.475	6.29
682.799	5.75
683.122	6.45
683.446	5.51
683.769	6.16
684.093	6.4
684.416	5.57
684.739	6.19
685.062	6.19
685.386	6.12
685.709	6.19
686.032	5.76
686.355	5.83
686.678	6.22
687.001	6.24
687.324	5.84
687.646	5.92
687.969	6.01
688.292	6.01
688.614	6.13
688.937	6.15
689.26	6.2
689.582	6.38
689.904	6.65
690.227	6.51
690.549	6.36
690.871	6.05
691.194	6.33
691.516	5.99
691.838	6.47
692.16	5.72
692.482	5.56
