Data from 815646_chest_Reflection__1__56.txt Node

Date: Fri Sep 16 14:57:33 CDT 2022
User: ToomeyLab
Spectrometer: FLMS14357
Trigger mode: 0
Integration Time (sec): 1.000000E-2
Scans to average: 100
Electric dark correction enabled: true
Nonlinearity correction enabled: false
Boxcar width: 0
XAxis mode: Wavelengths
Number of Pixels in Spectrum: 2048
>>>>>Begin Spectral Data<<<<<
189.047	-206.18
189.435	-206.18
189.823	-206.18
190.211	100.56
190.599	340.8
190.987	116.33
191.375	208.09
191.763	2638.71
192.151	-562.92
192.538	606.3
192.926	256.64
193.314	49.23
193.702	507.13
194.089	92.76
194.477	188.73
194.864	129.64
195.252	347.59
195.639	-1510.97
196.027	149.73
196.414	106.65
196.801	62.53
197.189	61.01
197.576	455.98
197.963	251.02
198.351	-64.92
198.738	-7.01
199.125	21.77
199.512	-88.78
199.899	15.22
200.286	15.11
200.673	9.16
201.06	-0.53
201.447	-16.29
201.833	-23.8
202.22	-4.32
202.607	-41.2
202.994	26.51
203.38	18.64
203.767	-18.5
204.154	14.93
204.54	-9.59
204.927	-65.27
205.313	30.35
205.699	15.61
206.086	52.34
206.472	29.06
206.858	18.97
207.245	21.69
207.631	17.21
208.017	18.11
208.403	-32.79
208.789	1.62
209.175	16.91
209.561	16.16
209.947	-8.29
210.333	0.24
210.719	-31.06
211.105	2.8
211.491	7
211.876	38.6
212.262	9.98
212.648	17.96
213.034	17.31
213.419	-20.2
213.805	8.15
214.19	31.26
214.576	-1.04
214.961	-10.15
215.346	3.72
215.732	1.46
216.117	27.38
216.502	4.61
216.888	-35.24
217.273	3.53
217.658	-6.67
218.043	-17.54
218.428	26.99
218.813	-2.53
219.198	-0.92
219.583	1.3
219.968	22.35
220.353	-28.7
220.738	-13.37
221.122	-14.97
221.507	22.19
221.892	-5.22
222.276	16.97
222.661	-4.85
223.046	5.98
223.43	8.25
223.815	-2.29
224.199	7.94
224.583	13.09
224.968	10.46
225.352	2.71
225.736	4.14
226.121	9.44
226.505	6.59
226.889	5.43
227.273	2.94
227.657	6.38
228.041	7.08
228.425	-0.97
228.809	5.59
229.193	3.29
229.577	4.43
229.961	3.61
230.344	3.84
230.728	3.69
231.112	3.87
231.495	3.39
231.879	6.4
232.263	2.45
232.646	3.59
233.03	5
233.413	5.17
233.797	3.27
234.18	4.41
234.563	3.76
234.946	4.79
235.33	4.47
235.713	3.47
236.096	2.57
236.479	3.68
236.862	5.17
237.245	5
237.628	6.3
238.011	6.7
238.394	3.74
238.777	6.55
239.16	4.95
239.543	6.62
239.925	4.46
240.308	3.93
240.691	5.01
241.073	2.81
241.456	3.39
241.838	3.06
242.221	3.74
242.603	4.48
242.986	3.93
243.368	3.65
243.75	3.82
244.133	4.27
244.515	3.6
244.897	4.35
245.279	3.65
245.661	4.47
246.043	4.07
246.425	3.33
246.807	4.99
247.189	3.59
247.571	3.4
247.953	3.59
248.335	4.02
248.717	3.88
249.098	3.97
249.48	3.85
249.862	3.58
250.243	4.22
250.625	3.9
251.006	4.44
251.388	4.25
251.769	2.72
252.151	4.68
252.532	3.28
252.913	4.35
253.295	4.15
253.676	3.87
254.057	3.57
254.438	3.4
254.819	2.06
255.2	2.63
255.581	4.08
255.962	3.14
256.343	4.27
256.724	2.9
257.105	3.23
257.486	4.16
257.867	2.91
258.247	4.66
258.628	4.05
259.009	3.18
259.389	3.67
259.77	3.2
260.15	3.6
260.531	3.74
260.911	3.41
261.292	3.48
261.672	3.55
262.052	3.22
262.432	3.44
262.813	3.85
263.193	3.67
263.573	3.85
263.953	3.54
264.333	3.53
264.713	3.29
265.093	2.97
265.473	2.66
265.853	4.62
266.233	3.6
266.612	3.27
266.992	3.01
267.372	3.59
267.752	3.72
268.131	3.31
268.511	3.91
268.89	4.33
269.27	2.99
269.649	3.34
270.029	3.84
270.408	3.8
270.787	3.42
271.167	3.44
271.546	4.07
271.925	4.07
272.304	3.65
272.683	2.99
273.062	3.34
273.441	3.5
273.82	3.37
274.199	3.67
274.578	3.37
274.957	3.71
275.336	3.55
275.715	4.05
276.093	2.83
276.472	2.84
276.851	3.25
277.229	3.09
277.608	3.7
277.986	3.34
278.365	2.83
278.743	3.5
279.122	2.71
279.5	2.56
279.878	2.92
280.257	2.87
280.635	3.58
281.013	3.07
281.391	3.77
281.769	3.75
282.147	3.58
282.525	2.76
282.903	3.29
283.281	2.99
283.659	3.39
284.037	3.39
284.415	3.63
284.792	3.6
285.17	3.47
285.548	2.83
285.925	3.15
286.303	3.61
286.68	3.19
287.058	3.06
287.435	3.08
287.813	3.51
288.19	3.3
288.567	2.98
288.945	3.17
289.322	3.39
289.699	2.82
290.076	2.98
290.453	3.17
290.83	3.61
291.207	3.28
291.584	2.58
291.961	3.43
292.338	3.47
292.715	3.04
293.092	3.17
293.469	3.21
293.845	3.13
294.222	3.07
294.599	3.14
294.975	2.89
295.352	3.27
295.728	2.99
296.105	3.11
296.481	2.71
296.858	3.24
297.234	2.76
297.61	3.57
297.986	3.38
298.363	2.81
298.739	2.86
299.115	3.5
299.491	3.57
299.867	3.12
300.243	3.48
300.619	3.51
300.995	3.22
301.371	3.48
301.746	2.66
302.122	3.4
302.498	2.98
302.874	3.29
303.249	3.27
303.625	3.12
304	3.2
304.376	2.74
304.751	3.35
305.127	3.49
305.502	3.25
305.878	3
306.253	3.32
306.628	2.96
307.003	3.71
307.378	3.28
307.754	3.36
308.129	3.61
308.504	3.27
308.879	3.47
309.254	3.37
309.629	3.19
310.003	3.16
310.378	2.84
310.753	2.74
311.128	3.05
311.502	2.99
311.877	3.3
312.252	3.6
312.626	3.4
313.001	3.2
313.375	3.22
313.75	3.56
314.124	3.16
314.498	3.16
314.873	3.5
315.247	2.96
315.621	3.25
315.995	2.99
316.369	3.39
316.743	3.36
317.117	3
317.491	3.31
317.865	3.67
318.239	2.87
318.613	3.02
318.987	3.03
319.361	3.07
319.734	3.68
320.108	3.42
320.482	3.22
320.855	3.19
321.229	3.57
321.602	4.08
321.976	3.45
322.349	3.3
322.723	3.34
323.096	2.9
323.469	3.41
323.843	3.47
324.216	3.95
324.589	3.56
324.962	3.33
325.335	3.71
325.708	4.02
326.081	3.28
326.454	3.42
326.827	2.72
327.2	3.36
327.573	3.14
327.945	3.61
328.318	3.63
328.691	3.39
329.063	3.19
329.436	3.41
329.809	2.96
330.181	3.38
330.553	3.08
330.926	3.51
331.298	3.58
331.671	3.1
332.043	3.14
332.415	3.44
332.787	3.51
333.159	3.12
333.532	3.63
333.904	3.03
334.276	3.29
334.648	3.39
335.02	3.17
335.391	3.76
335.763	3.35
336.135	2.56
336.507	3.32
336.879	3.53
337.25	2.55
337.622	3.39
337.993	3.71
338.365	3.05
338.736	3.94
339.108	3.24
339.479	3.71
339.851	3.64
340.222	3.62
340.593	3.8
340.964	3.78
341.336	3.36
341.707	3.36
342.078	3.89
342.449	3.46
342.82	3.45
343.191	3.35
343.562	3.62
343.933	3.71
344.303	3.97
344.674	2.89
345.045	3.89
345.416	3.28
345.786	3.23
346.157	3.56
346.527	3.48
346.898	3.6
347.268	3.61
347.639	3.23
348.009	3.47
348.38	3.56
348.75	3.52
349.12	3.36
349.49	3.54
349.861	3.68
350.231	3.1
350.601	3.43
350.971	3.88
351.341	3.68
351.711	3.38
352.081	3.37
352.45	4.11
352.82	3.71
353.19	3.45
353.56	3.59
353.929	3.58
354.299	3.49
354.669	3.26
355.038	3.38
355.408	3.83
355.777	3.37
356.147	3.8
356.516	3.85
356.885	3.45
357.254	3.84
357.624	3.47
357.993	3.26
358.362	3.33
358.731	3.61
359.1	3.68
359.469	3.28
359.838	3.48
360.207	3.94
360.576	3.4
360.945	3.59
361.314	3.77
361.682	3.33
362.051	3.79
362.42	3.72
362.788	3.57
363.157	3.45
363.525	3.49
363.894	3.65
364.262	3.5
364.631	3.59
364.999	3.54
365.367	3.66
365.735	3.75
366.104	3.58
366.472	4
366.84	3.71
367.208	3.94
367.576	3.43
367.944	3.39
368.312	3.54
368.68	3.57
369.048	3.76
369.416	3.58
369.783	3.89
370.151	3.84
370.519	3.51
370.886	3.6
371.254	3.43
371.621	3.56
371.989	3.7
372.356	3.86
372.724	3.84
373.091	3.66
373.458	3.42
373.826	3.68
374.193	3.89
374.56	3.73
374.927	3.51
375.294	4.07
375.661	3.43
376.028	3.79
376.395	3.34
376.762	4.03
377.129	3.15
377.496	3.71
377.863	3.63
378.229	3.97
378.596	3.41
378.963	3.47
379.329	3.58
379.696	3.93
380.062	3.81
380.429	3.87
380.795	3.64
381.161	3.7
381.528	3.88
381.894	3.66
382.26	3.98
382.626	3.89
382.993	3.51
383.359	3.66
383.725	3.91
384.091	3.89
384.457	3.45
384.823	3.86
385.188	3.56
385.554	3.36
385.92	3.64
386.286	3.75
386.651	3.57
387.017	3.71
387.383	3.25
387.748	3.4
388.114	3.42
388.479	3.89
388.845	3.92
389.21	3.86
389.575	3.61
389.94	3.85
390.306	3.81
390.671	3.77
391.036	3.53
391.401	3.48
391.766	3.81
392.131	4.01
392.496	3.76
392.861	3.89
393.226	3.7
393.591	3.74
393.956	3.6
394.32	3.98
394.685	3.43
395.05	3.99
395.414	3.52
395.779	3.7
396.143	3.86
396.508	3.6
396.872	3.8
397.236	3.83
397.601	3.72
397.965	3.55
398.329	3.72
398.694	4.03
399.058	4.12
399.422	3.61
399.786	3.8
400.15	3.91
400.514	3.89
400.878	3.8
401.242	3.98
401.605	3.87
401.969	3.89
402.333	3.95
402.697	3.67
403.06	3.91
403.424	3.83
403.787	3.72
404.151	3.81
404.514	3.61
404.878	3.74
405.241	3.79
405.604	3.74
405.968	3.99
406.331	3.57
406.694	3.71
407.057	3.73
407.42	3.6
407.783	4.05
408.146	4.04
408.509	3.97
408.872	4.02
409.235	3.86
409.598	3.87
409.961	3.95
410.323	4.01
410.686	3.9
411.049	3.88
411.411	3.63
411.774	3.91
412.136	3.59
412.499	3.85
412.861	3.82
413.223	3.9
413.586	3.98
413.948	3.99
414.31	3.99
414.672	3.99
415.035	3.91
415.397	3.89
415.759	3.81
416.121	3.86
416.483	4.15
416.845	3.86
417.206	4.16
417.568	3.91
417.93	4.01
418.292	3.81
418.653	3.73
419.015	3.82
419.377	3.94
419.738	3.79
420.1	3.86
420.461	3.84
420.822	3.71
421.184	3.88
421.545	3.82
421.906	3.86
422.267	3.89
422.629	3.72
422.99	3.85
423.351	3.94
423.712	3.78
424.073	3.94
424.434	3.82
424.795	3.8
425.155	3.76
425.516	4.03
425.877	3.73
426.238	3.9
426.598	3.69
426.959	3.78
427.32	3.85
427.68	3.95
428.041	3.73
428.401	3.96
428.761	4.13
429.122	3.93
429.482	3.82
429.842	3.96
430.202	3.93
430.563	4.12
430.923	4.17
431.283	4.15
431.643	4.15
432.003	3.87
432.363	4.09
432.722	4.1
433.082	3.96
433.442	4.04
433.802	3.95
434.161	3.97
434.521	3.91
434.881	3.92
435.24	3.89
435.6	4.06
435.959	4.05
436.319	3.94
436.678	4.08
437.037	3.95
437.396	3.96
437.756	3.93
438.115	3.89
438.474	4
438.833	4.14
439.192	3.76
439.551	3.97
439.91	3.95
440.269	4.14
440.628	3.81
440.987	3.87
441.345	3.87
441.704	3.97
442.063	4.02
442.421	3.92
442.78	3.93
443.138	3.91
443.497	3.96
443.855	3.93
444.214	3.78
444.572	4.06
444.93	4
445.288	3.89
445.647	4.04
446.005	3.97
446.363	3.99
446.721	3.96
447.079	3.89
447.437	3.92
447.795	3.87
448.153	3.99
448.51	3.87
448.868	3.87
449.226	3.98
449.584	3.95
449.941	3.92
450.299	3.98
450.656	3.88
451.014	3.94
451.371	3.97
451.729	3.83
452.086	3.94
452.443	4.03
452.801	4.08
453.158	3.96
453.515	4.05
453.872	3.96
454.229	4.05
454.586	3.93
454.943	3.85
455.3	4.03
455.657	3.96
456.014	3.93
456.371	3.99
456.727	3.99
457.084	4.13
457.441	3.92
457.797	4.06
458.154	4
458.51	4.07
458.867	3.93
459.223	4.04
459.58	3.97
459.936	3.98
460.292	4.05
460.648	3.96
461.005	4.08
461.361	3.92
461.717	3.9
462.073	3.92
462.429	4.01
462.785	4.04
463.141	4.09
463.496	3.93
463.852	4.06
464.208	4.05
464.564	4.18
464.919	3.99
465.275	4.23
465.631	4.14
465.986	4.09
466.342	4.13
466.697	4.09
467.052	4.05
467.408	4.18
467.763	4.14
468.118	4.07
468.473	4.11
468.829	4.18
469.184	4.1
469.539	4.23
469.894	4.07
470.249	4.21
470.603	4.19
470.958	4.03
471.313	4.24
471.668	4.05
472.023	4.02
472.377	4.19
472.732	4.13
473.086	4.12
473.441	4.01
473.795	4.17
474.15	4.02
474.504	4.21
474.859	3.97
475.213	4.06
475.567	3.91
475.921	4.19
476.275	4.11
476.63	4.12
476.984	4.29
477.338	4.2
477.692	4.08
478.045	4.1
478.399	4.03
478.753	4.11
479.107	4.1
479.461	4.13
479.814	4.11
480.168	4.12
480.521	4.02
480.875	4.12
481.228	4.15
481.582	4.1
481.935	4.2
482.289	4.26
482.642	4.01
482.995	4.15
483.348	4.08
483.701	4.14
484.055	4.08
484.408	4.18
484.761	3.93
485.114	3.83
485.466	3.78
485.819	3.82
486.172	3.86
486.525	3.95
486.878	3.98
487.23	4.07
487.583	4.05
487.936	4.07
488.288	3.95
488.641	3.99
488.993	3.98
489.345	3.88
489.698	3.87
490.05	3.99
490.402	3.99
490.754	4.05
491.107	4.1
491.459	4.12
491.811	4.09
492.163	4.14
492.515	4.03
492.866	3.96
493.218	3.9
493.57	3.92
493.922	4.04
494.274	4.07
494.625	4.12
494.977	4.19
495.328	4.21
495.68	4.16
496.031	4.11
496.383	4.27
496.734	4.09
497.086	4.22
497.437	4.16
497.788	4.28
498.139	4.28
498.49	4.24
498.842	4.23
499.193	4.16
499.544	4.14
499.894	4.15
500.245	4.21
500.596	4.27
500.947	4.15
501.298	4.22
501.648	4.18
501.999	4.27
502.35	4.3
502.7	4.35
503.051	4.32
503.401	4.29
503.752	4.26
504.102	4.39
504.452	4.29
504.803	4.4
505.153	4.31
505.503	4.28
505.853	4.29
506.203	4.3
506.553	4.2
506.903	4.13
507.253	4.2
507.603	4.33
507.953	4.34
508.303	4.3
508.652	4.22
509.002	4.23
509.352	4.22
509.701	4.2
510.051	4.41
510.4	4.34
510.75	4.26
511.099	4.32
511.449	4.24
511.798	4.34
512.147	4.26
512.496	4.4
512.846	4.26
513.195	4.25
513.544	4.33
513.893	4.26
514.242	4.39
514.591	4.43
514.939	4.42
515.288	4.49
515.637	4.41
515.986	4.43
516.334	4.38
516.683	4.36
517.032	4.44
517.38	4.68
517.729	4.53
518.077	4.46
518.426	4.5
518.774	4.4
519.122	4.45
519.47	4.42
519.819	4.38
520.167	4.26
520.515	4.28
520.863	4.43
521.211	4.36
521.559	4.4
521.907	4.45
522.255	4.34
522.602	4.58
522.95	4.61
523.298	4.49
523.645	4.53
523.993	4.5
524.341	4.49
524.688	4.58
525.036	4.62
525.383	4.54
525.73	4.59
526.078	4.44
526.425	4.49
526.772	4.45
527.119	4.44
527.466	4.46
527.814	4.44
528.161	4.42
528.508	4.55
528.854	4.47
529.201	4.49
529.548	4.34
529.895	4.4
530.242	4.3
530.588	4.35
530.935	4.4
531.282	4.41
531.628	4.51
531.975	4.51
532.321	4.53
532.667	4.63
533.014	4.71
533.36	4.61
533.706	4.69
534.052	4.59
534.399	4.61
534.745	4.52
535.091	4.5
535.437	4.47
535.783	4.58
536.129	4.61
536.474	4.66
536.82	4.67
537.166	4.75
537.512	4.82
537.857	4.63
538.203	4.57
538.549	4.63
538.894	4.55
539.239	4.82
539.585	4.72
539.93	4.68
540.276	4.88
540.621	4.88
540.966	4.81
541.311	4.79
541.656	4.81
542.001	4.77
542.346	4.73
542.691	4.69
543.036	4.56
543.381	4.55
543.726	4.66
544.071	4.76
544.415	4.85
544.76	4.75
545.105	4.85
545.449	4.93
545.794	4.86
546.138	4.85
546.483	5.01
546.827	5.03
547.171	4.96
547.516	4.8
547.86	5.01
548.204	5
548.548	4.91
548.892	4.88
549.236	4.99
549.58	5.09
549.924	5.14
550.268	5.04
550.612	5.12
550.956	5.01
551.3	5.15
551.643	5.28
551.987	5.12
552.33	5.19
552.674	4.98
553.017	5.19
553.361	5.11
553.704	5.25
554.048	5.2
554.391	5.27
554.734	5.2
555.077	5.3
555.42	5.3
555.764	5.37
556.107	5.32
556.45	5.2
556.793	5.46
557.135	5.39
557.478	5.52
557.821	5.35
558.164	5.55
558.507	5.38
558.849	5.22
559.192	5.28
559.534	5.57
559.877	5.39
560.219	5.31
560.562	5.49
560.904	5.44
561.246	5.54
561.589	5.63
561.931	5.7
562.273	5.49
562.615	5.48
562.957	5.6
563.299	5.57
563.641	5.51
563.983	5.61
564.325	5.52
564.667	5.67
565.008	5.76
565.35	5.56
565.692	5.46
566.033	5.76
566.375	5.68
566.716	5.72
567.058	5.75
567.399	5.77
567.741	5.65
568.082	5.83
568.423	5.68
568.764	5.7
569.105	5.8
569.447	5.85
569.788	5.78
570.129	6.01
570.47	5.96
570.811	5.83
571.151	5.93
571.492	5.77
571.833	5.9
572.174	6.07
572.514	5.9
572.855	5.84
573.195	5.98
573.536	6.09
573.876	6.09
574.217	5.96
574.557	6.2
574.898	6.05
575.238	6.12
575.578	6.11
575.918	6.12
576.258	6.13
576.598	6.24
576.938	6.2
577.278	6.2
577.618	6.17
577.958	6.27
578.298	6.22
578.638	6.1
578.977	6.26
579.317	6.24
579.657	6.29
579.996	6.45
580.336	6.45
580.675	6.32
581.014	6.71
581.354	6.28
581.693	6.21
582.032	6.63
582.372	6.33
582.711	6.78
583.05	6.72
583.389	6.64
583.728	6.46
584.067	6.59
584.406	6.78
584.745	6.84
585.083	6.74
585.422	6.92
585.761	6.74
586.1	6.68
586.438	6.71
586.777	6.4
587.115	7.05
587.454	6.88
587.792	6.91
588.13	7.09
588.469	6.82
588.807	6.8
589.145	6.87
589.483	7.11
589.821	6.91
590.159	7.11
590.497	7.08
590.835	6.89
591.173	7.19
591.511	7.05
591.849	7.05
592.187	6.98
592.524	7.07
592.862	7.17
593.2	6.9
593.537	7.21
593.875	7.14
594.212	7.43
594.55	7.12
594.887	7.32
595.224	7.12
595.561	7.11
595.899	7.43
596.236	7.5
596.573	7.42
596.91	7.45
597.247	7.27
597.584	7.33
597.921	7.43
598.258	7.43
598.594	7.1
598.931	7.38
599.268	7.49
599.604	7.37
599.941	7.67
600.277	7.51
600.614	7.71
600.95	7.79
601.287	7.42
601.623	7.82
601.959	7.76
602.296	7.63
602.632	7.53
602.968	7.82
603.304	7.71
603.64	7.62
603.976	7.8
604.312	7.81
604.648	7.97
604.984	7.99
605.319	7.85
605.655	8.19
605.991	7.96
606.326	7.79
606.662	7.92
606.998	7.88
607.333	8.09
607.668	8.17
608.004	8
608.339	8.06
608.674	8.17
609.01	8.07
609.345	8.47
609.68	8.36
610.015	8.05
610.35	8.13
610.685	8.48
611.02	8.03
611.355	8.38
611.689	8.13
612.024	8.37
612.359	8.35
612.694	8.27
613.028	8.45
613.363	8.41
613.697	8.66
614.032	8.43
614.366	8.57
614.7	8.76
615.035	8.51
615.369	8.45
615.703	8.6
616.037	8.42
616.371	8.92
616.705	8.79
617.039	8.9
617.373	8.65
617.707	8.87
618.041	8.92
618.375	8.63
618.709	8.57
619.042	8.74
619.376	8.79
619.71	9.43
620.043	9.02
620.377	9.09
620.71	9.43
621.043	9.15
621.377	9.28
621.71	9.11
622.043	9.05
622.376	8.91
622.709	9.52
623.043	9.24
623.376	9.18
623.709	9.13
624.041	9.71
624.374	9.54
624.707	9.52
625.04	9.35
625.373	9.43
625.705	9.64
626.038	9.71
626.37	9.73
626.703	9
627.035	9.39
627.368	9.9
627.7	9.64
628.032	9.19
628.365	9.39
628.697	9.51
629.029	9.55
629.361	9.52
629.693	9.8
630.025	9.76
630.357	9.7
630.689	9.96
631.021	9.77
631.353	9.73
631.684	9.84
632.016	9.87
632.348	10.09
632.679	10.07
633.011	9.69
633.342	9.97
633.674	10.28
634.005	10.25
634.336	10.01
634.668	9.89
634.999	9.66
635.33	10.22
635.661	10.32
635.992	10.16
636.323	9.99
636.654	10.35
636.985	10.36
637.316	10.57
637.647	10.48
637.977	10.06
638.308	10.72
638.639	10.91
638.969	10.47
639.3	10.57
639.63	10.41
639.961	10.73
640.291	10.78
640.622	10.43
640.952	10.88
641.282	10.93
641.612	10.75
641.943	10.5
642.273	10.55
642.603	11.28
642.933	10.54
643.263	11.06
643.592	10.59
643.922	10.61
644.252	10.63
644.582	10.67
644.911	10.93
645.241	11.22
645.571	11.31
645.9	11
646.23	11.1
646.559	10.62
646.888	10.84
647.218	11.21
647.547	10.87
647.876	11.46
648.205	11.55
648.534	11.27
648.863	11.5
649.192	11.94
649.521	11.19
649.85	11.76
650.179	11.58
650.508	11.49
650.837	11.41
651.165	11.12
651.494	11.69
651.822	11.11
652.151	11.23
652.479	11.61
652.808	11.89
653.136	11.75
653.465	11.82
653.793	12.08
654.121	11.73
654.449	11.5
654.777	12.14
655.105	11.96
655.433	11.46
655.761	12.25
656.089	11.69
656.417	12.06
656.745	11.33
657.073	11.92
657.4	12.01
657.728	12.68
658.056	12.08
658.383	12.12
658.711	11.99
659.038	12.16
659.365	12.42
659.693	11.97
660.02	12.5
660.347	12.43
660.674	12.03
661.001	11.88
661.329	12.01
661.656	12.1
661.982	12.53
662.309	12.76
662.636	12.45
662.963	12.63
663.29	12.91
663.616	12.25
663.943	12.54
664.27	12.49
664.596	13.08
664.923	13.18
665.249	12.56
665.576	12.72
665.902	12.62
666.228	12.36
666.554	13.58
666.881	13.31
667.207	13.01
667.533	13.09
667.859	13.06
668.185	13.41
668.511	13.21
668.837	13.09
669.162	13.18
669.488	13.55
669.814	13.12
670.139	12.47
670.465	12.99
670.791	12.9
671.116	13.14
671.442	13.59
671.767	13.21
672.092	13.2
672.418	13.13
672.743	13.23
673.068	13.35
673.393	12.67
673.718	13.97
674.043	13.24
674.368	13.06
674.693	14.63
675.018	13.89
675.343	13.81
675.667	13.52
675.992	13.87
676.317	13.9
676.641	13.23
676.966	13.93
677.29	13.96
677.615	14.27
677.939	13.19
678.264	13.92
678.588	13.32
678.912	13.86
679.236	14.04
679.56	13.85
679.885	14.42
680.209	13.96
680.532	14.23
680.856	14.01
681.18	13.82
681.504	14.1
681.828	14.2
682.152	14.09
682.475	14.13
682.799	13.79
683.122	14.14
683.446	14.2
683.769	14.37
684.093	14.43
684.416	13.81
684.739	14.02
685.062	14.85
685.386	14.94
685.709	14.59
686.032	15.2
686.355	14.79
686.678	14.64
687.001	14.53
687.324	14.44
687.646	14.95
687.969	14.47
688.292	15.25
688.614	14.93
