Data from 815646_forehead_Reflection__6__66.txt Node

Date: Fri Sep 16 15:02:25 CDT 2022
User: ToomeyLab
Spectrometer: FLMS14357
Trigger mode: 0
Integration Time (sec): 1.000000E-2
Scans to average: 100
Electric dark correction enabled: true
Nonlinearity correction enabled: false
Boxcar width: 0
XAxis mode: Wavelengths
Number of Pixels in Spectrum: 2048
>>>>>Begin Spectral Data<<<<<
189.047	19.81
189.435	19.81
189.823	19.81
190.211	197.16
190.599	-4.27
190.987	69.07
191.375	184.75
191.763	978.71
192.151	302.37
192.538	-179.37
192.926	755.77
193.314	66.43
193.702	413.57
194.089	67.55
194.477	656.46
194.864	83.84
195.252	203.74
195.639	4023.87
196.027	30.18
196.414	12.79
196.801	-96.96
197.189	268.4
197.576	-206.31
197.963	344.72
198.351	-5.24
198.738	33.76
199.125	7.58
199.512	-161.01
199.899	-3.36
200.286	6.26
200.673	17.64
201.06	44.82
201.447	32.97
201.833	15.83
202.22	19.86
202.607	-62.43
202.994	20.98
203.38	19.49
203.767	25.08
204.154	17.58
204.54	3.16
204.927	5.24
205.313	14.08
205.699	39.94
206.086	18.48
206.472	23.22
206.858	27.08
207.245	37.99
207.631	17.6
208.017	29.75
208.403	5.19
208.789	10.31
209.175	14.62
209.561	14.45
209.947	-16.88
210.333	0.62
210.719	-1.99
211.105	11.99
211.491	11.92
211.876	17.96
212.262	19.17
212.648	5.84
213.034	-3.35
213.419	-0.16
213.805	27.45
214.19	26.37
214.576	10.29
214.961	-51.99
215.346	-41.96
215.732	-79.35
216.117	15.49
216.502	22.63
216.888	-32.56
217.273	9.94
217.658	-10.48
218.043	-18.64
218.428	3.96
218.813	-1.8
219.198	5.17
219.583	-13.3
219.968	4.75
220.353	-17.34
220.738	-13.85
221.122	-9.84
221.507	26.92
221.892	1.33
222.276	5.01
222.661	3.83
223.046	2.97
223.43	7.54
223.815	1.96
224.199	7.09
224.583	4.93
224.968	5.25
225.352	-5.74
225.736	7.71
226.121	4.47
226.505	1.14
226.889	8
227.273	3.97
227.657	8.59
228.041	4.49
228.425	-6.24
228.809	5.18
229.193	-1.32
229.577	1.82
229.961	1.77
230.344	3.27
230.728	1.33
231.112	1.59
231.495	1.07
231.879	1.61
232.263	1.09
232.646	1.19
233.03	1.94
233.413	2.66
233.797	0.06
234.18	2.6
234.563	1.93
234.946	2.92
235.33	1.35
235.713	2.02
236.096	1.12
236.479	1.76
236.862	2.1
237.245	2.42
237.628	2.92
238.011	2.98
238.394	2.22
238.777	1.55
239.16	1.63
239.543	3.08
239.925	1.02
240.308	1.21
240.691	1.85
241.073	1.89
241.456	1.5
241.838	0.73
242.221	0.98
242.603	0.73
242.986	0.31
243.368	1.4
243.75	1.4
244.133	1.34
244.515	1.3
244.897	1.8
245.279	1.34
245.661	1.55
246.043	1.38
246.425	1.29
246.807	1.37
247.189	1.46
247.571	1.2
247.953	1.38
248.335	1.39
248.717	1.25
249.098	1.32
249.48	1.2
249.862	1.23
250.243	1.76
250.625	1.82
251.006	1.6
251.388	1.89
251.769	1.12
252.151	1.8
252.532	1.02
252.913	1.58
253.295	1.56
253.676	2.18
254.057	1.32
254.438	0.48
254.819	1.17
255.2	0.26
255.581	1.65
255.962	1.58
256.343	1.51
256.724	0.63
257.105	1.08
257.486	0.99
257.867	0.74
258.247	1.87
258.628	1.41
259.009	2.07
259.389	1.87
259.77	1.52
260.15	1.78
260.531	0.96
260.911	1.25
261.292	1.06
261.672	1.4
262.052	1.14
262.432	1.38
262.813	1.5
263.193	1.54
263.573	1.65
263.953	1.94
264.333	1.5
264.713	1.06
265.093	1.1
265.473	1.8
265.853	2.58
266.233	1.9
266.612	1.77
266.992	-0.38
267.372	1.79
267.752	0.6
268.131	1.48
268.511	1.74
268.89	1.41
269.27	0.71
269.649	0.77
270.029	1.4
270.408	1.44
270.787	1
271.167	1.18
271.546	1.89
271.925	1.1
272.304	1.14
272.683	1.09
273.062	1.12
273.441	1.17
273.82	1.62
274.199	1.23
274.578	1.31
274.957	1.37
275.336	1.52
275.715	2.14
276.093	1.37
276.472	1.23
276.851	1.02
277.229	1.39
277.608	1.61
277.986	1.59
278.365	0.52
278.743	1.47
279.122	1.16
279.5	1.4
279.878	1.52
280.257	2.07
280.635	1.44
281.013	1.21
281.391	1.97
281.769	1.8
282.147	1.63
282.525	0.76
282.903	1.26
283.281	1.46
283.659	1.44
284.037	1.71
284.415	2.03
284.792	2.14
285.17	1.58
285.548	1.1
285.925	1.28
286.303	1.51
286.68	1.47
287.058	1.13
287.435	1.08
287.813	1.74
288.19	1.21
288.567	0.91
288.945	1.3
289.322	1.69
289.699	1.88
290.076	0.72
290.453	1.61
290.83	1.43
291.207	1.53
291.584	0.92
291.961	1.31
292.338	1.38
292.715	1.44
293.092	1.35
293.469	1.44
293.845	1.33
294.222	1.44
294.599	1.28
294.975	1.37
295.352	1.5
295.728	1.3
296.105	1.7
296.481	1.36
296.858	1.36
297.234	1.35
297.61	1.96
297.986	1.89
298.363	1.18
298.739	1.14
299.115	1.85
299.491	1.65
299.867	1.54
300.243	1.36
300.619	2.06
300.995	1.65
301.371	1.75
301.746	1.79
302.122	2.15
302.498	1.42
302.874	1.47
303.249	2.13
303.625	1.44
304	1.7
304.376	1.54
304.751	1.86
305.127	1.47
305.502	1.54
305.878	1.92
306.253	1.92
306.628	1.83
307.003	2.04
307.378	2.36
307.754	1.98
308.129	2.9
308.504	2.27
308.879	2.2
309.254	1.92
309.629	1.6
310.003	2.05
310.378	1.69
310.753	1.41
311.128	1.94
311.502	1.73
311.877	2.11
312.252	2.12
312.626	2.37
313.001	1.77
313.375	2.44
313.75	2.13
314.124	2.15
314.498	1.78
314.873	2.76
315.247	1.93
315.621	2.31
315.995	2.26
316.369	2.43
316.743	2.5
317.117	2.14
317.491	2.42
317.865	2.73
318.239	2.26
318.613	2.1
318.987	2.26
319.361	1.99
319.734	2.42
320.108	2.54
320.482	3.04
320.855	2.8
321.229	1.68
321.602	2.92
321.976	2.58
322.349	2.6
322.723	1.79
323.096	2.43
323.469	2.84
323.843	3.05
324.216	3.2
324.589	2.39
324.962	2.56
325.335	3.33
325.708	2.85
326.081	2.95
326.454	3.14
326.827	2.93
327.2	2.63
327.573	2.54
327.945	3.13
328.318	2.8
328.691	2.69
329.063	2.59
329.436	2.97
329.809	1.97
330.181	3.25
330.553	3.22
330.926	3.02
331.298	3.01
331.671	2.71
332.043	3.37
332.415	3.09
332.787	3.06
333.159	2.71
333.532	3.46
333.904	2.88
334.276	2.77
334.648	2.97
335.02	3.15
335.391	3.63
335.763	2.73
336.135	2.86
336.507	3.14
336.879	3.12
337.25	2.54
337.622	3.2
337.993	3.34
338.365	3.22
338.736	3.5
339.108	3.05
339.479	3.39
339.851	3.64
340.222	3.41
340.593	2.89
340.964	3.73
341.336	3.43
341.707	3.34
342.078	3.69
342.449	3.46
342.82	3.22
343.191	3.69
343.562	3.74
343.933	3.62
344.303	3.39
344.674	2.76
345.045	3.64
345.416	3.36
345.786	3.5
346.157	3.62
346.527	3.74
346.898	3.18
347.268	3.48
347.639	3.05
348.009	3.54
348.38	3.43
348.75	3.49
349.12	3.53
349.49	3.92
349.861	4.1
350.231	3.73
350.601	3.29
350.971	3.79
351.341	4.25
351.711	3.94
352.081	3.66
352.45	4.01
352.82	4.11
353.19	3.82
353.56	3.56
353.929	3.93
354.299	3.85
354.669	3.88
355.038	3.99
355.408	4.13
355.777	3.58
356.147	3.93
356.516	4.11
356.885	3.9
357.254	4.16
357.624	3.75
357.993	3.84
358.362	3.82
358.731	4.34
359.1	4.03
359.469	3.81
359.838	4.09
360.207	4
360.576	4.06
360.945	3.93
361.314	3.96
361.682	3.97
362.051	3.95
362.42	4.57
362.788	4.21
363.157	4.17
363.525	4.25
363.894	4.35
364.262	4.15
364.631	4.12
364.999	4.22
365.367	4.25
365.735	4.64
366.104	4.77
366.472	4.58
366.84	4.45
367.208	4.64
367.576	4.58
367.944	4.26
368.312	4.5
368.68	4.76
369.048	4.81
369.416	4.41
369.783	4.61
370.151	4.65
370.519	4.33
370.886	4.49
371.254	4.74
371.621	4.72
371.989	4.71
372.356	4.98
372.724	4.99
373.091	4.51
373.458	4.73
373.826	4.75
374.193	5.09
374.56	4.76
374.927	4.69
375.294	4.92
375.661	4.74
376.028	5.3
376.395	4.78
376.762	5.4
377.129	4.76
377.496	4.83
377.863	5.04
378.229	4.94
378.596	4.87
378.963	4.85
379.329	4.98
379.696	5.1
380.062	4.9
380.429	5.27
380.795	5.04
381.161	5.22
381.528	5.51
381.894	5.22
382.26	5.19
382.626	5.29
382.993	5.05
383.359	5.21
383.725	5.05
384.091	5.73
384.457	5.01
384.823	5.04
385.188	5.32
385.554	5.19
385.92	5.4
386.286	5.37
386.651	5.41
387.017	5.53
387.383	5.19
387.748	5.3
388.114	5.32
388.479	5.42
388.845	5.51
389.21	5.7
389.575	5.66
389.94	5.83
390.306	5.56
390.671	5.79
391.036	5.51
391.401	5.78
391.766	5.92
392.131	5.67
392.496	5.42
392.861	5.84
393.226	5.95
393.591	5.81
393.956	5.74
394.32	6.13
394.685	5.82
395.05	6.3
395.414	5.83
395.779	5.87
396.143	6.03
396.508	5.81
396.872	6.06
397.236	6
397.601	5.84
397.965	5.93
398.329	6.1
398.694	6.34
399.058	6.49
399.422	6.2
399.786	6.12
400.15	6.45
400.514	6.1
400.878	6.41
401.242	6.44
401.605	6.39
401.969	6.33
402.333	6.33
402.697	6.35
403.06	6.47
403.424	6.48
403.787	6.28
404.151	6.29
404.514	6.45
404.878	6.31
405.241	6.3
405.604	6.66
405.968	6.57
406.331	6.43
406.694	6.38
407.057	6.4
407.42	6.53
407.783	6.61
408.146	6.81
408.509	6.66
408.872	6.66
409.235	6.78
409.598	6.69
409.961	6.39
410.323	6.7
410.686	7
411.049	6.54
411.411	6.46
411.774	6.8
412.136	6.5
412.499	6.74
412.861	6.77
413.223	6.9
413.586	6.99
413.948	6.81
414.31	6.68
414.672	6.69
415.035	7.06
415.397	7.06
415.759	6.86
416.121	6.99
416.483	7.15
416.845	6.92
417.206	6.88
417.568	6.94
417.93	7.28
418.292	6.95
418.653	6.82
419.015	6.73
419.377	7
419.738	6.85
420.1	6.95
420.461	6.96
420.822	6.93
421.184	6.98
421.545	7.04
421.906	6.99
422.267	6.96
422.629	6.88
422.99	6.87
423.351	6.95
423.712	6.95
424.073	7.12
424.434	7.04
424.795	6.98
425.155	7
425.516	7.09
425.877	7.01
426.238	7.06
426.598	7.04
426.959	7.12
427.32	7.06
427.68	7.24
428.041	7.28
428.401	7.16
428.761	7.52
429.122	7.54
429.482	7.43
429.842	7.37
430.202	7.66
430.563	7.52
430.923	7.59
431.283	7.61
431.643	7.61
432.003	7.59
432.363	7.69
432.722	7.75
433.082	7.73
433.442	7.71
433.802	7.63
434.161	7.6
434.521	7.65
434.881	7.47
435.24	7.49
435.6	7.56
435.959	7.82
436.319	7.73
436.678	7.79
437.037	7.78
437.396	7.87
437.756	7.98
438.115	7.85
438.474	7.8
438.833	7.93
439.192	7.61
439.551	7.96
439.91	7.81
440.269	7.94
440.628	7.85
440.987	7.81
441.345	8
441.704	7.98
442.063	8.01
442.421	7.91
442.78	7.8
443.138	7.93
443.497	8.08
443.855	7.93
444.214	8.05
444.572	8.22
444.93	8.22
445.288	8.12
445.647	8.19
446.005	8.08
446.363	8.13
446.721	8.09
447.079	8.19
447.437	8.23
447.795	8.11
448.153	8.25
448.51	8.06
448.868	8.14
449.226	8.24
449.584	8.27
449.941	8.33
450.299	8.35
450.656	8.47
451.014	8.44
451.371	8.48
451.729	8.45
452.086	8.5
452.443	8.59
452.801	8.69
453.158	8.77
453.515	8.48
453.872	8.53
454.229	8.62
454.586	8.64
454.943	8.57
455.3	8.83
455.657	8.58
456.014	8.79
456.371	8.63
456.727	8.84
457.084	8.89
457.441	8.76
457.797	8.9
458.154	8.79
458.51	8.84
458.867	8.75
459.223	9.08
459.58	9.09
459.936	8.92
460.292	8.86
460.648	8.81
461.005	8.91
461.361	8.75
461.717	8.79
462.073	8.87
462.429	8.98
462.785	9.05
463.141	9.16
463.496	9.18
463.852	9.25
464.208	9.16
464.564	9.17
464.919	9.18
465.275	9.45
465.631	9.29
465.986	9.36
466.342	9.45
466.697	9.47
467.052	9.36
467.408	9.61
467.763	9.34
468.118	9.56
468.473	9.48
468.829	9.48
469.184	9.51
469.539	9.65
469.894	9.62
470.249	9.68
470.603	9.93
470.958	9.48
471.313	9.79
471.668	9.63
472.023	9.65
472.377	9.78
472.732	9.81
473.086	9.81
473.441	9.66
473.795	10.07
474.15	9.76
474.504	10.05
474.859	9.92
475.213	9.98
475.567	9.73
475.921	10
476.275	10.2
476.63	9.93
476.984	10.04
477.338	10.11
477.692	10.02
478.045	10.06
478.399	10.18
478.753	10.21
479.107	10.15
479.461	10.16
479.814	10.11
480.168	9.91
480.521	10.17
480.875	10.26
481.228	10.25
481.582	10.37
481.935	10.35
482.289	10.34
482.642	10.3
482.995	10.38
483.348	10.33
483.701	10.24
484.055	10.25
484.408	10.33
484.761	10.07
485.114	9.91
485.466	9.78
485.819	9.85
486.172	9.95
486.525	10.17
486.878	10.19
487.23	10.36
487.583	10.37
487.936	10.46
488.288	10.38
488.641	10.25
488.993	10.26
489.345	10.29
489.698	10.26
490.05	10.38
490.402	10.42
490.754	10.62
491.107	10.64
491.459	10.71
491.811	10.75
492.163	10.77
492.515	10.84
492.866	10.61
493.218	10.53
493.57	10.51
493.922	10.64
494.274	10.78
494.625	10.91
494.977	10.96
495.328	11.14
495.68	11.13
496.031	11.26
496.383	11.35
496.734	11.44
497.086	11.36
497.437	11.45
497.788	11.34
498.139	11.37
498.49	11.34
498.842	11.29
499.193	11.53
499.544	11.48
499.894	11.46
500.245	11.53
500.596	11.61
500.947	11.52
501.298	11.51
501.648	11.78
501.999	11.75
502.35	11.81
502.7	11.93
503.051	11.96
503.401	11.8
503.752	11.97
504.102	12
504.452	11.85
504.803	12.08
505.153	11.96
505.503	12
505.853	11.89
506.203	12.01
506.553	11.88
506.903	12.18
507.253	12.09
507.603	12.24
507.953	12.34
508.303	12.23
508.652	12.11
509.002	12.43
509.352	12.28
509.701	12.18
510.051	12.31
510.4	12.15
510.75	12.25
511.099	12.3
511.449	12.17
511.798	12.42
512.147	12.3
512.496	12.43
512.846	12.4
513.195	12.48
513.544	12.43
513.893	12.48
514.242	12.47
514.591	12.55
514.939	12.65
515.288	12.76
515.637	12.7
515.986	12.76
516.334	12.67
516.683	12.77
517.032	13.03
517.38	13.04
517.729	12.92
518.077	13.02
518.426	12.89
518.774	12.82
519.122	12.78
519.47	12.87
519.819	12.64
520.167	12.65
520.515	12.74
520.863	12.85
521.211	12.88
521.559	12.98
521.907	12.99
522.255	12.96
522.602	13.21
522.95	13.11
523.298	13.17
523.645	13.19
523.993	13.18
524.341	13.24
524.688	13.37
525.036	13.24
525.383	13.27
525.73	13.36
526.078	13.26
526.425	13.27
526.772	13.16
527.119	13.13
527.466	13.18
527.814	13.23
528.161	13.29
528.508	13.31
528.854	13.37
529.201	13.27
529.548	13.13
529.895	12.89
530.242	12.86
530.588	12.91
530.935	13.06
531.282	13.23
531.628	13.32
531.975	13.35
532.321	13.4
532.667	13.58
533.014	13.54
533.36	13.63
533.706	13.68
534.052	13.64
534.399	13.49
534.745	13.42
535.091	13.35
535.437	13.49
535.783	13.58
536.129	13.68
536.474	13.79
536.82	13.79
537.166	13.96
537.512	13.93
537.857	13.87
538.203	13.87
538.549	13.82
538.894	13.8
539.239	14.04
539.585	14.07
539.93	13.92
540.276	14.37
540.621	14.42
540.966	14.21
541.311	14.31
541.656	14.28
542.001	14.17
542.346	14.02
542.691	13.81
543.036	13.66
543.381	13.68
543.726	13.89
544.071	13.96
544.415	14.15
544.76	14.07
545.105	14.24
545.449	14.34
545.794	14.39
546.138	14.44
546.483	14.47
546.827	14.51
547.171	14.56
547.516	14.4
547.86	14.56
548.204	14.45
548.548	14.42
548.892	14.45
549.236	14.63
549.58	14.81
549.924	14.78
550.268	14.94
550.612	14.95
550.956	14.81
551.3	14.97
551.643	15.11
551.987	14.95
552.33	14.95
552.674	14.88
553.017	15.16
553.361	14.98
553.704	15.06
554.048	14.99
554.391	15.01
554.734	15.27
555.077	15.05
555.42	15.14
555.764	15.26
556.107	15.4
556.45	15.16
556.793	15.36
557.135	15.21
557.478	15.29
557.821	15.12
558.164	15.37
558.507	15.28
558.849	15.22
559.192	15.38
559.534	15.62
559.877	15.3
560.219	15.46
560.562	15.65
560.904	15.39
561.246	15.5
561.589	15.6
561.931	15.58
562.273	15.58
562.615	15.65
562.957	15.61
563.299	15.53
563.641	15.74
563.983	15.63
564.325	15.62
564.667	15.52
565.008	15.7
565.35	15.56
565.692	15.84
566.033	15.86
566.375	15.79
566.716	15.85
567.058	15.68
567.399	15.75
567.741	15.6
568.082	15.83
568.423	15.73
568.764	15.73
569.105	15.8
569.447	15.87
569.788	15.99
570.129	15.95
570.47	16.03
570.811	16
571.151	16.02
571.492	15.93
571.833	16.07
572.174	16.11
572.514	15.82
572.855	15.91
573.195	15.91
573.536	16
573.876	16
574.217	15.93
574.557	16.01
574.898	16.03
575.238	16.15
575.578	16.11
575.918	16.05
576.258	16.2
576.598	16.19
576.938	16.23
577.278	16.09
577.618	16.28
577.958	16.15
578.298	16.2
578.638	16.29
578.977	16.2
579.317	16.34
579.657	16.61
579.996	16.53
580.336	16.64
580.675	16.34
581.014	16.69
581.354	16.43
581.693	16.35
582.032	16.88
582.372	16.83
582.711	16.48
583.05	16.64
583.389	16.68
583.728	16.61
584.067	16.94
584.406	17.07
584.745	16.83
585.083	16.94
585.422	16.78
585.761	16.73
586.1	16.63
586.438	16.75
586.777	16.65
587.115	16.98
587.454	16.96
587.792	16.85
588.13	17.01
588.469	16.82
588.807	16.8
589.145	16.5
589.483	16.87
589.821	17.1
590.159	17.05
590.497	16.86
590.835	17.07
591.173	16.81
591.511	17.02
591.849	16.89
592.187	16.86
592.524	16.82
592.862	17.16
593.2	16.85
593.537	17.05
593.875	17.45
594.212	17.27
594.55	17.09
594.887	17.5
595.224	17.17
595.561	16.94
595.899	17.08
596.236	17.27
596.573	17.16
596.91	17.2
597.247	17.22
597.584	17.25
597.921	17.25
598.258	17.06
598.594	17.06
598.931	17.09
599.268	16.94
599.604	17.2
599.941	17.19
600.277	17.49
600.614	17.41
600.95	17.33
601.287	17.43
601.623	17.42
601.959	17.53
602.296	17.6
602.632	17.48
602.968	17.66
603.304	17.69
603.64	17.48
603.976	17.65
604.312	17.61
604.648	17.57
604.984	17.44
605.319	17.63
605.655	17.76
605.991	17.47
606.326	17.38
606.662	17.44
606.998	17.68
607.333	17.65
607.668	17.65
608.004	17.7
608.339	17.68
608.674	17.82
609.01	17.81
609.345	18.08
609.68	18.05
610.015	18
610.35	17.74
610.685	17.94
611.02	17.78
611.355	17.75
611.689	17.57
612.024	17.7
612.359	17.85
612.694	17.76
613.028	17.79
613.363	17.82
613.697	17.98
614.032	18.27
614.366	17.81
614.7	18.09
615.035	18.18
615.369	17.94
615.703	18.11
616.037	18.29
616.371	18.19
616.705	18.18
617.039	18.35
617.373	18.37
617.707	18.04
618.041	17.8
618.375	18.13
618.709	17.75
619.042	18.18
619.376	18.29
619.71	18.59
620.043	18.16
620.377	18.38
620.71	18.67
621.043	18.64
621.377	18.41
621.71	18.2
622.043	18.52
622.376	18.37
622.709	18.5
623.043	18.65
623.376	18.42
623.709	18.16
624.041	18.74
624.374	18.51
624.707	18.4
625.04	18.55
625.373	18.2
625.705	18.87
626.038	18.91
626.37	18.63
626.703	18.56
627.035	18.94
627.368	18.91
627.7	18.93
628.032	18.58
628.365	18.44
628.697	18.81
629.029	18.46
629.361	18.6
629.693	18.62
630.025	18.59
630.357	18.86
630.689	18.93
631.021	18.88
631.353	18.98
631.684	18.57
632.016	18.95
632.348	19.21
632.679	18.38
633.011	18.54
633.342	18.65
633.674	18.76
634.005	18.88
634.336	18.74
634.668	18.74
634.999	18.6
635.33	18.67
635.661	18.86
635.992	18.77
636.323	18.73
636.654	18.72
636.985	18.93
637.316	19.27
637.647	19.04
637.977	18.89
638.308	18.88
638.639	19.25
638.969	19.28
639.3	18.99
639.63	18.64
639.961	19.29
640.291	19
640.622	19.25
640.952	19.42
641.282	19.24
641.612	19.16
641.943	19.12
642.273	18.98
642.603	19.18
642.933	19.25
643.263	19.88
643.592	19.31
643.922	18.85
644.252	19.47
644.582	19.24
644.911	19.36
645.241	19.17
645.571	19.81
645.9	19.54
646.23	19.19
646.559	19.28
646.888	19.01
647.218	19.92
647.547	20.14
647.876	19.74
648.205	19.8
648.534	19.55
648.863	19.35
649.192	19.8
649.521	19.53
649.85	19.79
650.179	19.9
650.508	19.81
650.837	19.83
651.165	18.91
651.494	20.09
651.822	19.69
652.151	19.47
652.479	19.9
652.808	19.85
653.136	19.39
653.465	19.86
653.793	19.8
654.121	19.88
654.449	19.33
654.777	19.71
655.105	19.78
655.433	19.73
655.761	20.15
656.089	20.25
656.417	19.65
656.745	19.51
657.073	20
657.4	19.65
657.728	20.09
658.056	19.52
658.383	20.33
658.711	19.67
659.038	19.53
659.365	20.06
659.693	19.37
660.02	19.77
660.347	19.88
660.674	20.17
661.001	19.95
661.329	19.53
661.656	19.48
661.982	20.05
662.309	19.84
662.636	19.64
662.963	20.22
663.29	20.16
663.616	20.49
663.943	20.25
664.27	19.94
664.596	19.89
664.923	20.09
665.249	20.14
665.576	20.42
665.902	20.4
666.228	19.6
666.554	20.87
666.881	19.9
667.207	20.34
667.533	20.43
667.859	20.5
668.185	20.17
668.511	20.05
668.837	20.11
669.162	20.39
669.488	20.95
669.814	20.15
670.139	19.94
670.465	20.34
670.791	20.09
671.116	20.31
671.442	20.84
671.767	20.44
672.092	20.09
672.418	20.72
672.743	20.46
673.068	21.04
673.393	19.32
673.718	20.75
674.043	20.11
674.368	20.31
674.693	21.28
675.018	20.13
675.343	20.37
675.667	20.58
675.992	20.34
676.317	20.42
676.641	20
676.966	20.37
677.29	20.48
677.615	20.63
677.939	20.38
678.264	21.33
678.588	19.99
678.912	20.55
679.236	20.49
