Data from 815646_chest_Reflection__0__55.txt Node

Date: Fri Sep 16 14:57:22 CDT 2022
User: ToomeyLab
Spectrometer: FLMS14357
Trigger mode: 0
Integration Time (sec): 1.000000E-2
Scans to average: 100
Electric dark correction enabled: true
Nonlinearity correction enabled: false
Boxcar width: 0
XAxis mode: Wavelengths
Number of Pixels in Spectrum: 2048
>>>>>Begin Spectral Data<<<<<
189.047	-510.63
189.435	-510.63
189.823	-510.63
190.211	-36.43
190.599	-243.74
190.987	138.15
191.375	172.5
191.763	1586.45
192.151	65.29
192.538	57.17
192.926	898.26
193.314	85.78
193.702	585.59
194.089	62.91
194.477	131.1
194.864	176.07
195.252	-687.17
195.639	120.65
196.027	156.08
196.414	93.93
196.801	18.57
197.189	305.52
197.576	-19.13
197.963	-154.49
198.351	-29.52
198.738	7.76
199.125	19.8
199.512	-86.14
199.899	33.63
200.286	29.96
200.673	-13.73
201.06	-16.2
201.447	27.46
201.833	1.31
202.22	21.23
202.607	-34.97
202.994	63.67
203.38	32.94
203.767	27.15
204.154	34.07
204.54	-6.19
204.927	-1.33
205.313	31.67
205.699	60.13
206.086	-3.58
206.472	7.24
206.858	0.63
207.245	31.84
207.631	22.68
208.017	6.94
208.403	-9.69
208.789	22.83
209.175	32.19
209.561	12.09
209.947	4.33
210.333	-5.2
210.719	-19.69
211.105	17.29
211.491	26.96
211.876	18.53
212.262	17.54
212.648	17.17
213.034	-9.59
213.419	-12.84
213.805	-3.14
214.19	26.92
214.576	2.53
214.961	30.05
215.346	-20.95
215.732	-74.58
216.117	35.14
216.502	14.7
216.888	-20.3
217.273	-0.12
217.658	-3.23
218.043	-71.92
218.428	15.89
218.813	9.88
219.198	-3.21
219.583	-17.06
219.968	8.51
220.353	-10.16
220.738	10.36
221.122	-27.89
221.507	19.83
221.892	9.64
222.276	8.18
222.661	19.47
223.046	15.14
223.43	7.24
223.815	-11.85
224.199	-11.66
224.583	-4.08
224.968	3.15
225.352	5.58
225.736	6.46
226.121	9.44
226.505	4.68
226.889	8.04
227.273	-1.51
227.657	1.69
228.041	-2.62
228.425	-5.69
228.809	5.53
229.193	2
229.577	0.85
229.961	-0.37
230.344	1.68
230.728	2
231.112	1.65
231.495	1.14
231.879	1.8
232.263	0.18
232.646	1.36
233.03	2.02
233.413	3.06
233.797	-0.45
234.18	2.47
234.563	2.85
234.946	0.58
235.33	2.19
235.713	1.04
236.096	0.19
236.479	1.93
236.862	0.16
237.245	2.41
237.628	2.44
238.011	2.14
238.394	3.2
238.777	3.46
239.16	2.61
239.543	2.57
239.925	1.16
240.308	0.19
240.691	3.35
241.073	3.38
241.456	1.34
241.838	1.89
242.221	1.33
242.603	1.33
242.986	1.67
243.368	0.97
243.75	1.02
244.133	1.95
244.515	1.07
244.897	1.85
245.279	1.58
245.661	2
246.043	1.62
246.425	1.61
246.807	1.73
247.189	1.87
247.571	1.06
247.953	1.69
248.335	1.53
248.717	1.48
249.098	1.5
249.48	1.21
249.862	1.21
250.243	1.41
250.625	1.81
251.006	2.13
251.388	2.33
251.769	0.23
252.151	1.6
252.532	0.83
252.913	1.89
253.295	1.99
253.676	1.69
254.057	1.29
254.438	1.34
254.819	0.31
255.2	1.18
255.581	2.22
255.962	0.8
256.343	2.05
256.724	0.71
257.105	-0.19
257.486	1.74
257.867	1.72
258.247	2.67
258.628	1.8
259.009	1.62
259.389	1.17
259.77	1.01
260.15	1.36
260.531	1.05
260.911	1.41
261.292	1.13
261.672	1.34
262.052	1.12
262.432	1.65
262.813	1.8
263.193	1.06
263.573	1.73
263.953	1.55
264.333	1.02
264.713	0.92
265.093	0.71
265.473	0.86
265.853	1.5
266.233	1.39
266.612	2.4
266.992	0.87
267.372	1.17
267.752	1.13
268.131	1.05
268.511	1.73
268.89	1.83
269.27	0.84
269.649	1.35
270.029	1.47
270.408	1.53
270.787	1.15
271.167	1.81
271.546	1.84
271.925	1.32
272.304	1.61
272.683	0.7
273.062	1.13
273.441	1.37
273.82	1.33
274.199	1.39
274.578	1.15
274.957	1.36
275.336	1.23
275.715	1.98
276.093	0.93
276.472	0.9
276.851	0.48
277.229	1.65
277.608	1.75
277.986	1.56
278.365	1.01
278.743	1.61
279.122	1.52
279.5	1.09
279.878	1.48
280.257	1.17
280.635	1.68
281.013	1.21
281.391	1.62
281.769	1.92
282.147	1.67
282.525	1.02
282.903	1.01
283.281	1.11
283.659	1.48
284.037	1.68
284.415	1.81
284.792	1.81
285.17	1.33
285.548	1.05
285.925	1.22
286.303	1.45
286.68	1.08
287.058	1.36
287.435	1.02
287.813	1.63
288.19	1.02
288.567	0.89
288.945	1.5
289.322	1.31
289.699	1.45
290.076	0.96
290.453	1.97
290.83	1.39
291.207	1.38
291.584	1.23
291.961	1.45
292.338	1.52
292.715	1.4
293.092	1.3
293.469	1.37
293.845	1.36
294.222	1.27
294.599	1.29
294.975	1.23
295.352	1.55
295.728	1.05
296.105	1.49
296.481	1.03
296.858	1.43
297.234	1.43
297.61	1.62
297.986	1.71
298.363	1.29
298.739	0.98
299.115	1.42
299.491	1.42
299.867	1.17
300.243	1.54
300.619	1.37
300.995	0.75
301.371	1.88
301.746	1.06
302.122	1.56
302.498	1.38
302.874	1.26
303.249	1.38
303.625	1.25
304	1.74
304.376	0.98
304.751	1.56
305.127	1.43
305.502	1.62
305.878	1.52
306.253	1.62
306.628	1.64
307.003	1.59
307.378	1.87
307.754	2.01
308.129	2.19
308.504	1.59
308.879	1.71
309.254	1.34
309.629	1.04
310.003	1.82
310.378	1.36
310.753	1.38
311.128	0.99
311.502	1.5
311.877	1.53
312.252	1.5
312.626	1.59
313.001	1.56
313.375	2.02
313.75	1.6
314.124	1.18
314.498	1.44
314.873	2.09
315.247	1.61
315.621	1.85
315.995	1.56
316.369	1.68
316.743	1.8
317.117	1.15
317.491	1.65
317.865	1.7
318.239	2.16
318.613	1.74
318.987	1.11
319.361	1.86
319.734	1.55
320.108	1.55
320.482	1.45
320.855	1.49
321.229	1.21
321.602	2.12
321.976	1.87
322.349	1.41
322.723	1.5
323.096	1.59
323.469	1.31
323.843	1.4
324.216	1.61
324.589	1.63
324.962	1.47
325.335	1.86
325.708	1.7
326.081	1.81
326.454	2.08
326.827	1.88
327.2	1.71
327.573	1.77
327.945	1.98
328.318	2.04
328.691	1.37
329.063	1.46
329.436	1.23
329.809	1.67
330.181	1.87
330.553	1.6
330.926	1.7
331.298	2.34
331.671	1.76
332.043	1.51
332.415	1.6
332.787	1.52
333.159	2.27
333.532	2.36
333.904	1.46
334.276	1.66
334.648	1.96
335.02	1.97
335.391	2.32
335.763	1.19
336.135	1.42
336.507	1.67
336.879	2.49
337.25	1.16
337.622	1.77
337.993	1.97
338.365	2.1
338.736	2.74
339.108	1.69
339.479	1.97
339.851	2.04
340.222	1.65
340.593	1.72
340.964	1.65
341.336	1.49
341.707	1.53
342.078	2.14
342.449	1.73
342.82	1.7
343.191	1.83
343.562	1.96
343.933	2
344.303	2.24
344.674	1.41
345.045	2.06
345.416	1.88
345.786	1.91
346.157	2.04
346.527	1.7
346.898	1.76
347.268	1.97
347.639	1.55
348.009	2.08
348.38	2.16
348.75	1.37
349.12	1.74
349.49	2.1
349.861	1.71
350.231	1.86
350.601	2.02
350.971	2.03
351.341	2.31
351.711	1.84
352.081	1.82
352.45	1.91
352.82	2.39
353.19	2.14
353.56	1.87
353.929	2.25
354.299	1.8
354.669	1.91
355.038	1.81
355.408	1.98
355.777	1.49
356.147	1.78
356.516	2.05
356.885	1.91
357.254	1.94
357.624	1.86
357.993	1.91
358.362	1.91
358.731	2.2
359.1	1.83
359.469	1.9
359.838	1.81
360.207	1.9
360.576	2.13
360.945	1.86
361.314	1.97
361.682	1.49
362.051	1.95
362.42	2.33
362.788	2.07
363.157	1.92
363.525	1.99
363.894	2.11
364.262	1.76
364.631	1.99
364.999	1.82
365.367	1.93
365.735	2.14
366.104	2.24
366.472	1.93
366.84	2.13
367.208	2.25
367.576	1.95
367.944	1.87
368.312	1.85
368.68	2.38
369.048	2.37
369.416	1.87
369.783	2.07
370.151	2.06
370.519	1.91
370.886	1.83
371.254	1.83
371.621	2.16
371.989	1.56
372.356	2.26
372.724	2.19
373.091	2.04
373.458	1.93
373.826	2
374.193	2.26
374.56	1.69
374.927	1.88
375.294	2.14
375.661	1.96
376.028	2.58
376.395	1.93
376.762	2.58
377.129	1.93
377.496	2.16
377.863	1.8
378.229	2.39
378.596	1.84
378.963	2.12
379.329	2.05
379.696	2.21
380.062	2.02
380.429	2.16
380.795	2.25
381.161	2.33
381.528	2.48
381.894	2.37
382.26	2.28
382.626	1.99
382.993	1.96
383.359	2.04
383.725	2.15
384.091	2.25
384.457	1.67
384.823	2.23
385.188	1.97
385.554	1.95
385.92	2.24
386.286	2.11
386.651	2.06
387.017	2.12
387.383	1.86
387.748	1.59
388.114	1.84
388.479	2.14
388.845	2.25
389.21	2.34
389.575	2.23
389.94	2.3
390.306	2.12
390.671	2.05
391.036	2
391.401	2.21
391.766	2.02
392.131	1.99
392.496	1.9
392.861	2.15
393.226	2.27
393.591	2.23
393.956	2.08
394.32	2.42
394.685	1.93
395.05	2.43
395.414	1.84
395.779	2.19
396.143	2.27
396.508	2.18
396.872	2.08
397.236	2.15
397.601	2.03
397.965	1.94
398.329	2.04
398.694	2.15
399.058	2.36
399.422	2.16
399.786	2.14
400.15	2.27
400.514	1.99
400.878	2.26
401.242	2.1
401.605	1.8
401.969	1.95
402.333	2.22
402.697	2.24
403.06	2.29
403.424	2.18
403.787	2.26
404.151	2.44
404.514	2.04
404.878	2.09
405.241	2.18
405.604	2.23
405.968	2.16
406.331	2.08
406.694	2.09
407.057	2.03
407.42	1.99
407.783	2.26
408.146	2.55
408.509	2.34
408.872	2.3
409.235	2.35
409.598	2.14
409.961	2.04
410.323	2.38
410.686	2.45
411.049	2.03
411.411	2.04
411.774	2.21
412.136	2.01
412.499	2.3
412.861	2.08
413.223	2.16
413.586	2.19
413.948	2.14
414.31	2.41
414.672	2.27
415.035	2.3
415.397	2.18
415.759	2.22
416.121	2.28
416.483	2.13
416.845	2.27
417.206	2.31
417.568	2.29
417.93	2.33
418.292	2.1
418.653	2.06
419.015	2.1
419.377	2.3
419.738	2.15
420.1	2.21
420.461	2.29
420.822	2.26
421.184	2.22
421.545	2.21
421.906	2.27
422.267	2.14
422.629	2.15
422.99	2.13
423.351	2.12
423.712	2.1
424.073	2.24
424.434	2.29
424.795	2.14
425.155	2.28
425.516	2.28
425.877	2.12
426.238	2.14
426.598	2.21
426.959	2.17
427.32	2.12
427.68	2.27
428.041	2.16
428.401	2.21
428.761	2.39
429.122	2.34
429.482	2.19
429.842	2.27
430.202	2.33
430.563	2.4
430.923	2.42
431.283	2.45
431.643	2.42
432.003	2.25
432.363	2.28
432.722	2.3
433.082	2.35
433.442	2.45
433.802	2.31
434.161	2.13
434.521	2.45
434.881	2.36
435.24	2.22
435.6	2.47
435.959	2.32
436.319	2.34
436.678	2.35
437.037	2.22
437.396	2.47
437.756	2.3
438.115	2.2
438.474	2.48
438.833	2.39
439.192	2.24
439.551	2.23
439.91	2.34
440.269	2.55
440.628	2.28
440.987	2.34
441.345	2.33
441.704	2.36
442.063	2.4
442.421	2.33
442.78	2.37
443.138	2.41
443.497	2.47
443.855	2.29
444.214	2.32
444.572	2.45
444.93	2.29
445.288	2.24
445.647	2.31
446.005	2.35
446.363	2.26
446.721	2.31
447.079	2.34
447.437	2.38
447.795	2.35
448.153	2.44
448.51	2.33
448.868	2.39
449.226	2.39
449.584	2.4
449.941	2.37
450.299	2.46
450.656	2.51
451.014	2.5
451.371	2.45
451.729	2.41
452.086	2.35
452.443	2.4
452.801	2.51
453.158	2.37
453.515	2.37
453.872	2.43
454.229	2.39
454.586	2.34
454.943	2.3
455.3	2.43
455.657	2.35
456.014	2.42
456.371	2.32
456.727	2.47
457.084	2.66
457.441	2.46
457.797	2.41
458.154	2.44
458.51	2.48
458.867	2.41
459.223	2.35
459.58	2.59
459.936	2.45
460.292	2.39
460.648	2.3
461.005	2.45
461.361	2.24
461.717	2.34
462.073	2.41
462.429	2.43
462.785	2.47
463.141	2.48
463.496	2.43
463.852	2.51
464.208	2.53
464.564	2.55
464.919	2.45
465.275	2.54
465.631	2.53
465.986	2.39
466.342	2.39
466.697	2.67
467.052	2.41
467.408	2.57
467.763	2.49
468.118	2.52
468.473	2.58
468.829	2.62
469.184	2.56
469.539	2.58
469.894	2.73
470.249	2.73
470.603	2.51
470.958	2.49
471.313	2.57
471.668	2.52
472.023	2.56
472.377	2.49
472.732	2.45
473.086	2.51
473.441	2.4
473.795	2.74
474.15	2.45
474.504	2.69
474.859	2.55
475.213	2.5
475.567	2.38
475.921	2.7
476.275	2.55
476.63	2.57
476.984	2.48
477.338	2.66
477.692	2.52
478.045	2.57
478.399	2.57
478.753	2.47
479.107	2.56
479.461	2.47
479.814	2.7
480.168	2.54
480.521	2.53
480.875	2.66
481.228	2.65
481.582	2.66
481.935	2.64
482.289	2.67
482.642	2.55
482.995	2.59
483.348	2.58
483.701	2.57
484.055	2.55
484.408	2.61
484.761	2.55
485.114	2.42
485.466	2.37
485.819	2.4
486.172	2.39
486.525	2.46
486.878	2.47
487.23	2.54
487.583	2.56
487.936	2.57
488.288	2.49
488.641	2.45
488.993	2.51
489.345	2.44
489.698	2.45
490.05	2.5
490.402	2.54
490.754	2.58
491.107	2.56
491.459	2.58
491.811	2.49
492.163	2.52
492.515	2.54
492.866	2.57
493.218	2.5
493.57	2.49
493.922	2.51
494.274	2.58
494.625	2.52
494.977	2.57
495.328	2.66
495.68	2.58
496.031	2.56
496.383	2.69
496.734	2.67
497.086	2.66
497.437	2.74
497.788	2.7
498.139	2.66
498.49	2.69
498.842	2.67
499.193	2.64
499.544	2.66
499.894	2.75
500.245	2.73
500.596	2.64
500.947	2.73
501.298	2.61
501.648	2.7
501.999	2.66
502.35	2.75
502.7	2.83
503.051	2.69
503.401	2.7
503.752	2.83
504.102	2.85
504.452	2.69
504.803	2.77
505.153	2.82
505.503	2.73
505.853	2.71
506.203	2.78
506.553	2.65
506.903	2.8
507.253	2.67
507.603	2.86
507.953	2.77
508.303	2.85
508.652	2.81
509.002	2.82
509.352	2.67
509.701	2.78
510.051	2.89
510.4	2.73
510.75	2.77
511.099	2.76
511.449	2.73
511.798	2.72
512.147	2.68
512.496	2.79
512.846	2.71
513.195	2.75
513.544	2.84
513.893	2.8
514.242	2.77
514.591	2.84
514.939	2.89
515.288	2.9
515.637	2.81
515.986	2.97
516.334	2.79
516.683	2.98
517.032	2.9
517.38	2.95
517.729	2.96
518.077	2.9
518.426	2.86
518.774	2.88
519.122	2.89
519.47	2.96
519.819	2.81
520.167	2.8
520.515	2.78
520.863	2.78
521.211	2.87
521.559	2.88
521.907	2.85
522.255	2.86
522.602	3.05
522.95	3.08
523.298	2.99
523.645	2.99
523.993	2.95
524.341	3.01
524.688	3.1
525.036	2.95
525.383	2.98
525.73	3.07
526.078	2.97
526.425	2.92
526.772	2.95
527.119	2.81
527.466	2.9
527.814	2.94
528.161	2.93
528.508	2.95
528.854	2.99
529.201	2.91
529.548	2.88
529.895	2.87
530.242	2.86
530.588	2.85
530.935	2.88
531.282	2.88
531.628	2.92
531.975	2.97
532.321	3.01
532.667	3.09
533.014	3.09
533.36	3.08
533.706	3.01
534.052	3.08
534.399	3.04
534.745	3
535.091	2.94
535.437	2.93
535.783	3.02
536.129	3.14
536.474	3.07
536.82	3.09
537.166	3.13
537.512	3.24
537.857	3.09
538.203	2.99
538.549	3.03
538.894	3.06
539.239	3.25
539.585	3.14
539.93	3.09
540.276	3.31
540.621	3.3
540.966	3.19
541.311	3.29
541.656	3.21
542.001	3.17
542.346	3.11
542.691	3.17
543.036	3.09
543.381	3.04
543.726	3.07
544.071	3.1
544.415	3.22
544.76	3.17
545.105	3.24
545.449	3.26
545.794	3.23
546.138	3.23
546.483	3.39
546.827	3.44
547.171	3.39
547.516	3.21
547.86	3.29
548.204	3.34
548.548	3.28
548.892	3.26
549.236	3.3
549.58	3.55
549.924	3.44
550.268	3.41
550.612	3.47
550.956	3.23
551.3	3.49
551.643	3.44
551.987	3.58
552.33	3.48
552.674	3.32
553.017	3.53
553.361	3.57
553.704	3.59
554.048	3.56
554.391	3.57
554.734	3.6
555.077	3.63
555.42	3.57
555.764	3.66
556.107	3.66
556.45	3.45
556.793	3.76
557.135	3.66
557.478	3.45
557.821	3.51
558.164	3.8
558.507	3.67
558.849	3.56
559.192	3.65
559.534	3.96
559.877	3.65
560.219	3.71
560.562	3.86
560.904	3.9
561.246	3.71
561.589	3.77
561.931	3.92
562.273	3.89
562.615	3.84
562.957	3.82
563.299	3.85
563.641	3.93
563.983	4.01
564.325	3.92
564.667	3.93
565.008	3.91
565.35	3.83
565.692	4.03
566.033	3.91
566.375	3.97
566.716	3.88
567.058	3.88
567.399	3.99
567.741	3.86
568.082	4.11
568.423	3.8
568.764	4.02
569.105	4.05
569.447	4.14
569.788	4.11
570.129	4.23
570.47	4.25
570.811	4.25
571.151	4.17
571.492	4.14
571.833	4.24
572.174	4.22
572.514	4.29
572.855	4.16
573.195	4.13
573.536	4.13
573.876	4.21
574.217	4.13
574.557	4.18
574.898	4.15
575.238	4.25
575.578	4.22
575.918	4.26
576.258	4.24
576.598	4.25
576.938	4.22
577.278	4.26
577.618	4.35
577.958	4.43
578.298	4.3
578.638	4.14
578.977	4.28
579.317	4.34
579.657	4.3
579.996	4.54
580.336	4.44
580.675	4.41
581.014	4.7
581.354	4.62
581.693	4.47
582.032	4.55
582.372	4.62
582.711	4.85
583.05	4.75
583.389	4.76
583.728	4.78
584.067	4.54
584.406	4.91
584.745	4.71
585.083	4.84
585.422	4.98
585.761	4.86
586.1	4.58
586.438	5.04
586.777	4.6
587.115	4.93
587.454	4.82
587.792	4.75
588.13	4.98
588.469	4.75
588.807	4.57
589.145	4.74
589.483	4.95
589.821	4.88
590.159	4.88
590.497	4.86
590.835	4.96
591.173	5.02
591.511	4.9
591.849	4.97
592.187	4.83
592.524	4.93
592.862	5.17
593.2	4.69
593.537	4.99
593.875	5.11
594.212	5.02
594.55	4.6
594.887	5.19
595.224	5.11
595.561	5.17
595.899	5.21
596.236	5.35
596.573	5.15
596.91	5.17
597.247	5.16
597.584	5.26
597.921	5.21
598.258	5.34
598.594	5.02
598.931	5.1
599.268	5.23
599.604	5.15
599.941	5.3
600.277	5.26
600.614	5.29
600.95	5.36
601.287	5.12
601.623	5.61
601.959	5.73
602.296	5.5
602.632	5.45
602.968	5.5
603.304	5.42
603.64	5.2
603.976	5.69
604.312	5.6
604.648	5.74
604.984	5.6
605.319	5.67
605.655	5.87
605.991	5.58
606.326	5.66
606.662	5.7
606.998	5.57
607.333	5.72
607.668	5.83
608.004	5.8
608.339	5.63
608.674	5.62
609.01	5.82
609.345	6.07
609.68	5.81
610.015	5.83
610.35	5.58
610.685	6.22
611.02	5.91
611.355	5.98
611.689	5.85
612.024	6.19
612.359	6.11
612.694	5.91
613.028	5.95
613.363	5.95
613.697	6.21
614.032	6.06
614.366	5.89
614.7	5.76
615.035	6.08
615.369	6.17
615.703	6.3
616.037	6.3
616.371	6.5
616.705	6.4
617.039	6.33
617.373	5.96
617.707	6.24
618.041	6.65
618.375	6.26
618.709	6.21
619.042	6.26
619.376	6.35
619.71	6.72
620.043	6.56
620.377	6.56
620.71	6.44
621.043	6.91
621.377	6.83
621.71	6.69
622.043	6.54
622.376	6.81
622.709	6.62
623.043	6.35
623.376	6.33
623.709	6.3
624.041	7.08
624.374	6.92
624.707	6.66
625.04	6.89
625.373	6.34
625.705	6.82
626.038	7.23
626.37	6.86
626.703	6.52
627.035	6.8
627.368	7.28
627.7	6.98
628.032	6.75
628.365	6.95
628.697	7.01
629.029	7.18
629.361	6.96
629.693	7.11
630.025	7.1
630.357	7.23
630.689	6.87
631.021	7.19
631.353	7.33
631.684	7.12
632.016	7.09
632.348	7.29
632.679	7.26
633.011	7.02
633.342	7.14
633.674	7.11
634.005	7.36
634.336	7.26
634.668	7.14
634.999	7.14
635.33	7.42
635.661	7.6
635.992	7.11
636.323	7.18
636.654	7.44
636.985	7.84
637.316	7.65
637.647	7.58
637.977	7.41
638.308	7.74
638.639	7.85
638.969	7.63
639.3	8.18
639.63	7.53
639.961	8.18
640.291	7.8
640.622	7.85
640.952	7.98
641.282	7.86
641.612	7.89
641.943	7.46
642.273	7.85
642.603	8.03
642.933	7.71
643.263	8.05
643.592	7.73
643.922	7.76
644.252	7.99
644.582	7.84
644.911	7.81
645.241	8.02
645.571	8.53
645.9	8.05
646.23	7.84
646.559	7.55
646.888	8.46
647.218	8.38
647.547	8
647.876	8.35
648.205	8.56
648.534	8.46
648.863	8.27
649.192	8.5
649.521	8.32
649.85	8.36
650.179	8.15
650.508	8.38
650.837	8.54
651.165	8.48
651.494	8.44
651.822	8.09
652.151	8.28
652.479	8.77
652.808	8.76
653.136	8.72
653.465	8.57
653.793	8.42
654.121	8.76
654.449	8.73
654.777	9.2
655.105	8.83
655.433	8.7
655.761	8.7
656.089	8.64
656.417	8.87
656.745	8.9
657.073	9.09
657.4	8.72
657.728	9.4
658.056	8.65
658.383	8.67
658.711	8.48
659.038	8.9
659.365	9.43
659.693	8.84
660.02	9.28
660.347	9.4
660.674	9.19
661.001	9.34
661.329	8.79
661.656	9.14
661.982	9.53
662.309	9.32
662.636	9.03
662.963	9.36
663.29	9.4
663.616	9.6
663.943	9.47
664.27	8.97
664.596	9.29
664.923	9.26
665.249	9.17
665.576	9.21
665.902	9.74
666.228	8.83
666.554	10.04
666.881	10.15
667.207	8.93
667.533	9.58
667.859	10.08
668.185	9.91
668.511	9.72
668.837	9.18
669.162	9.94
669.488	10.21
669.814	9.7
670.139	9.61
670.465	9.92
670.791	9.8
671.116	9.86
671.442	10.63
671.767	9.95
672.092	9.8
672.418	9.6
672.743	9.88
673.068	10.41
673.393	9.3
673.718	10.6
674.043	10.38
674.368	9.9
674.693	11.05
675.018	10.29
675.343	10.08
675.667	10.32
675.992	10.3
676.317	10.28
676.641	9.17
676.966	10.35
677.29	10
677.615	10.43
677.939	9.42
678.264	10.8
678.588	10.14
678.912	9.99
679.236	10.41
679.56	11.07
679.885	10.3
680.209	10.4
680.532	10.66
680.856	10.7
681.18	10.63
681.504	10.58
681.828	10.31
682.152	10.68
682.475	10.67
682.799	10.44
683.122	10.38
683.446	10.67
683.769	10.37
684.093	10.94
684.416	10.54
684.739	10.52
685.062	11
685.386	10.86
685.709	10.71
686.032	11.42
686.355	10.52
686.678	11.71
687.001	11.09
687.324	11.17
687.646	11.94
687.969	11.1
688.292	11.18
688.614	10.66
688.937	11.32
689.26	10.98
689.582	10.89
689.904	10.71
690.227	11.12
690.549	11.1
690.871	10.8
691.194	11.61
