Data from 815646_forehead_Reflection__0__60.txt Node

Date: Fri Sep 16 15:00:29 CDT 2022
User: ToomeyLab
Spectrometer: FLMS14357
Trigger mode: 0
Integration Time (sec): 1.000000E-2
Scans to average: 100
Electric dark correction enabled: true
Nonlinearity correction enabled: false
Boxcar width: 0
XAxis mode: Wavelengths
Number of Pixels in Spectrum: 2048
>>>>>Begin Spectral Data<<<<<
189.047	-405.12
189.435	-405.12
189.823	-405.12
190.211	106.14
190.599	-147.73
190.987	93.87
191.375	158.71
191.763	525.81
192.151	-44.38
192.538	62.83
192.926	282.14
193.314	47.43
193.702	706.99
194.089	98.77
194.477	343.73
194.864	14.42
195.252	521.39
195.639	1310.32
196.027	68.88
196.414	170.46
196.801	-65.55
197.189	57.61
197.576	150.9
197.963	-768.66
198.351	-52.64
198.738	15.35
199.125	14.98
199.512	-60.87
199.899	28.01
200.286	-32.61
200.673	15.67
201.06	27.28
201.447	2.22
201.833	4.86
202.22	7.9
202.607	-31.44
202.994	16.46
203.38	-7.98
203.767	85.19
204.154	-0.28
204.54	4
204.927	22.84
205.313	53.56
205.699	50.41
206.086	29.68
206.472	20.77
206.858	-0.95
207.245	-2.81
207.631	1.48
208.017	22.57
208.403	-8.23
208.789	15.21
209.175	27.27
209.561	-20.48
209.947	0.96
210.333	-7.45
210.719	38.86
211.105	-4.84
211.491	20.12
211.876	23.43
212.262	39.24
212.648	19.2
213.034	1.87
213.419	-7.77
213.805	4.14
214.19	38.24
214.576	-4.65
214.961	-5.56
215.346	-24.2
215.732	-27.28
216.117	14.88
216.502	19.92
216.888	-5.91
217.273	9.2
217.658	25.14
218.043	-40.27
218.428	11.65
218.813	-5.72
219.198	13.55
219.583	-7.35
219.968	2.28
220.353	2.68
220.738	13.65
221.122	-6.13
221.507	29.34
221.892	-3.86
222.276	16.14
222.661	11.35
223.046	12.13
223.43	13.62
223.815	-9.49
224.199	4.32
224.583	9.44
224.968	6.55
225.352	4.45
225.736	16.29
226.121	3.93
226.505	4.91
226.889	2.45
227.273	6.28
227.657	2.28
228.041	2.96
228.425	-4.1
228.809	5.12
229.193	2.65
229.577	3.77
229.961	2.45
230.344	3.79
230.728	2.71
231.112	2.52
231.495	2.09
231.879	2.68
232.263	2.55
232.646	2.45
233.03	2.95
233.413	4.28
233.797	2.22
234.18	5.57
234.563	3.3
234.946	3.35
235.33	3.26
235.713	3.12
236.096	2.73
236.479	3.65
236.862	2.32
237.245	2.03
237.628	3.66
238.011	3.1
238.394	2.99
238.777	2.91
239.16	2.14
239.543	3.42
239.925	3.1
240.308	1.11
240.691	4.02
241.073	2.71
241.456	2.06
241.838	2.17
242.221	2.43
242.603	2.41
242.986	2.08
243.368	2.62
243.75	2.3
244.133	2.54
244.515	2.53
244.897	2.86
245.279	2.54
245.661	2.8
246.043	2.09
246.425	2.42
246.807	2.9
247.189	3.11
247.571	2.28
247.953	2.26
248.335	2.58
248.717	2.44
249.098	2.48
249.48	2.22
249.862	2.68
250.243	2.65
250.625	2.84
251.006	2.94
251.388	3.16
251.769	1.52
252.151	2.86
252.532	1.78
252.913	2.72
253.295	2.61
253.676	2.75
254.057	2.39
254.438	1.47
254.819	1.5
255.2	1.87
255.581	2.74
255.962	2.59
256.343	4.07
256.724	2.4
257.105	1.62
257.486	2.89
257.867	3.4
258.247	3.96
258.628	2.76
259.009	2.95
259.389	2.87
259.77	2.36
260.15	2.55
260.531	1.95
260.911	2.24
261.292	2.21
261.672	2.52
262.052	2.49
262.432	2.42
262.813	2.77
263.193	2.73
263.573	2.46
263.953	2.29
264.333	2.45
264.713	2.36
265.093	1.62
265.473	2.11
265.853	3.08
266.233	2.48
266.612	3.58
266.992	1.63
267.372	2.28
267.752	2.33
268.131	2.46
268.511	2.07
268.89	2.85
269.27	1.81
269.649	2.27
270.029	1.77
270.408	2.51
270.787	1.91
271.167	2.11
271.546	2.86
271.925	2.13
272.304	2.21
272.683	2.29
273.062	2.33
273.441	2.56
273.82	2.28
274.199	2.47
274.578	2.4
274.957	2.55
275.336	2.58
275.715	2.95
276.093	2.55
276.472	1.99
276.851	2.21
277.229	2.68
277.608	2.65
277.986	2.34
278.365	1.61
278.743	2.41
279.122	1.97
279.5	1.68
279.878	2.62
280.257	2.77
280.635	2.62
281.013	2.03
281.391	2.93
281.769	2.1
282.147	2.65
282.525	1.85
282.903	2.17
283.281	2.04
283.659	2.44
284.037	2.31
284.415	2.34
284.792	2.49
285.17	2.65
285.548	2.22
285.925	1.79
286.303	2.95
286.68	2.12
287.058	2.31
287.435	2.21
287.813	2.69
288.19	2.14
288.567	2.03
288.945	2.45
289.322	2.56
289.699	2.29
290.076	2.03
290.453	2.41
290.83	2.53
291.207	2.47
291.584	1.73
291.961	2.82
292.338	2.71
292.715	2.59
293.092	2.59
293.469	2.42
293.845	2.82
294.222	2.63
294.599	1.99
294.975	2.66
295.352	2.99
295.728	2.76
296.105	2.85
296.481	2.75
296.858	2.43
297.234	2.49
297.61	3.11
297.986	2.87
298.363	2.31
298.739	2.34
299.115	3.1
299.491	2.69
299.867	2.93
300.243	2.47
300.619	3.18
300.995	2.39
301.371	3.01
301.746	2.91
302.122	2.82
302.498	2.79
302.874	2.83
303.249	2.93
303.625	2.97
304	3.12
304.376	2.78
304.751	3.25
305.127	3.08
305.502	2.91
305.878	3.14
306.253	3.09
306.628	2.91
307.003	3.18
307.378	3.72
307.754	3.47
308.129	3.42
308.504	3.59
308.879	3.58
309.254	3.68
309.629	2.82
310.003	3.41
310.378	2.85
310.753	3.41
311.128	3.31
311.502	3
311.877	3.64
312.252	3.5
312.626	3.54
313.001	3.36
313.375	3.69
313.75	3.48
314.124	3.65
314.498	3.28
314.873	4.26
315.247	3.97
315.621	3.3
315.995	3.45
316.369	3.96
316.743	4.02
317.117	3.73
317.491	4.26
317.865	4.37
318.239	4.21
318.613	3.68
318.987	3.73
319.361	3.43
319.734	4.11
320.108	4.11
320.482	4.43
320.855	4.22
321.229	4.36
321.602	4.57
321.976	4.13
322.349	4.4
322.723	4.19
323.096	4.3
323.469	3.88
323.843	4.87
324.216	4.51
324.589	4.36
324.962	4.22
325.335	4.95
325.708	4.59
326.081	4.17
326.454	4.76
326.827	4.41
327.2	4.47
327.573	4.5
327.945	4.66
328.318	4.79
328.691	4.63
329.063	4.26
329.436	4.07
329.809	3.59
330.181	4.8
330.553	4.87
330.926	4.67
331.298	4.92
331.671	4.79
332.043	4.75
332.415	4.82
332.787	5.08
333.159	4.8
333.532	5.14
333.904	4.89
334.276	4.39
334.648	4.81
335.02	4.6
335.391	5.6
335.763	4.5
336.135	4.83
336.507	5.26
336.879	5.03
337.25	4.66
337.622	4.87
337.993	4.96
338.365	5.12
338.736	5.47
339.108	5.08
339.479	5.86
339.851	5.26
340.222	5.32
340.593	5.29
340.964	5.4
341.336	5.45
341.707	4.87
342.078	5.75
342.449	5.81
342.82	5.19
343.191	5.35
343.562	5.57
343.933	5.54
344.303	6.02
344.674	4.81
345.045	6.28
345.416	5.74
345.786	5.7
346.157	5.68
346.527	5.73
346.898	5.57
347.268	5.86
347.639	5.5
348.009	5.48
348.38	6.16
348.75	5.3
349.12	5.96
349.49	5.79
349.861	6.17
350.231	5.57
350.601	5.86
350.971	6.1
351.341	6.19
351.711	5.89
352.081	6
352.45	6.07
352.82	6.5
353.19	5.5
353.56	6.01
353.929	6.33
354.299	6.18
354.669	6.09
355.038	5.69
355.408	6.07
355.777	6.04
356.147	6.17
356.516	6.5
356.885	6.08
357.254	6.35
357.624	6.15
357.993	6.14
358.362	6.23
358.731	6.6
359.1	6.43
359.469	6.27
359.838	6.28
360.207	6.74
360.576	6.74
360.945	6.57
361.314	6.42
361.682	6.16
362.051	6.53
362.42	6.67
362.788	6.79
363.157	6.56
363.525	6.45
363.894	6.48
364.262	6.48
364.631	6.74
364.999	6.78
365.367	7.02
365.735	6.69
366.104	7
366.472	6.92
366.84	6.76
367.208	7.25
367.576	7.05
367.944	6.69
368.312	6.61
368.68	7.55
369.048	7.45
369.416	6.8
369.783	7.49
370.151	7.16
370.519	7.1
370.886	7.2
371.254	7.27
371.621	7.24
371.989	7.11
372.356	7.42
372.724	7.58
373.091	7.11
373.458	7.28
373.826	7.28
374.193	7.57
374.56	6.92
374.927	7.47
375.294	7.68
375.661	7.47
376.028	7.8
376.395	7.66
376.762	8.33
377.129	7.29
377.496	7.85
377.863	7.53
378.229	7.83
378.596	7.45
378.963	7.92
379.329	7.91
379.696	7.97
380.062	7.85
380.429	8.1
380.795	8.12
381.161	8.08
381.528	8
381.894	7.98
382.26	8.32
382.626	8.05
382.993	8.08
383.359	8.16
383.725	8.19
384.091	8.36
384.457	7.7
384.823	8.02
385.188	8.32
385.554	8.09
385.92	8.39
386.286	7.97
386.651	8.42
387.017	8.4
387.383	8.29
387.748	8.14
388.114	7.97
388.479	8.28
388.845	8.51
389.21	8.9
389.575	8.35
389.94	8.74
390.306	8.72
390.671	8.49
391.036	8.7
391.401	8.44
391.766	8.92
392.131	8.79
392.496	8.55
392.861	8.78
393.226	9.05
393.591	8.73
393.956	8.85
394.32	9.21
394.685	8.75
395.05	9.17
395.414	8.92
395.779	8.88
396.143	9.14
396.508	8.91
396.872	9.12
397.236	9.16
397.601	9.15
397.965	9.15
398.329	9.11
398.694	9.44
399.058	9.22
399.422	9.25
399.786	9.51
400.15	9.66
400.514	9.34
400.878	9.58
401.242	9.59
401.605	9.45
401.969	9.42
402.333	9.55
402.697	9.32
403.06	9.97
403.424	9.57
403.787	9.44
404.151	9.73
404.514	9.54
404.878	9.72
405.241	9.63
405.604	9.92
405.968	9.79
406.331	9.91
406.694	9.8
407.057	9.8
407.42	9.54
407.783	10.14
408.146	10.26
408.509	10.11
408.872	10.16
409.235	10.26
409.598	9.84
409.961	10.22
410.323	10.31
410.686	10.19
411.049	10.12
411.411	10.01
411.774	10.4
412.136	10.15
412.499	10.23
412.861	10.28
413.223	10.26
413.586	10.49
413.948	10.29
414.31	10.55
414.672	10.13
415.035	10.71
415.397	10.22
415.759	10.56
416.121	10.64
416.483	10.72
416.845	10.51
417.206	10.65
417.568	10.77
417.93	10.79
418.292	10.76
418.653	10.39
419.015	10.64
419.377	10.72
419.738	10.45
420.1	10.87
420.461	10.71
420.822	10.66
421.184	10.7
421.545	10.59
421.906	10.75
422.267	10.81
422.629	10.7
422.99	10.66
423.351	10.84
423.712	10.84
424.073	10.94
424.434	10.98
424.795	10.89
425.155	10.92
425.516	11.01
425.877	10.9
426.238	11.05
426.598	11.07
426.959	11.08
427.32	11.04
427.68	11.28
428.041	11.2
428.401	11.37
428.761	11.67
429.122	11.58
429.482	11.44
429.842	11.65
430.202	11.78
430.563	11.55
430.923	11.8
431.283	11.92
431.643	12.01
432.003	11.84
432.363	11.92
432.722	11.78
433.082	12.05
433.442	11.92
433.802	11.88
434.161	11.9
434.521	11.94
434.881	11.85
435.24	11.84
435.6	12.04
435.959	12.04
436.319	12.07
436.678	12.19
437.037	12.2
437.396	12.21
437.756	12.38
438.115	12.32
438.474	12.1
438.833	12.32
439.192	12.46
439.551	12.46
439.91	12.26
440.269	12.45
440.628	12.44
440.987	12.42
441.345	12.38
441.704	12.57
442.063	12.57
442.421	12.49
442.78	12.29
443.138	12.64
443.497	12.69
443.855	12.59
444.214	12.63
444.572	12.78
444.93	12.72
445.288	12.83
445.647	12.95
446.005	12.75
446.363	12.92
446.721	12.81
447.079	12.82
447.437	12.78
447.795	12.88
448.153	12.96
448.51	12.91
448.868	12.83
449.226	13.05
449.584	13.15
449.941	13.11
450.299	13.1
450.656	13.2
451.014	13.25
451.371	13.28
451.729	13.42
452.086	13.39
452.443	13.4
452.801	13.62
453.158	13.59
453.515	13.52
453.872	13.44
454.229	13.63
454.586	13.68
454.943	13.47
455.3	13.81
455.657	13.66
456.014	13.85
456.371	13.68
456.727	13.95
457.084	13.94
457.441	14.06
457.797	14.08
458.154	13.96
458.51	14
458.867	13.91
459.223	13.97
459.58	14.16
459.936	14.06
460.292	14.09
460.648	13.93
461.005	14.08
461.361	13.84
461.717	13.91
462.073	13.98
462.429	14.05
462.785	14.21
463.141	14.38
463.496	14.49
463.852	14.37
464.208	14.46
464.564	14.48
464.919	14.64
465.275	14.74
465.631	14.7
465.986	14.84
466.342	14.76
466.697	14.8
467.052	14.68
467.408	14.86
467.763	14.81
468.118	15
468.473	14.84
468.829	15.02
469.184	14.82
469.539	15.01
469.894	14.95
470.249	15.17
470.603	15.2
470.958	15
471.313	15.15
471.668	15.1
472.023	15.18
472.377	15.4
472.732	15.43
473.086	15.42
473.441	15.26
473.795	15.5
474.15	15.52
474.504	15.57
474.859	15.23
475.213	15.63
475.567	15.29
475.921	15.67
476.275	15.65
476.63	15.63
476.984	15.95
477.338	15.88
477.692	15.8
478.045	15.66
478.399	15.76
478.753	15.8
479.107	15.8
479.461	15.85
479.814	15.76
480.168	15.74
480.521	16.03
480.875	16.02
481.228	16.02
481.582	16.1
481.935	16.07
482.289	16.06
482.642	16
482.995	15.96
483.348	16.07
483.701	15.9
484.055	15.8
484.408	15.84
484.761	15.57
485.114	15.38
485.466	15.28
485.819	15.34
486.172	15.52
486.525	15.66
486.878	15.82
487.23	15.92
487.583	15.97
487.936	16.05
488.288	16.02
488.641	15.87
488.993	15.83
489.345	15.8
489.698	15.81
490.05	15.97
490.402	16.09
490.754	16.23
491.107	16.45
491.459	16.47
491.811	16.63
492.163	16.52
492.515	16.56
492.866	16.22
493.218	16.16
493.57	16.22
493.922	16.36
494.274	16.55
494.625	16.63
494.977	16.86
495.328	17.09
495.68	16.93
496.031	17.28
496.383	17.28
496.734	17.25
497.086	17.35
497.437	17.34
497.788	17.33
498.139	17.22
498.49	17.52
498.842	17.35
499.193	17.45
499.544	17.47
499.894	17.33
500.245	17.54
500.596	17.52
500.947	17.46
501.298	17.66
501.648	17.8
501.999	17.75
502.35	17.93
502.7	17.92
503.051	17.93
503.401	17.95
503.752	17.96
504.102	18.14
504.452	18.06
504.803	18.13
505.153	18.18
505.503	17.97
505.853	18.15
506.203	18.07
506.553	18.16
506.903	18.17
507.253	18.28
507.603	18.34
507.953	18.38
508.303	18.45
508.652	18.5
509.002	18.3
509.352	18.47
509.701	18.41
510.051	18.46
510.4	18.43
510.75	18.55
511.099	18.42
511.449	18.37
511.798	18.6
512.147	18.51
512.496	18.61
512.846	18.63
513.195	18.79
513.544	18.77
513.893	18.73
514.242	18.79
514.591	18.75
514.939	18.96
515.288	19.01
515.637	19.01
515.986	19.01
516.334	19.04
516.683	19.13
517.032	19.33
517.38	19.35
517.729	19.23
518.077	19.23
518.426	19.22
518.774	19.35
519.122	19.2
519.47	19.06
519.819	19.11
520.167	18.9
520.515	18.91
520.863	19.14
521.211	19.24
521.559	19.24
521.907	19.35
522.255	19.34
522.602	19.48
522.95	19.67
523.298	19.59
523.645	19.72
523.993	19.71
524.341	19.83
524.688	19.77
525.036	19.91
525.383	20.02
525.73	19.88
526.078	19.76
526.425	19.74
526.772	19.72
527.119	19.62
527.466	19.59
527.814	19.61
528.161	19.56
528.508	19.61
528.854	19.73
529.201	19.77
529.548	19.59
529.895	19.37
530.242	19.26
530.588	19.37
530.935	19.49
531.282	19.53
531.628	19.65
531.975	19.88
532.321	19.88
532.667	20.07
533.014	20.27
533.36	20.28
533.706	20.3
534.052	20.24
534.399	20.05
534.745	20.04
535.091	19.92
535.437	19.97
535.783	20.1
536.129	20.25
536.474	20.45
536.82	20.52
537.166	20.71
537.512	20.6
537.857	20.53
538.203	20.48
538.549	20.69
538.894	20.56
539.239	20.87
539.585	20.8
539.93	20.82
540.276	21.18
540.621	21.17
540.966	21.26
541.311	21.22
541.656	21.08
542.001	20.9
542.346	20.88
542.691	20.75
543.036	20.5
543.381	20.49
543.726	20.78
544.071	20.84
544.415	20.9
544.76	21.06
545.105	21.09
545.449	21.26
545.794	21.31
546.138	21.52
546.483	21.62
546.827	21.61
547.171	21.59
547.516	21.6
547.86	21.62
548.204	21.81
548.548	21.65
548.892	21.55
549.236	21.75
549.58	21.8
549.924	22.01
550.268	22.15
550.612	22.04
550.956	22.22
551.3	22.3
551.643	22.39
551.987	22.35
552.33	22.27
552.674	22.54
553.017	22.33
553.361	22.54
553.704	22.64
554.048	22.48
554.391	22.44
554.734	22.56
555.077	22.57
555.42	22.64
555.764	22.71
556.107	22.75
556.45	22.81
556.793	23
557.135	22.78
557.478	23.1
557.821	23.06
558.164	23.12
558.507	23.22
558.849	23.15
559.192	23.14
559.534	23.21
559.877	23.29
560.219	23.32
560.562	23.25
560.904	23.34
561.246	23.41
561.589	23.5
561.931	23.43
562.273	23.59
562.615	23.74
562.957	23.55
563.299	23.52
563.641	23.54
563.983	23.68
564.325	23.5
564.667	23.47
565.008	23.69
565.35	23.55
565.692	23.7
566.033	23.87
566.375	23.81
566.716	23.73
567.058	23.57
567.399	23.67
567.741	23.65
568.082	23.87
568.423	23.58
568.764	23.8
569.105	23.93
569.447	23.95
569.788	24.18
570.129	24.32
570.47	24.36
570.811	24.31
571.151	24.14
571.492	24.1
571.833	24.02
572.174	24.28
572.514	24.19
572.855	24.55
573.195	24.25
573.536	24.33
573.876	24.26
574.217	24.45
574.557	24.47
574.898	24.5
575.238	24.61
575.578	24.55
575.918	24.57
576.258	24.64
576.598	24.35
576.938	24.57
577.278	24.49
577.618	24.76
577.958	24.7
578.298	24.62
578.638	24.78
578.977	24.74
579.317	24.85
579.657	24.83
579.996	25.16
580.336	25.19
580.675	24.96
581.014	25.25
581.354	25.42
581.693	24.99
582.032	25.43
582.372	25.32
582.711	25.46
583.05	25.6
583.389	25.4
583.728	25.51
584.067	25.29
584.406	25.69
584.745	25.71
585.083	25.38
585.422	25.77
585.761	25.69
586.1	25.57
586.438	25.65
586.777	25.64
587.115	25.94
587.454	25.77
587.792	25.8
588.13	25.98
588.469	25.71
588.807	25.66
589.145	25.73
589.483	25.9
589.821	26.14
590.159	25.88
590.497	25.95
590.835	26.07
591.173	26.06
591.511	26.1
591.849	26
592.187	25.89
592.524	25.76
592.862	26.42
593.2	26.23
593.537	26.24
593.875	26.2
594.212	26.74
594.55	26.3
594.887	26.56
595.224	26.56
595.561	26.16
595.899	26.24
596.236	26.4
596.573	26.16
596.91	26.38
597.247	26.5
597.584	26.52
597.921	26.35
598.258	26.36
598.594	26.24
598.931	26.42
599.268	26.57
599.604	26.67
599.941	26.54
600.277	26.72
600.614	26.92
600.95	26.78
601.287	26.81
601.623	26.74
601.959	27.32
602.296	27.13
602.632	26.86
602.968	27.17
603.304	27.25
603.64	27.06
603.976	27.47
604.312	27.12
604.648	27.18
604.984	27.19
605.319	27.21
605.655	27.14
605.991	27.28
606.326	27.18
606.662	27.17
606.998	27.39
607.333	27.15
607.668	27.47
608.004	27.29
608.339	27.11
608.674	27.83
609.01	27.3
609.345	28.09
609.68	28
610.015	27.91
610.35	27.48
610.685	27.69
611.02	27.72
611.355	27.66
611.689	27.8
612.024	27.66
612.359	27.81
612.694	27.64
613.028	28.05
613.363	27.95
613.697	28.32
614.032	27.96
614.366	28.11
614.7	28.1
615.035	28.08
615.369	27.58
615.703	28.21
616.037	28.09
616.371	28.35
616.705	28.3
617.039	28.27
617.373	27.84
617.707	27.88
618.041	28.35
618.375	28.29
618.709	28.32
619.042	28.5
619.376	28.11
619.71	28.48
620.043	28.71
620.377	28.75
620.71	28.9
621.043	28.75
621.377	28.75
621.71	28.48
622.043	28.14
622.376	28.44
622.709	28.78
623.043	29.04
623.376	28.82
623.709	28.56
624.041	29.19
624.374	28.65
624.707	29.09
625.04	29.1
625.373	28.83
625.705	29.36
626.038	29.29
626.37	29.1
626.703	29.2
627.035	29.63
627.368	29.32
627.7	29.69
628.032	28.86
628.365	28.98
628.697	29.04
629.029	29.1
629.361	28.92
629.693	29.13
630.025	29.23
630.357	29.5
630.689	29.35
631.021	29.31
631.353	29.42
631.684	29.38
632.016	29.82
632.348	29.79
632.679	29.19
633.011	29.52
633.342	29.41
633.674	29.63
634.005	29.79
634.336	29.81
634.668	29.46
634.999	29.41
635.33	29.81
635.661	29.68
635.992	29.61
636.323	29.83
636.654	29.49
636.985	29.91
637.316	30.11
637.647	30.06
637.977	30.32
638.308	30.05
638.639	30.3
638.969	30.41
639.3	30.18
639.63	30.04
639.961	30.5
640.291	30.09
640.622	30.04
640.952	30
641.282	30.63
641.612	30.35
641.943	29.78
642.273	29.92
642.603	30.62
642.933	30.59
643.263	30.5
643.592	30.06
643.922	29.93
644.252	29.95
644.582	31.12
644.911	30.47
645.241	30.63
645.571	30.79
645.9	30.54
646.23	30.4
646.559	30.08
646.888	30.76
647.218	30.57
647.547	30.88
647.876	31.18
648.205	30.96
648.534	30.62
648.863	30.91
649.192	30.91
649.521	30.54
649.85	30.98
650.179	30.87
650.508	30.88
650.837	31.15
651.165	30.8
651.494	30.94
651.822	31.56
652.151	30.55
652.479	30.83
652.808	31.3
653.136	31.25
653.465	31.15
653.793	31.39
654.121	31.35
654.449	30.87
654.777	31.79
655.105	31.74
655.433	31.31
655.761	31.39
656.089	31.24
656.417	31.67
656.745	31.23
657.073	31.71
657.4	30.99
657.728	31.62
658.056	31.23
658.383	31.49
658.711	31.23
659.038	31.52
659.365	31.73
659.693	31.11
660.02	31.18
660.347	32.04
660.674	31.71
661.001	31.98
661.329	31.7
661.656	31.19
661.982	31.82
662.309	31.69
662.636	31.46
662.963	31.97
663.29	31.72
663.616	31.65
663.943	31.84
664.27	31.87
664.596	31.64
664.923	32.21
665.249	32.12
665.576	32.29
665.902	32.33
666.228	31.99
666.554	32.62
666.881	32.23
667.207	32.47
667.533	32.03
667.859	32.39
668.185	32.43
668.511	32.75
668.837	32.2
669.162	31.79
669.488	32.75
669.814	32.6
670.139	32.22
670.465	32.43
670.791	32.41
671.116	32.58
671.442	33.01
671.767	32.36
672.092	32.89
672.418	32.41
672.743	33.02
673.068	32.75
673.393	32.1
673.718	33.54
674.043	32.8
674.368	32.23
674.693	33.55
