Data from 815646_forehead_Reflection__1__61.txt Node

Date: Fri Sep 16 15:00:45 CDT 2022
User: ToomeyLab
Spectrometer: FLMS14357
Trigger mode: 0
Integration Time (sec): 1.000000E-2
Scans to average: 100
Electric dark correction enabled: true
Nonlinearity correction enabled: false
Boxcar width: 0
XAxis mode: Wavelengths
Number of Pixels in Spectrum: 2048
>>>>>Begin Spectral Data<<<<<
189.047	282.71
189.435	282.71
189.823	282.71
190.211	120.81
190.599	135.62
190.987	50.01
191.375	187.92
191.763	669.68
192.151	514
192.538	261.73
192.926	-254.9
193.314	43.72
193.702	503.22
194.089	-13.17
194.477	357.82
194.864	-1.58
195.252	-445.99
195.639	4138.06
196.027	111.77
196.414	-46.26
196.801	-29.54
197.189	222.09
197.576	-120.45
197.963	-710.87
198.351	-18.52
198.738	29.63
199.125	26.87
199.512	-119.12
199.899	34.48
200.286	16.92
200.673	47.32
201.06	34.95
201.447	-2.77
201.833	33.3
202.22	7.47
202.607	-8.82
202.994	59.68
203.38	33.51
203.767	35.77
204.154	21.39
204.54	4.3
204.927	-36.94
205.313	51.7
205.699	43.08
206.086	26.98
206.472	26.81
206.858	18.43
207.245	11.45
207.631	28.45
208.017	30.97
208.403	37.03
208.789	-2.96
209.175	51.9
209.561	-9.59
209.947	6.17
210.333	33.94
210.719	-39.31
211.105	11.62
211.491	22.26
211.876	27.28
212.262	34.65
212.648	-4.95
213.034	9.47
213.419	1.75
213.805	16.57
214.19	1.49
214.576	5.18
214.961	7.71
215.346	-5.97
215.732	-35.36
216.117	16.6
216.502	2.95
216.888	-29.31
217.273	-1.7
217.658	30.13
218.043	-44.76
218.428	10.54
218.813	0.52
219.198	4.21
219.583	11.87
219.968	4.38
220.353	-5.03
220.738	21.06
221.122	1.47
221.507	15
221.892	8.67
222.276	20.35
222.661	0.94
223.046	10.79
223.43	12.43
223.815	-6.67
224.199	4.51
224.583	9.17
224.968	13.64
225.352	2.25
225.736	8.81
226.121	10
226.505	7.06
226.889	5.37
227.273	7.48
227.657	6.62
228.041	4.38
228.425	-0.83
228.809	6.53
229.193	2.11
229.577	5.22
229.961	1.77
230.344	2.88
230.728	2.79
231.112	2.59
231.495	1.48
231.879	3.5
232.263	2.4
232.646	1.56
233.03	3.32
233.413	3.72
233.797	1.22
234.18	4.53
234.563	2.06
234.946	-0.52
235.33	3.62
235.713	2.18
236.096	1.81
236.479	2.79
236.862	4.24
237.245	1.93
237.628	4.05
238.011	2.03
238.394	2.98
238.777	3.17
239.16	3.74
239.543	3.09
239.925	2.86
240.308	1.31
240.691	2.67
241.073	2.78
241.456	3.76
241.838	2.1
242.221	1.1
242.603	2.44
242.986	2.16
243.368	2.3
243.75	2.39
244.133	2.66
244.515	2.28
244.897	2.87
245.279	1.64
245.661	2.37
246.043	2.9
246.425	1.69
246.807	3
247.189	2.44
247.571	1.66
247.953	2.54
248.335	2.45
248.717	2.37
249.098	2.42
249.48	2.2
249.862	2.01
250.243	2.71
250.625	2.66
251.006	2.62
251.388	3.29
251.769	2.53
252.151	3.06
252.532	2.4
252.913	2.67
253.295	2.79
253.676	3.13
254.057	2.28
254.438	2.23
254.819	2.03
255.2	1.68
255.581	3.52
255.962	1.78
256.343	3.25
256.724	1.28
257.105	2.02
257.486	3.39
257.867	2.56
258.247	2.31
258.628	2.92
259.009	2.54
259.389	3.2
259.77	2.2
260.15	2.88
260.531	2.14
260.911	2.03
261.292	2.03
261.672	2.21
262.052	1.96
262.432	2.12
262.813	3.15
263.193	2.68
263.573	2.27
263.953	3.06
264.333	2.86
264.713	2.15
265.093	2.53
265.473	2.9
265.853	2.78
266.233	2.09
266.612	3.21
266.992	1.81
267.372	2.13
267.752	2.1
268.131	2.17
268.511	2.88
268.89	2.51
269.27	2.02
269.649	2.3
270.029	2.26
270.408	2.54
270.787	2.14
271.167	2.05
271.546	2.42
271.925	2.14
272.304	2.24
272.683	2.07
273.062	1.81
273.441	2.3
273.82	2.07
274.199	2.16
274.578	2.38
274.957	2.03
275.336	2.2
275.715	2.62
276.093	2.25
276.472	2.14
276.851	2.3
277.229	2.25
277.608	2.23
277.986	2.24
278.365	1.92
278.743	2.34
279.122	2.04
279.5	1.99
279.878	2.21
280.257	2.3
280.635	2.55
281.013	2.06
281.391	2.12
281.769	2.41
282.147	2.73
282.525	2.18
282.903	1.73
283.281	1.98
283.659	2.32
284.037	2.39
284.415	2.36
284.792	2.81
285.17	2.56
285.548	2.05
285.925	2.1
286.303	2.47
286.68	2.02
287.058	2.34
287.435	2.31
287.813	2.58
288.19	2.12
288.567	1.97
288.945	2.38
289.322	2.77
289.699	1.86
290.076	1.82
290.453	2.6
290.83	2.63
291.207	2.26
291.584	1.66
291.961	2.52
292.338	2.35
292.715	2.2
293.092	2.34
293.469	2.67
293.845	2.3
294.222	2.58
294.599	2.18
294.975	2.14
295.352	2.73
295.728	2.85
296.105	2.57
296.481	2.35
296.858	2.17
297.234	2.46
297.61	2.73
297.986	2.57
298.363	2.35
298.739	2.15
299.115	2.76
299.491	2.77
299.867	2.43
300.243	2.67
300.619	3.01
300.995	2.32
301.371	2.81
301.746	2.43
302.122	3.28
302.498	2.68
302.874	2.91
303.249	3.22
303.625	2.89
304	3.31
304.376	2.78
304.751	3.1
305.127	2.82
305.502	3.23
305.878	3.02
306.253	3.07
306.628	2.89
307.003	3.01
307.378	3.32
307.754	3.63
308.129	3.85
308.504	3.35
308.879	3.36
309.254	3.56
309.629	3.04
310.003	3.38
310.378	3.37
310.753	3.24
311.128	3.36
311.502	2.96
311.877	3.19
312.252	3.1
312.626	3.43
313.001	3.47
313.375	3.89
313.75	3.46
314.124	3.26
314.498	3.17
314.873	4.49
315.247	3.79
315.621	3.88
315.995	3.21
316.369	3.91
316.743	4.08
317.117	3.62
317.491	3.83
317.865	3.79
318.239	3.86
318.613	3.61
318.987	3.72
319.361	3.54
319.734	4.22
320.108	3.94
320.482	4.69
320.855	4.05
321.229	4.56
321.602	5.08
321.976	4.84
322.349	4.38
322.723	4.22
323.096	3.75
323.469	4.29
323.843	4.87
324.216	4.78
324.589	4.15
324.962	3.72
325.335	5.12
325.708	4.73
326.081	4.63
326.454	5.01
326.827	4.14
327.2	4.27
327.573	4.76
327.945	4.84
328.318	4.1
328.691	4.7
329.063	4.42
329.436	4.37
329.809	4.14
330.181	5.2
330.553	4.63
330.926	4.71
331.298	4.44
331.671	4.43
332.043	4.44
332.415	4.81
332.787	4.76
333.159	4.71
333.532	5.17
333.904	4.71
334.276	4.96
334.648	4.73
335.02	5.29
335.391	5.06
335.763	4.96
336.135	4.7
336.507	4.82
336.879	5.4
337.25	4.72
337.622	5.31
337.993	5.62
338.365	5.6
338.736	5.32
339.108	5.04
339.479	5
339.851	5.47
340.222	5.04
340.593	5.16
340.964	5.62
341.336	5.47
341.707	5.38
342.078	5.82
342.449	5.79
342.82	5.35
343.191	5.43
343.562	5.82
343.933	5.66
344.303	5.75
344.674	5.41
345.045	6.18
345.416	6.01
345.786	5.83
346.157	5.7
346.527	5.6
346.898	5.34
347.268	6.1
347.639	5.39
348.009	5.93
348.38	6.1
348.75	5.62
349.12	6.03
349.49	5.86
349.861	6.13
350.231	5.58
350.601	6.24
350.971	6.05
351.341	5.98
351.711	5.95
352.081	5.93
352.45	6.4
352.82	6.43
353.19	6.05
353.56	6.14
353.929	6.47
354.299	6.2
354.669	6.44
355.038	6.22
355.408	6.57
355.777	6.18
356.147	6.59
356.516	6.37
356.885	6.1
357.254	6.31
357.624	6.2
357.993	6.35
358.362	6.22
358.731	6.67
359.1	6.55
359.469	6.5
359.838	6.36
360.207	6.59
360.576	6.51
360.945	6.53
361.314	6.52
361.682	6.45
362.051	6.78
362.42	6.85
362.788	7.02
363.157	6.78
363.525	6.83
363.894	6.88
364.262	6.79
364.631	7.26
364.999	6.93
365.367	6.94
365.735	7.21
366.104	7.12
366.472	7.24
366.84	7.15
367.208	7.22
367.576	6.88
367.944	7.03
368.312	6.81
368.68	7.48
369.048	7.62
369.416	7.58
369.783	7.2
370.151	7.49
370.519	7.27
370.886	7.5
371.254	7.71
371.621	7.6
371.989	7.67
372.356	7.84
372.724	7.71
373.091	7.47
373.458	7.51
373.826	7.73
374.193	7.73
374.56	7.41
374.927	7.54
375.294	7.84
375.661	7.71
376.028	8.24
376.395	7.35
376.762	8.12
377.129	7.64
377.496	7.69
377.863	7.79
378.229	8.18
378.596	7.86
378.963	7.98
379.329	8
379.696	8.08
380.062	8.13
380.429	7.97
380.795	8.54
381.161	8.39
381.528	8.4
381.894	8.29
382.26	8.62
382.626	8.52
382.993	8.63
383.359	8.65
383.725	8.48
384.091	8.69
384.457	8.22
384.823	8.36
385.188	8.48
385.554	8.17
385.92	8.74
386.286	8.79
386.651	8.7
387.017	8.75
387.383	8.51
387.748	8.81
388.114	8.62
388.479	9.16
388.845	8.91
389.21	9.07
389.575	9.14
389.94	9.14
390.306	9.24
390.671	9.26
391.036	9.06
391.401	9.29
391.766	9.41
392.131	9.52
392.496	8.96
392.861	9.41
393.226	9.36
393.591	9.33
393.956	9.33
394.32	9.76
394.685	9.25
395.05	9.64
395.414	9.61
395.779	9.65
396.143	9.55
396.508	9.67
396.872	9.67
397.236	9.7
397.601	9.65
397.965	9.68
398.329	9.65
398.694	10.21
399.058	9.94
399.422	9.92
399.786	10.02
400.15	10.09
400.514	9.97
400.878	10.26
401.242	10.05
401.605	9.96
401.969	10.02
402.333	9.98
402.697	10.12
403.06	10.09
403.424	10.33
403.787	10.1
404.151	10.16
404.514	9.98
404.878	10.13
405.241	10.08
405.604	10.53
405.968	10.17
406.331	10.28
406.694	10.31
407.057	10.41
407.42	10.43
407.783	10.47
408.146	10.97
408.509	10.64
408.872	10.77
409.235	10.67
409.598	10.74
409.961	10.79
410.323	10.82
410.686	10.78
411.049	10.67
411.411	10.74
411.774	10.95
412.136	10.77
412.499	10.83
412.861	10.98
413.223	10.93
413.586	10.91
413.948	10.98
414.31	11.24
414.672	10.78
415.035	11.14
415.397	10.9
415.759	11.07
416.121	11.35
416.483	11.49
416.845	11.18
417.206	11.29
417.568	11.21
417.93	11.3
418.292	11.18
418.653	10.96
419.015	11.14
419.377	11.11
419.738	10.98
420.1	11.21
420.461	11.19
420.822	11.21
421.184	11.09
421.545	11.18
421.906	11.22
422.267	11.08
422.629	11.02
422.99	11.09
423.351	11.25
423.712	11.23
424.073	11.31
424.434	11.3
424.795	11.3
425.155	11.4
425.516	11.44
425.877	11.27
426.238	11.34
426.598	11.47
426.959	11.43
427.32	11.37
427.68	11.66
428.041	11.6
428.401	11.77
428.761	12.11
429.122	11.93
429.482	11.72
429.842	11.76
430.202	12.12
430.563	12.16
430.923	12.03
431.283	12.37
431.643	12.32
432.003	12.07
432.363	12.16
432.722	12.22
433.082	12.27
433.442	12.28
433.802	12.43
434.161	12.3
434.521	12.17
434.881	12.12
435.24	12.28
435.6	12.36
435.959	12.52
436.319	12.45
436.678	12.51
437.037	12.38
437.396	12.48
437.756	12.7
438.115	12.56
438.474	12.66
438.833	12.66
439.192	12.66
439.551	12.71
439.91	12.61
440.269	12.77
440.628	12.57
440.987	12.69
441.345	12.72
441.704	12.72
442.063	12.76
442.421	12.7
442.78	12.75
443.138	12.85
443.497	12.89
443.855	12.89
444.214	12.86
444.572	12.99
444.93	13.05
445.288	13.02
445.647	13.14
446.005	12.93
446.363	13.13
446.721	13.18
447.079	13.09
447.437	13.02
447.795	13.04
448.153	13.25
448.51	13.09
448.868	13.04
449.226	13.28
449.584	13.3
449.941	13.28
450.299	13.29
450.656	13.44
451.014	13.57
451.371	13.61
451.729	13.53
452.086	13.68
452.443	13.6
452.801	13.78
453.158	13.95
453.515	13.79
453.872	13.78
454.229	13.67
454.586	13.86
454.943	13.85
455.3	14.11
455.657	13.78
456.014	14.15
456.371	13.98
456.727	14.11
457.084	14.23
457.441	14.08
457.797	14.4
458.154	14.13
458.51	14.24
458.867	14.2
459.223	14.39
459.58	14.39
459.936	14.29
460.292	14.52
460.648	14.32
461.005	14.24
461.361	14.14
461.717	14.13
462.073	14.15
462.429	14.28
462.785	14.47
463.141	14.65
463.496	14.69
463.852	14.64
464.208	14.79
464.564	15.03
464.919	15.08
465.275	15
465.631	14.93
465.986	15.03
466.342	15.03
466.697	14.97
467.052	15.2
467.408	15.2
467.763	15.07
468.118	15.19
468.473	15.17
468.829	15.15
469.184	15.23
469.539	15.16
469.894	15.25
470.249	15.4
470.603	15.5
470.958	15.31
471.313	15.73
471.668	15.42
472.023	15.58
472.377	15.83
472.732	15.49
473.086	15.61
473.441	15.51
473.795	15.78
474.15	15.66
474.504	15.74
474.859	15.76
475.213	15.82
475.567	15.58
475.921	15.98
476.275	16.02
476.63	15.97
476.984	16.16
477.338	16.19
477.692	16.14
478.045	16.08
478.399	16.02
478.753	15.94
479.107	16.16
479.461	16.11
479.814	16.06
480.168	16.04
480.521	16.28
480.875	16.25
481.228	16.2
481.582	16.36
481.935	16.4
482.289	16.33
482.642	16.36
482.995	16.42
483.348	16.43
483.701	16.28
484.055	16.33
484.408	16.26
484.761	16.07
485.114	15.82
485.466	15.68
485.819	15.81
486.172	15.86
486.525	16.01
486.878	16.07
487.23	16.22
487.583	16.44
487.936	16.43
488.288	16.44
488.641	16.33
488.993	16.31
489.345	16.27
489.698	16.29
490.05	16.37
490.402	16.45
490.754	16.68
491.107	16.77
491.459	16.86
491.811	17.01
492.163	16.91
492.515	17
492.866	16.79
493.218	16.69
493.57	16.68
493.922	16.87
494.274	17.02
494.625	17.03
494.977	17.25
495.328	17.55
495.68	17.42
496.031	17.72
496.383	17.89
496.734	17.92
497.086	17.87
497.437	17.92
497.788	17.95
498.139	17.88
498.49	17.9
498.842	17.96
499.193	17.94
499.544	17.82
499.894	17.86
500.245	18.08
500.596	18.18
500.947	18.05
501.298	18.26
501.648	18.44
501.999	18.36
502.35	18.44
502.7	18.63
503.051	18.53
503.401	18.45
503.752	18.54
504.102	18.69
504.452	18.67
504.803	18.73
505.153	19.01
505.503	18.79
505.853	18.69
506.203	18.85
506.553	18.91
506.903	18.82
507.253	18.88
507.603	19.09
507.953	19.17
508.303	19.01
508.652	19.2
509.002	19.01
509.352	19.13
509.701	19.2
510.051	19.04
510.4	19.08
510.75	19.12
511.099	19.03
511.449	19.03
511.798	19.12
512.147	19.07
512.496	19.32
512.846	19.13
513.195	19.23
513.544	19.33
513.893	19.39
514.242	19.47
514.591	19.64
514.939	19.57
515.288	19.57
515.637	19.65
515.986	19.63
516.334	19.71
516.683	19.77
517.032	19.85
517.38	20
517.729	19.89
518.077	19.97
518.426	19.84
518.774	19.95
519.122	19.94
519.47	19.87
519.819	19.7
520.167	19.78
520.515	19.76
520.863	19.79
521.211	19.73
521.559	19.92
521.907	19.9
522.255	20.02
522.602	20.08
522.95	20.33
523.298	20.28
523.645	20.53
523.993	20.37
524.341	20.56
524.688	20.52
525.036	20.59
525.383	20.44
525.73	20.73
526.078	20.5
526.425	20.45
526.772	20.33
527.119	20.35
527.466	20.26
527.814	20.22
528.161	20.23
528.508	20.39
528.854	20.36
529.201	20.34
529.548	20.23
529.895	20.06
530.242	20.06
530.588	19.99
530.935	20.11
531.282	20.2
531.628	20.24
531.975	20.3
532.321	20.49
532.667	20.71
533.014	20.75
533.36	20.81
533.706	20.94
534.052	20.84
534.399	20.72
534.745	20.68
535.091	20.59
535.437	20.57
535.783	20.75
536.129	20.91
536.474	21.04
536.82	21.03
537.166	21.34
537.512	21.42
537.857	21.19
538.203	21.09
538.549	21.17
538.894	21.03
539.239	21.33
539.585	21.42
539.93	21.48
540.276	21.73
540.621	21.78
540.966	21.79
541.311	21.84
541.656	21.75
542.001	21.56
542.346	21.4
542.691	21.25
543.036	21.13
543.381	21.09
543.726	21.2
544.071	21.36
544.415	21.44
544.76	21.47
545.105	21.67
545.449	21.77
545.794	21.89
546.138	21.96
546.483	22.07
546.827	22.1
547.171	22.11
547.516	22.03
547.86	22.11
548.204	22.13
548.548	22.05
548.892	22.04
549.236	22.27
549.58	22.34
549.924	22.36
550.268	22.46
550.612	22.67
550.956	22.68
551.3	22.57
551.643	22.92
551.987	22.78
552.33	22.79
552.674	22.83
553.017	22.92
553.361	22.86
553.704	23.05
554.048	22.97
554.391	23.08
554.734	22.99
555.077	23.06
555.42	23.04
555.764	23.04
556.107	23.24
556.45	23.07
556.793	23.3
557.135	23.28
557.478	23.15
557.821	23.02
558.164	23.59
558.507	23.4
558.849	23.4
559.192	23.46
559.534	23.55
559.877	23.31
560.219	23.35
560.562	23.63
560.904	23.52
561.246	23.73
561.589	23.59
561.931	23.68
562.273	23.71
562.615	23.8
562.957	23.72
563.299	23.65
563.641	23.62
563.983	23.89
564.325	23.88
564.667	23.7
565.008	23.86
565.35	23.9
565.692	23.82
566.033	24.04
566.375	23.81
566.716	23.8
567.058	23.98
567.399	24.08
567.741	23.98
568.082	23.93
568.423	23.75
568.764	23.8
569.105	24.06
569.447	24.16
569.788	24.24
570.129	24.37
570.47	24.4
570.811	24.28
571.151	24.43
571.492	24.24
571.833	24.44
572.174	24.43
572.514	24.54
572.855	24.33
573.195	24.4
573.536	24.41
573.876	24.34
574.217	24.14
574.557	24.38
574.898	24.41
575.238	24.53
575.578	24.54
575.918	24.58
576.258	24.59
576.598	24.63
576.938	24.57
577.278	24.59
577.618	24.64
577.958	24.71
578.298	24.6
578.638	24.76
578.977	24.85
579.317	25.11
579.657	24.99
579.996	25
580.336	25
580.675	24.9
581.014	25.05
581.354	24.88
581.693	24.94
582.032	25.17
582.372	25.4
582.711	25.42
583.05	25.37
583.389	25.2
583.728	25.35
584.067	25.22
584.406	25.09
584.745	25.75
585.083	25.4
585.422	25.61
585.761	25.31
586.1	25.41
586.438	25.65
586.777	25.74
587.115	25.6
587.454	25.61
587.792	25.75
588.13	25.82
588.469	25.66
588.807	25.62
589.145	25.51
589.483	26.01
589.821	25.81
590.159	25.49
590.497	25.59
590.835	25.67
591.173	25.7
591.511	26.08
591.849	25.77
592.187	25.9
592.524	25.59
592.862	26
593.2	25.72
593.537	25.79
593.875	26.18
594.212	26.22
594.55	25.74
594.887	26.4
595.224	26.19
595.561	26.27
595.899	26.19
596.236	26.3
596.573	26.11
596.91	26.12
597.247	25.87
597.584	26.23
597.921	26.16
598.258	25.9
598.594	25.97
598.931	26.05
599.268	26.08
599.604	25.92
599.941	26.22
600.277	26.19
600.614	26.43
600.95	26.33
601.287	26.59
601.623	26.46
601.959	26.8
602.296	26.49
602.632	26.48
602.968	26.59
603.304	26.68
603.64	26.35
603.976	26.46
604.312	26.53
604.648	26.72
604.984	26.73
605.319	26.49
605.655	26.62
605.991	26.34
606.326	26.54
606.662	26.79
606.998	26.61
607.333	26.68
607.668	26.79
608.004	26.79
608.339	26.94
608.674	26.95
609.01	26.81
609.345	27.1
609.68	27.19
610.015	26.94
610.35	27.02
610.685	27.01
611.02	27.01
611.355	27
611.689	26.83
612.024	26.96
612.359	27.22
612.694	26.89
613.028	27.07
613.363	27.08
613.697	27.38
614.032	27.39
614.366	27.54
614.7	27.36
615.035	27.52
615.369	27.27
615.703	27.36
616.037	27.54
616.371	27.36
616.705	27.36
617.039	27.89
617.373	27.41
617.707	27.93
618.041	27.49
618.375	27.58
618.709	27.58
619.042	27.68
619.376	27.75
619.71	27.81
620.043	27.58
620.377	27.58
620.71	28.34
621.043	28
621.377	27.97
621.71	27.7
622.043	27.89
622.376	28.06
622.709	28.25
623.043	27.99
623.376	27.8
623.709	27.47
624.041	28.2
624.374	27.87
624.707	28.58
625.04	28.28
625.373	27.99
625.705	28.34
626.038	28.22
626.37	28.35
626.703	28.26
627.035	28.27
627.368	28.31
627.7	28.84
628.032	27.91
628.365	28.4
628.697	28.47
629.029	28.43
629.361	28.09
629.693	28.08
630.025	28.35
630.357	28.29
630.689	28.36
631.021	28.18
631.353	28.57
631.684	28.48
632.016	28.51
632.348	28.68
632.679	28.53
633.011	28.36
633.342	28.62
633.674	29.02
634.005	28.63
634.336	28.46
634.668	28.29
634.999	28.48
635.33	28.4
635.661	28.68
635.992	28.54
636.323	28.68
636.654	28.47
636.985	29.07
637.316	28.71
637.647	28.72
637.977	28.97
638.308	28.47
638.639	29.22
638.969	29.26
639.3	28.76
639.63	28.79
639.961	29.37
640.291	29.12
640.622	29.16
640.952	28.99
641.282	29.28
641.612	29.07
641.943	28.85
642.273	28.87
642.603	29.1
642.933	29
643.263	29.22
643.592	29.14
643.922	29.05
644.252	29.09
644.582	28.71
644.911	29.39
645.241	29.62
645.571	29.43
645.9	29.53
646.23	29.4
646.559	28.6
646.888	29.35
647.218	29.81
647.547	29.29
647.876	30.02
648.205	29.74
648.534	29.51
648.863	29.57
649.192	30.25
649.521	29.22
649.85	29.3
650.179	30.1
650.508	29.92
650.837	29.75
651.165	29.73
651.494	30.25
651.822	29.39
652.151	29.45
652.479	29.86
652.808	30.11
653.136	29.6
653.465	29.88
653.793	30.14
654.121	30
654.449	29.45
654.777	30.3
655.105	29.91
655.433	29.83
655.761	29.93
656.089	29.9
656.417	29.95
656.745	29.7
657.073	30.29
657.4	29.76
657.728	30.37
658.056	29.79
658.383	29.61
658.711	30.47
659.038	29.52
659.365	30.13
659.693	29.69
660.02	30.36
660.347	30.53
660.674	30.29
661.001	30.38
661.329	30.14
661.656	29.7
661.982	30.23
662.309	30.39
662.636	29.96
662.963	30.29
663.29	30.26
663.616	30.68
663.943	30.33
664.27	30.55
664.596	30.84
664.923	30.84
665.249	30.45
665.576	30.86
665.902	30.46
666.228	30.23
666.554	30.62
666.881	30.56
667.207	30.51
667.533	31.1
667.859	30.91
668.185	30.88
668.511	30.46
668.837	30.71
669.162	31.02
669.488	31.36
669.814	31.1
670.139	30.68
670.465	31.26
670.791	31.06
671.116	30.45
671.442	31.17
671.767	30.91
672.092	30.88
672.418	30.83
672.743	30.91
673.068	30.46
673.393	30.76
673.718	31.13
674.043	30.7
674.368	30.69
