Data from 815646_forehead_Reflection__2__62.txt Node

Date: Fri Sep 16 15:00:55 CDT 2022
User: ToomeyLab
Spectrometer: FLMS14357
Trigger mode: 0
Integration Time (sec): 1.000000E-2
Scans to average: 100
Electric dark correction enabled: true
Nonlinearity correction enabled: false
Boxcar width: 0
XAxis mode: Wavelengths
Number of Pixels in Spectrum: 2048
>>>>>Begin Spectral Data<<<<<
189.047	-440.39
189.435	-440.39
189.823	-440.39
190.211	154.66
190.599	18.89
190.987	62.46
191.375	251.18
191.763	2096.77
192.151	-34.32
192.538	-213.86
192.926	-264.49
193.314	43.3
193.702	427.69
194.089	80.12
194.477	313.9
194.864	-70.26
195.252	-144.39
195.639	1384.52
196.027	120.32
196.414	19.79
196.801	122.2
197.189	-53.56
197.576	-255.04
197.963	-87.87
198.351	-56.2
198.738	-7.19
199.125	40.01
199.512	-94.5
199.899	-8.24
200.286	-36.77
200.673	20.15
201.06	35.77
201.447	4.6
201.833	18.05
202.22	17.11
202.607	-3.62
202.994	27.18
203.38	-4.66
203.767	60.53
204.154	39.91
204.54	27.85
204.927	-51.6
205.313	34.23
205.699	29.69
206.086	2.06
206.472	21.93
206.858	51.67
207.245	-2.65
207.631	20.04
208.017	7.54
208.403	-3.9
208.789	24.07
209.175	19.18
209.561	30.06
209.947	-7.62
210.333	-14.33
210.719	7.59
211.105	44.71
211.491	30.74
211.876	4.71
212.262	9.05
212.648	-13.86
213.034	17.69
213.419	-7.06
213.805	8.2
214.19	13.36
214.576	6.21
214.961	-55.64
215.346	-45.57
215.732	-65.47
216.117	18.28
216.502	-1.51
216.888	6.27
217.273	8.75
217.658	18.13
218.043	-36.66
218.428	-1.1
218.813	3.4
219.198	13.12
219.583	-3.12
219.968	0.93
220.353	-1.03
220.738	7.92
221.122	-12.04
221.507	36.04
221.892	-9.84
222.276	25.38
222.661	20.53
223.046	4.89
223.43	6.07
223.815	-2.39
224.199	5.81
224.583	0.91
224.968	10.38
225.352	-6.1
225.736	8.81
226.121	5.11
226.505	8.33
226.889	4.47
227.273	-4.39
227.657	4.19
228.041	3.23
228.425	-5.1
228.809	7.58
229.193	4.03
229.577	2.37
229.961	2.05
230.344	2.73
230.728	2.15
231.112	2.37
231.495	2.46
231.879	2.4
232.263	0.72
232.646	1.98
233.03	2.8
233.413	3.65
233.797	0.88
234.18	4.6
234.563	3.9
234.946	2.38
235.33	2.22
235.713	1.4
236.096	2.43
236.479	2.43
236.862	2.35
237.245	1.74
237.628	4.06
238.011	3.52
238.394	2.39
238.777	2.98
239.16	2.3
239.543	3.86
239.925	2.3
240.308	1.83
240.691	2.56
241.073	2.23
241.456	1.83
241.838	2.47
242.221	2.53
242.603	2.65
242.986	1.83
243.368	1.74
243.75	2.05
244.133	2.58
244.515	2.1
244.897	2.6
245.279	2.06
245.661	2.48
246.043	1.84
246.425	2.3
246.807	2.16
247.189	2.04
247.571	1.77
247.953	2.31
248.335	2.15
248.717	2.12
249.098	2.2
249.48	2.18
249.862	2.35
250.243	2.47
250.625	2.47
251.006	2.37
251.388	2.84
251.769	1.54
252.151	2.32
252.532	1.59
252.913	2.8
253.295	1.9
253.676	2.66
254.057	1.95
254.438	1.56
254.819	1.73
255.2	1.21
255.581	3.18
255.962	2.41
256.343	2.57
256.724	2.21
257.105	1.59
257.486	2.58
257.867	2.23
258.247	2.69
258.628	1.58
259.009	2.65
259.389	1.93
259.77	1.95
260.15	2.76
260.531	1.93
260.911	2.16
261.292	1.92
261.672	2.17
262.052	2.05
262.432	1.92
262.813	3
263.193	2.37
263.573	2.02
263.953	2.12
264.333	2.55
264.713	1.89
265.093	1.59
265.473	2.62
265.853	2.4
266.233	1.58
266.612	2.71
266.992	1.21
267.372	2.04
267.752	1.28
268.131	2.29
268.511	2.57
268.89	2.59
269.27	1.87
269.649	1.91
270.029	1.85
270.408	2.87
270.787	2.03
271.167	2.22
271.546	2.39
271.925	2.18
272.304	1.88
272.683	1.72
273.062	1.91
273.441	2.53
273.82	2.33
274.199	1.86
274.578	2.16
274.957	2.45
275.336	2.29
275.715	2.58
276.093	2.62
276.472	2.3
276.851	1.91
277.229	2.05
277.608	1.89
277.986	2.09
278.365	1.26
278.743	1.9
279.122	2.1
279.5	1.42
279.878	2.01
280.257	1.99
280.635	2.51
281.013	2.03
281.391	2.13
281.769	2.49
282.147	2.4
282.525	1.85
282.903	2.19
283.281	1.67
283.659	2.28
284.037	1.83
284.415	2.29
284.792	2.35
285.17	2.55
285.548	1.86
285.925	1.87
286.303	2.35
286.68	1.77
287.058	1.59
287.435	2.26
287.813	2.53
288.19	1.89
288.567	1.84
288.945	2.2
289.322	2.5
289.699	1.59
290.076	1.81
290.453	2.33
290.83	2.1
291.207	2.09
291.584	1.87
291.961	2.42
292.338	2.26
292.715	1.65
293.092	2.29
293.469	2.58
293.845	2.23
294.222	2.18
294.599	2.72
294.975	1.63
295.352	2.25
295.728	2.33
296.105	2.78
296.481	2.08
296.858	2.3
297.234	2.4
297.61	2.53
297.986	2.47
298.363	2.59
298.739	2.26
299.115	2.44
299.491	2.61
299.867	2.28
300.243	2.42
300.619	2.61
300.995	2.5
301.371	2.26
301.746	1.97
302.122	3.01
302.498	2.59
302.874	2.44
303.249	2.64
303.625	2.53
304	3.1
304.376	2.54
304.751	2.89
305.127	2.73
305.502	2.67
305.878	3.11
306.253	3.11
306.628	2.44
307.003	3.4
307.378	2.78
307.754	2.99
308.129	3.64
308.504	3.15
308.879	3.51
309.254	3.14
309.629	2.72
310.003	3.31
310.378	2.83
310.753	2.8
311.128	3
311.502	2.57
311.877	2.88
312.252	3.39
312.626	3.06
313.001	3.17
313.375	3.63
313.75	3.33
314.124	3.34
314.498	2.86
314.873	3.42
315.247	3.7
315.621	3.21
315.995	3.08
316.369	3.34
316.743	3.64
317.117	3.03
317.491	3.2
317.865	3.87
318.239	3.85
318.613	3.31
318.987	3.62
319.361	2.96
319.734	3.28
320.108	3.68
320.482	4.05
320.855	3.65
321.229	3.47
321.602	4.2
321.976	4.15
322.349	3.59
322.723	3.79
323.096	3.84
323.469	3.77
323.843	4.34
324.216	4.43
324.589	4.14
324.962	3.65
325.335	4.54
325.708	4.46
326.081	4.27
326.454	4.23
326.827	4.05
327.2	4.22
327.573	4.12
327.945	4.6
328.318	4.69
328.691	4
329.063	4.08
329.436	4.31
329.809	3.95
330.181	4.38
330.553	4.48
330.926	4.22
331.298	4.82
331.671	4.35
332.043	4.21
332.415	4.25
332.787	4.11
333.159	4.43
333.532	4.81
333.904	4.3
334.276	5.02
334.648	4.28
335.02	4.68
335.391	4.83
335.763	4.66
336.135	3.81
336.507	4.83
336.879	5.27
337.25	4.23
337.622	5.18
337.993	5.06
338.365	5.05
338.736	5.34
339.108	4.71
339.479	5.39
339.851	4.97
340.222	4.78
340.593	4.97
340.964	5.26
341.336	5.12
341.707	4.81
342.078	5.12
342.449	4.92
342.82	5.17
343.191	5.14
343.562	5.4
343.933	5.02
344.303	5.39
344.674	5.08
345.045	5.8
345.416	4.94
345.786	5.63
346.157	5.36
346.527	5.62
346.898	5.19
347.268	5.28
347.639	5.09
348.009	5.55
348.38	5.79
348.75	5.36
349.12	5.45
349.49	5.75
349.861	5.51
350.231	5.34
350.601	5.51
350.971	5.6
351.341	5.88
351.711	5.22
352.081	5.5
352.45	6.04
352.82	6.2
353.19	5.56
353.56	5.83
353.929	5.5
354.299	5.99
354.669	5.73
355.038	5.39
355.408	6.13
355.777	5.82
356.147	6.19
356.516	6.04
356.885	5.89
357.254	5.97
357.624	5.95
357.993	5.83
358.362	6.02
358.731	6.25
359.1	5.89
359.469	5.8
359.838	5.96
360.207	6.32
360.576	6.07
360.945	6.17
361.314	6.21
361.682	5.7
362.051	6.18
362.42	6.29
362.788	6.29
363.157	6.14
363.525	6.31
363.894	6.4
364.262	6.14
364.631	6.49
364.999	6.24
365.367	5.95
365.735	6.26
366.104	6.64
366.472	6.58
366.84	6.56
367.208	6.45
367.576	6.66
367.944	6.56
368.312	6.21
368.68	6.58
369.048	7.16
369.416	6.91
369.783	6.65
370.151	7.09
370.519	6.45
370.886	6.82
371.254	6.61
371.621	6.77
371.989	6.69
372.356	6.85
372.724	6.98
373.091	6.61
373.458	6.72
373.826	6.97
374.193	7.36
374.56	6.9
374.927	6.67
375.294	7.02
375.661	7.1
376.028	7.4
376.395	6.59
376.762	7.6
377.129	6.81
377.496	7.13
377.863	7.14
378.229	7.58
378.596	6.91
378.963	7.41
379.329	7.13
379.696	7.56
380.062	7.34
380.429	7.61
380.795	7.79
381.161	7.68
381.528	7.71
381.894	7.54
382.26	7.58
382.626	7.62
382.993	7.53
383.359	7.89
383.725	7.44
384.091	7.45
384.457	7.37
384.823	7.42
385.188	7.71
385.554	7.79
385.92	7.61
386.286	8.04
386.651	7.78
387.017	7.79
387.383	7.72
387.748	7.49
388.114	7.64
388.479	7.78
388.845	8.03
389.21	8.03
389.575	8.05
389.94	8.06
390.306	7.97
390.671	8.22
391.036	8.15
391.401	8.06
391.766	8.25
392.131	8.24
392.496	8.1
392.861	8.17
393.226	8.34
393.591	8.06
393.956	8.39
394.32	8.55
394.685	8.03
395.05	8.67
395.414	8.28
395.779	8.54
396.143	8.43
396.508	8.31
396.872	8.67
397.236	8.67
397.601	8.5
397.965	8.44
398.329	8.59
398.694	8.68
399.058	9.24
399.422	8.84
399.786	8.9
400.15	8.64
400.514	8.69
400.878	9.12
401.242	8.74
401.605	8.83
401.969	8.83
402.333	8.83
402.697	8.82
403.06	9.25
403.424	9.01
403.787	9.02
404.151	9
404.514	8.85
404.878	8.98
405.241	8.92
405.604	9.23
405.968	9.23
406.331	9.04
406.694	9.01
407.057	9.1
407.42	9.08
407.783	9.33
408.146	9.54
408.509	9.41
408.872	9.22
409.235	9.32
409.598	9.22
409.961	9.47
410.323	9.39
410.686	9.57
411.049	9.43
411.411	9.23
411.774	9.59
412.136	9.4
412.499	9.62
412.861	9.64
413.223	9.55
413.586	9.64
413.948	9.67
414.31	9.66
414.672	9.55
415.035	9.88
415.397	9.63
415.759	9.65
416.121	9.7
416.483	9.66
416.845	9.84
417.206	9.81
417.568	9.79
417.93	9.96
418.292	9.86
418.653	9.62
419.015	9.75
419.377	9.77
419.738	9.74
420.1	9.92
420.461	9.81
420.822	9.69
421.184	9.81
421.545	9.78
421.906	9.86
422.267	9.85
422.629	9.75
422.99	9.7
423.351	9.9
423.712	9.85
424.073	10.19
424.434	9.93
424.795	10.12
425.155	10.17
425.516	10.13
425.877	10.09
426.238	10.1
426.598	10.07
426.959	10.16
427.32	10.23
427.68	10.42
428.041	10.3
428.401	10.55
428.761	10.46
429.122	10.57
429.482	10.6
429.842	10.61
430.202	10.8
430.563	10.72
430.923	10.76
431.283	10.78
431.643	10.93
432.003	10.85
432.363	10.7
432.722	10.87
433.082	10.91
433.442	10.89
433.802	10.87
434.161	10.85
434.521	10.87
434.881	10.84
435.24	10.7
435.6	10.91
435.959	11.11
436.319	10.9
436.678	11.1
437.037	11.1
437.396	11.21
437.756	11.1
438.115	11.08
438.474	11.21
438.833	11.33
439.192	11.25
439.551	11.11
439.91	11.21
440.269	11.31
440.628	11.13
440.987	11.21
441.345	11.24
441.704	11.31
442.063	11.35
442.421	11.28
442.78	11.3
443.138	11.4
443.497	11.36
443.855	11.42
444.214	11.48
444.572	11.67
444.93	11.59
445.288	11.54
445.647	11.65
446.005	11.44
446.363	11.64
446.721	11.63
447.079	11.44
447.437	11.64
447.795	11.51
448.153	11.65
448.51	11.62
448.868	11.53
449.226	11.83
449.584	11.91
449.941	11.82
450.299	11.91
450.656	11.93
451.014	12.22
451.371	11.98
451.729	12.15
452.086	12.17
452.443	12.18
452.801	12.31
453.158	12.16
453.515	11.97
453.872	12.14
454.229	12.07
454.586	12.17
454.943	12.1
455.3	12.44
455.657	12.32
456.014	12.36
456.371	12.36
456.727	12.67
457.084	12.61
457.441	12.56
457.797	12.63
458.154	12.56
458.51	12.69
458.867	12.6
459.223	12.64
459.58	12.91
459.936	12.76
460.292	12.71
460.648	12.46
461.005	12.66
461.361	12.45
461.717	12.52
462.073	12.54
462.429	12.8
462.785	12.91
463.141	12.92
463.496	13.07
463.852	13.03
464.208	13.01
464.564	13.29
464.919	13.2
465.275	13.02
465.631	13.16
465.986	13.12
466.342	13.12
466.697	13.29
467.052	13.33
467.408	13.36
467.763	13.35
468.118	13.33
468.473	13.28
468.829	13.38
469.184	13.48
469.539	13.5
469.894	13.63
470.249	13.7
470.603	13.63
470.958	13.44
471.313	13.65
471.668	13.42
472.023	13.46
472.377	13.66
472.732	13.59
473.086	13.72
473.441	13.62
473.795	14
474.15	13.72
474.504	13.97
474.859	13.71
475.213	14.04
475.567	13.91
475.921	14.04
476.275	13.93
476.63	14.13
476.984	14.09
477.338	14.14
477.692	14.07
478.045	14.12
478.399	14.06
478.753	14.21
479.107	13.96
479.461	14.19
479.814	14.19
480.168	14.16
480.521	14.34
480.875	14.23
481.228	14.33
481.582	14.34
481.935	14.37
482.289	14.24
482.642	14.32
482.995	14.17
483.348	14.25
483.701	14.3
484.055	14.15
484.408	14.07
484.761	13.91
485.114	13.58
485.466	13.42
485.819	13.63
486.172	13.84
486.525	14.06
486.878	14.19
487.23	14.27
487.583	14.41
487.936	14.46
488.288	14.31
488.641	14.12
488.993	14.12
489.345	14.08
489.698	14.07
490.05	14.3
490.402	14.4
490.754	14.57
491.107	14.71
491.459	14.82
491.811	14.69
492.163	14.87
492.515	14.77
492.866	14.48
493.218	14.33
493.57	14.42
493.922	14.63
494.274	14.88
494.625	14.94
494.977	15.15
495.328	15.23
495.68	15.3
496.031	15.4
496.383	15.4
496.734	15.52
497.086	15.53
497.437	15.61
497.788	15.4
498.139	15.4
498.49	15.38
498.842	15.49
499.193	15.64
499.544	15.49
499.894	15.55
500.245	15.76
500.596	15.77
500.947	15.88
501.298	15.79
501.648	15.87
501.999	15.91
502.35	15.9
502.7	16.04
503.051	16.06
503.401	15.99
503.752	16.09
504.102	16.23
504.452	16.1
504.803	16.25
505.153	16.12
505.503	16.02
505.853	16.15
506.203	16.28
506.553	16.1
506.903	16.28
507.253	16.24
507.603	16.44
507.953	16.22
508.303	16.22
508.652	16.41
509.002	16.24
509.352	16.49
509.701	16.31
510.051	16.49
510.4	16.37
510.75	16.39
511.099	16.37
511.449	16.31
511.798	16.48
512.147	16.4
512.496	16.7
512.846	16.41
513.195	16.69
513.544	16.57
513.893	16.72
514.242	16.55
514.591	16.7
514.939	16.74
515.288	16.87
515.637	16.76
515.986	16.96
516.334	16.89
516.683	16.89
517.032	16.96
517.38	17.08
517.729	17.16
518.077	17.06
518.426	16.96
518.774	16.86
519.122	16.96
519.47	16.84
519.819	16.69
520.167	16.71
520.515	16.71
520.863	16.89
521.211	16.94
521.559	17.18
521.907	17.14
522.255	17.06
522.602	17.24
522.95	17.32
523.298	17.34
523.645	17.46
523.993	17.33
524.341	17.34
524.688	17.59
525.036	17.52
525.383	17.55
525.73	17.55
526.078	17.35
526.425	17.42
526.772	17.36
527.119	17.13
527.466	17.17
527.814	17.15
528.161	17.39
528.508	17.3
528.854	17.36
529.201	17.19
529.548	17.06
529.895	16.81
530.242	16.73
530.588	16.85
530.935	17.08
531.282	17.3
531.628	17.43
531.975	17.52
532.321	17.58
532.667	17.63
533.014	17.82
533.36	17.73
533.706	17.74
534.052	17.78
534.399	17.63
534.745	17.51
535.091	17.27
535.437	17.38
535.783	17.63
536.129	17.88
536.474	17.93
536.82	18.13
537.166	18.07
537.512	18.05
537.857	17.94
538.203	17.75
538.549	17.92
538.894	17.94
539.239	18.25
539.585	18.22
539.93	18.2
540.276	18.61
540.621	18.55
540.966	18.61
541.311	18.6
541.656	18.42
542.001	18.37
542.346	18.05
542.691	17.97
543.036	17.68
543.381	17.62
543.726	17.92
544.071	18.26
544.415	18.32
544.76	18.31
545.105	18.39
545.449	18.55
545.794	18.62
546.138	18.71
546.483	18.88
546.827	18.82
547.171	18.76
547.516	18.71
547.86	18.68
548.204	18.7
548.548	18.61
548.892	18.62
549.236	18.87
549.58	19.02
549.924	19.16
550.268	19.05
550.612	19.3
550.956	19.27
551.3	19.36
551.643	19.42
551.987	19.42
552.33	19.4
552.674	19.32
553.017	19.51
553.361	19.42
553.704	19.36
554.048	19.51
554.391	19.42
554.734	19.41
555.077	19.59
555.42	19.6
555.764	19.65
556.107	19.65
556.45	19.63
556.793	19.72
557.135	19.64
557.478	19.79
557.821	19.99
558.164	19.91
558.507	19.7
558.849	19.52
559.192	19.74
559.534	19.92
559.877	19.76
560.219	20.02
560.562	19.98
560.904	19.95
561.246	19.92
561.589	20.17
561.931	20.08
562.273	19.95
562.615	20.16
562.957	19.97
563.299	20.18
563.641	20.01
563.983	19.98
564.325	20.13
564.667	20.02
565.008	20.27
565.35	20.11
565.692	20.49
566.033	20.43
566.375	20.01
566.716	20.22
567.058	20.05
567.399	20.34
567.741	20.17
568.082	20.31
568.423	20.16
568.764	20.28
569.105	20.44
569.447	20.44
569.788	20.49
570.129	20.6
570.47	20.45
570.811	20.61
571.151	20.72
571.492	20.59
571.833	20.37
572.174	20.56
572.514	20.71
572.855	20.76
573.195	20.56
573.536	20.46
573.876	20.42
574.217	20.67
574.557	20.61
574.898	20.79
575.238	20.9
575.578	20.76
575.918	20.72
576.258	20.71
576.598	20.63
576.938	20.91
577.278	20.79
577.618	20.89
577.958	20.95
578.298	20.85
578.638	20.78
578.977	21.04
579.317	21.01
579.657	20.96
579.996	21.31
580.336	21.33
580.675	21.12
581.014	21.34
581.354	21.04
581.693	21.04
582.032	21.6
582.372	21.59
582.711	21.71
583.05	21.47
583.389	21.49
583.728	21.27
584.067	21.61
584.406	21.66
584.745	21.68
585.083	21.48
585.422	21.88
585.761	21.55
586.1	21.68
586.438	21.83
586.777	21.5
587.115	21.78
587.454	21.84
587.792	21.7
588.13	21.83
588.469	21.65
588.807	21.66
589.145	21.59
589.483	21.87
589.821	21.91
590.159	21.8
590.497	21.91
590.835	21.89
591.173	21.84
591.511	21.81
591.849	21.85
592.187	21.83
592.524	21.68
592.862	22
593.2	21.62
593.537	21.97
593.875	21.98
594.212	22.06
594.55	21.72
594.887	22.17
595.224	22.22
595.561	22.03
595.899	21.74
596.236	22.05
596.573	22.06
596.91	21.98
597.247	22.05
597.584	22.2
597.921	21.94
598.258	21.83
598.594	21.56
598.931	21.68
599.268	22
599.604	22.19
599.941	22.34
600.277	22.28
600.614	22.46
600.95	22.48
601.287	22.43
601.623	22.33
601.959	22.71
602.296	22.62
602.632	22.44
602.968	22.52
603.304	22.45
603.64	21.94
603.976	22.7
604.312	22.61
604.648	22.44
604.984	22.34
605.319	22.53
605.655	22.48
605.991	22.32
606.326	22.34
606.662	22.4
606.998	22.42
607.333	22.67
607.668	22.85
608.004	22.88
608.339	22.9
608.674	22.8
609.01	22.95
609.345	22.99
609.68	22.88
610.015	22.88
610.35	22.96
610.685	22.85
611.02	22.48
611.355	22.76
611.689	22.81
612.024	22.96
612.359	23.07
612.694	22.86
613.028	23.09
613.363	23.05
613.697	23.07
614.032	23.15
614.366	23.14
614.7	23.18
615.035	23.48
615.369	23.47
615.703	23.27
616.037	23.4
616.371	23.47
616.705	23.31
617.039	23.31
617.373	23.04
617.707	23.06
618.041	23.25
618.375	23.37
618.709	23.47
619.042	23.39
619.376	23.47
619.71	23.64
620.043	23.34
620.377	23.27
620.71	23.75
621.043	23.64
621.377	23.3
621.71	23.52
622.043	23.36
622.376	23.62
622.709	23.5
623.043	23.66
623.376	23.49
623.709	23.39
624.041	23.93
624.374	23.64
624.707	24.14
625.04	23.47
625.373	23.97
625.705	23.76
626.038	24.13
626.37	24.19
626.703	23.76
627.035	23.69
627.368	24.2
627.7	24.07
628.032	23.94
628.365	23.72
628.697	24.11
629.029	23.86
629.361	23.99
629.693	24.08
630.025	24.06
630.357	24.26
630.689	23.7
631.021	24.14
631.353	24.05
631.684	23.95
632.016	24.32
632.348	24.29
632.679	24.33
633.011	23.89
633.342	23.99
633.674	24.48
634.005	24.44
634.336	24.25
634.668	24.26
634.999	23.87
635.33	24.43
635.661	24.5
635.992	24.07
636.323	24.61
636.654	24.05
636.985	24.64
637.316	24.39
637.647	24.16
637.977	24.44
638.308	24.87
638.639	24.84
638.969	24.65
639.3	24.44
639.63	24.32
639.961	24.29
640.291	24.85
640.622	24.61
640.952	24.83
641.282	24.8
641.612	24.93
641.943	24.48
642.273	24.67
642.603	25
642.933	24.44
643.263	24.92
643.592	24.08
643.922	25.06
644.252	25.13
644.582	24.83
644.911	24.64
645.241	25.29
645.571	25.12
645.9	24.9
646.23	24.68
646.559	24.42
646.888	24.91
647.218	24.83
647.547	25.54
647.876	25.23
648.205	25.13
648.534	24.73
648.863	24.94
649.192	25.55
649.521	25.11
649.85	25.22
650.179	25.23
650.508	25.35
650.837	25.27
651.165	24.93
651.494	25.23
651.822	25.41
652.151	25
652.479	25.18
652.808	25.42
653.136	25.35
653.465	25.2
653.793	25.48
654.121	25.79
654.449	25.55
654.777	25.72
655.105	25.75
655.433	25.46
655.761	25.74
656.089	24.93
656.417	25.72
656.745	25.58
657.073	25.59
657.4	25.66
657.728	25.65
658.056	25.2
658.383	24.91
658.711	25.4
659.038	25.34
659.365	25.26
659.693	24.99
660.02	25.47
660.347	26.33
660.674	25.61
661.001	25.88
661.329	25.35
661.656	25.7
661.982	25.52
662.309	25.58
662.636	25.71
662.963	25.57
663.29	25.58
663.616	25.8
663.943	26.07
664.27	25.69
664.596	25.88
664.923	26.08
665.249	26.08
665.576	25.83
665.902	26.23
666.228	25.01
666.554	26.37
666.881	26.64
667.207	26.39
667.533	26.33
667.859	26.14
668.185	26.24
668.511	26.1
668.837	25.76
669.162	26.29
669.488	26.79
669.814	26.35
670.139	26.1
670.465	26.61
670.791	26.44
671.116	26.23
671.442	26.44
671.767	26.16
672.092	26.22
672.418	26.18
672.743	25.77
673.068	26.73
673.393	25.9
673.718	26.27
674.043	26.18
674.368	26.24
674.693	26.6
675.018	26.66
675.343	26.48
