Data from 815646_crown_Reflection__3__70.txt Node

Date: Fri Sep 16 15:04:17 CDT 2022
User: ToomeyLab
Spectrometer: FLMS14357
Trigger mode: 0
Integration Time (sec): 1.000000E-2
Scans to average: 100
Electric dark correction enabled: true
Nonlinearity correction enabled: false
Boxcar width: 0
XAxis mode: Wavelengths
Number of Pixels in Spectrum: 2048
>>>>>Begin Spectral Data<<<<<
189.047	-50.92
189.435	-50.92
189.823	-50.92
190.211	113.39
190.599	241.78
190.987	71.11
191.375	100.74
191.763	2736.13
192.151	75.94
192.538	116.06
192.926	-693.46
193.314	50.43
193.702	937.76
194.089	55.16
194.477	214.48
194.864	119.97
195.252	779.14
195.639	692.26
196.027	20.95
196.414	94.83
196.801	-140.83
197.189	100.64
197.576	396.51
197.963	-294.65
198.351	-42.92
198.738	-48.3
199.125	34.38
199.512	-183.17
199.899	-7.41
200.286	-55.5
200.673	27.67
201.06	39.53
201.447	-5.88
201.833	1.53
202.22	1.29
202.607	18.53
202.994	-11.52
203.38	-42.59
203.767	-15.9
204.154	17.6
204.54	8.94
204.927	-34.51
205.313	7.55
205.699	40.86
206.086	-3.44
206.472	7.85
206.858	2.64
207.245	-10.26
207.631	0.01
208.017	33.65
208.403	-30.38
208.789	-1.56
209.175	22.44
209.561	3.67
209.947	-9.69
210.333	1.37
210.719	-20.34
211.105	18.08
211.491	9.18
211.876	16.72
212.262	-13.24
212.648	27.62
213.034	-19.13
213.419	-22.99
213.805	-3.93
214.19	15.73
214.576	-15.26
214.961	-12.6
215.346	-27.71
215.732	-99.86
216.117	-2.49
216.502	-1.68
216.888	-26.28
217.273	-6.57
217.658	16.25
218.043	-32.29
218.428	11.85
218.813	-19.89
219.198	2.97
219.583	-3.36
219.968	9.59
220.353	-28.66
220.738	6.06
221.122	-29.01
221.507	5.4
221.892	2.51
222.276	2.88
222.661	4.71
223.046	6.53
223.43	-1.95
223.815	-10.72
224.199	2.52
224.583	1.61
224.968	0.51
225.352	-1.27
225.736	10.04
226.121	-1.36
226.505	0.39
226.889	2.29
227.273	1.35
227.657	-0.11
228.041	-2.56
228.425	-5.38
228.809	3.04
229.193	0.35
229.577	2.99
229.961	1.51
230.344	2.81
230.728	2.03
231.112	2.08
231.495	2.35
231.879	3.1
232.263	1.16
232.646	0.94
233.03	2.12
233.413	2.81
233.797	1.09
234.18	5.21
234.563	0.81
234.946	1.41
235.33	3.31
235.713	2.04
236.096	1.45
236.479	1.66
236.862	1.04
237.245	0.94
237.628	3.31
238.011	2.78
238.394	1.22
238.777	1.17
239.16	2.32
239.543	3.26
239.925	2.48
240.308	0.76
240.691	3.51
241.073	2.66
241.456	2.19
241.838	1.22
242.221	1.71
242.603	2.07
242.986	1.48
243.368	2.02
243.75	2.03
244.133	3.06
244.515	2.35
244.897	2.45
245.279	2.18
245.661	1.95
246.043	1.87
246.425	2.08
246.807	3.06
247.189	2.22
247.571	2.04
247.953	2.04
248.335	2.31
248.717	2.35
249.098	2.41
249.48	2.09
249.862	2.45
250.243	2.58
250.625	2.35
251.006	2.88
251.388	2.54
251.769	0.1
252.151	2.06
252.532	1.55
252.913	2.49
253.295	2.56
253.676	2.91
254.057	2.05
254.438	1.77
254.819	1.01
255.2	1.84
255.581	1.79
255.962	1.57
256.343	3.02
256.724	1.85
257.105	0.87
257.486	2.36
257.867	2.82
258.247	2.68
258.628	2.05
259.009	1.89
259.389	2.07
259.77	1.89
260.15	1.96
260.531	1.71
260.911	2.09
261.292	2.08
261.672	2.41
262.052	1.99
262.432	2.22
262.813	2.62
263.193	2.49
263.573	2.82
263.953	2.12
264.333	1.77
264.713	1.78
265.093	1.44
265.473	1.37
265.853	3.01
266.233	2.1
266.612	2.22
266.992	1.29
267.372	2.51
267.752	1.52
268.131	1.85
268.511	2.18
268.89	2.46
269.27	1.58
269.649	1.97
270.029	2.17
270.408	2.32
270.787	1.65
271.167	1.64
271.546	2.62
271.925	2.07
272.304	1.81
272.683	2.01
273.062	1.5
273.441	1.94
273.82	1.89
274.199	2.07
274.578	1.94
274.957	1.97
275.336	1.72
275.715	2.33
276.093	2.19
276.472	1.69
276.851	1.45
277.229	1.8
277.608	2.06
277.986	2
278.365	1.66
278.743	2.27
279.122	2.15
279.5	1.56
279.878	2.16
280.257	2.31
280.635	2.6
281.013	2.12
281.391	1.88
281.769	1.93
282.147	1.92
282.525	1.19
282.903	1.76
283.281	2.08
283.659	2.2
284.037	2.01
284.415	2.25
284.792	2.25
285.17	2.2
285.548	2.26
285.925	2.11
286.303	2.16
286.68	1.8
287.058	1.77
287.435	2.21
287.813	2.57
288.19	1.9
288.567	1.97
288.945	2.2
289.322	2
289.699	1.89
290.076	2.22
290.453	2.24
290.83	1.86
291.207	2.01
291.584	1.9
291.961	2.06
292.338	2.04
292.715	1.92
293.092	2.04
293.469	1.79
293.845	2.35
294.222	1.76
294.599	1.65
294.975	1.46
295.352	1.91
295.728	1.92
296.105	2.13
296.481	1.87
296.858	1.81
297.234	2.17
297.61	2.26
297.986	2.22
298.363	1.93
298.739	1.76
299.115	2.07
299.491	2.26
299.867	1.96
300.243	2.12
300.619	2.14
300.995	1.77
301.371	2.22
301.746	1.98
302.122	2.33
302.498	1.86
302.874	2.55
303.249	2.3
303.625	1.84
304	2.14
304.376	1.77
304.751	2.15
305.127	2.4
305.502	2.01
305.878	2.34
306.253	2.36
306.628	1.78
307.003	2.36
307.378	2.59
307.754	2.81
308.129	2.71
308.504	2.39
308.879	2.34
309.254	2.04
309.629	1.81
310.003	2
310.378	1.8
310.753	2.19
311.128	2.38
311.502	2.1
311.877	2.61
312.252	2.22
312.626	2.18
313.001	2.36
313.375	2.67
313.75	2.54
314.124	2.47
314.498	2.14
314.873	2.75
315.247	2.09
315.621	2.3
315.995	2.2
316.369	2.6
316.743	3.04
317.117	2.33
317.491	2.57
317.865	2.85
318.239	2.83
318.613	2.57
318.987	2.35
319.361	1.73
319.734	2.61
320.108	2.01
320.482	2.41
320.855	2.44
321.229	2.13
321.602	2.89
321.976	2.48
322.349	2.61
322.723	2.17
323.096	2.43
323.469	2.98
323.843	2.88
324.216	3.04
324.589	3.02
324.962	2.11
325.335	2.82
325.708	2.78
326.081	2.37
326.454	2.86
326.827	2.51
327.2	2.35
327.573	2.08
327.945	2.96
328.318	2.52
328.691	2.67
329.063	2.03
329.436	2.12
329.809	1.95
330.181	2.9
330.553	2.78
330.926	3.13
331.298	2.2
331.671	2.03
332.043	2.71
332.415	2.49
332.787	2.87
333.159	2.66
333.532	2.5
333.904	2.49
334.276	2.64
334.648	2.71
335.02	2.69
335.391	2.84
335.763	2.27
336.135	2.23
336.507	2.47
336.879	2.97
337.25	2.22
337.622	2.75
337.993	3.04
338.365	2.62
338.736	3.25
339.108	2.56
339.479	3.05
339.851	2.38
340.222	2.71
340.593	2.45
340.964	2.59
341.336	2.39
341.707	2.4
342.078	2.52
342.449	2.2
342.82	2.69
343.191	2.48
343.562	3.05
343.933	3.07
344.303	2.93
344.674	2.48
345.045	3.36
345.416	2.91
345.786	2.7
346.157	2.6
346.527	2.96
346.898	2.57
347.268	2.7
347.639	2.35
348.009	2.82
348.38	3.12
348.75	2.55
349.12	3
349.49	2.9
349.861	2.6
350.231	2.53
350.601	2.5
350.971	2.93
351.341	2.88
351.711	2.85
352.081	3.13
352.45	3.33
352.82	2.86
353.19	2.56
353.56	2.91
353.929	2.6
354.299	2.67
354.669	2.78
355.038	2.8
355.408	3.04
355.777	2.52
356.147	3.13
356.516	2.86
356.885	2.81
357.254	2.87
357.624	2.66
357.993	2.51
358.362	2.55
358.731	2.74
359.1	2.9
359.469	2.52
359.838	2.77
360.207	3
360.576	2.7
360.945	2.98
361.314	2.51
361.682	2.34
362.051	2.72
362.42	2.93
362.788	3.06
363.157	2.98
363.525	2.76
363.894	3.16
364.262	2.63
364.631	2.94
364.999	2.66
365.367	2.5
365.735	3.16
366.104	2.96
366.472	3.05
366.84	3.23
367.208	3.21
367.576	2.79
367.944	2.59
368.312	2.73
368.68	3.18
369.048	3.08
369.416	2.79
369.783	3.12
370.151	3.01
370.519	2.36
370.886	2.85
371.254	2.75
371.621	3.06
371.989	2.64
372.356	2.92
372.724	3.11
373.091	2.86
373.458	2.73
373.826	2.81
374.193	3.27
374.56	2.93
374.927	2.7
375.294	3.02
375.661	3.02
376.028	2.93
376.395	2.59
376.762	3.14
377.129	2.78
377.496	3.09
377.863	2.89
378.229	3.06
378.596	2.65
378.963	3.31
379.329	3
379.696	3.19
380.062	2.92
380.429	2.86
380.795	2.86
381.161	3.18
381.528	3.56
381.894	3.04
382.26	2.96
382.626	3.11
382.993	2.87
383.359	3.14
383.725	2.78
384.091	3.29
384.457	2.68
384.823	2.88
385.188	3.01
385.554	2.67
385.92	2.85
386.286	2.86
386.651	2.92
387.017	2.88
387.383	2.56
387.748	2.87
388.114	2.63
388.479	3.16
388.845	2.91
389.21	3.27
389.575	3.09
389.94	3.14
390.306	3.02
390.671	2.89
391.036	2.86
391.401	2.94
391.766	3.04
392.131	3.11
392.496	2.74
392.861	3
393.226	3.14
393.591	3.12
393.956	3.11
394.32	3.39
394.685	3.01
395.05	3.37
395.414	2.96
395.779	3.12
396.143	3.33
396.508	3.07
396.872	3.22
397.236	3.1
397.601	3.01
397.965	2.6
398.329	2.81
398.694	3.15
399.058	3.52
399.422	2.85
399.786	3.07
400.15	3.3
400.514	2.99
400.878	3.31
401.242	2.89
401.605	3.19
401.969	2.87
402.333	3.13
402.697	3.09
403.06	3.17
403.424	3.29
403.787	3.07
404.151	3.18
404.514	3.2
404.878	3.11
405.241	2.97
405.604	3.15
405.968	3.24
406.331	2.91
406.694	2.87
407.057	3.17
407.42	2.95
407.783	3.29
408.146	3.44
408.509	3.12
408.872	3.1
409.235	3.32
409.598	3.16
409.961	3.24
410.323	3.34
410.686	3.39
411.049	3.05
411.411	2.98
411.774	3.21
412.136	3.02
412.499	3.1
412.861	3.14
413.223	3.19
413.586	3.53
413.948	3.08
414.31	3.1
414.672	3.1
415.035	3.17
415.397	2.81
415.759	3.44
416.121	3.16
416.483	3.12
416.845	3.24
417.206	3.27
417.568	3.19
417.93	3.35
418.292	3.22
418.653	2.97
419.015	3.11
419.377	3.19
419.738	3.23
420.1	3.25
420.461	3.13
420.822	3.1
421.184	3.28
421.545	3.22
421.906	3.11
422.267	3.17
422.629	2.96
422.99	3.09
423.351	3.25
423.712	3.16
424.073	3.26
424.434	3.11
424.795	3.1
425.155	3.11
425.516	3.15
425.877	3.06
426.238	3.18
426.598	3.09
426.959	3.2
427.32	3.21
427.68	3.28
428.041	3.09
428.401	3.24
428.761	3.42
429.122	3.27
429.482	3.03
429.842	3.27
430.202	3.43
430.563	3.29
430.923	3.38
431.283	3.49
431.643	3.39
432.003	3.34
432.363	3.09
432.722	3.35
433.082	3.4
433.442	3.4
433.802	3.2
434.161	3.16
434.521	3.32
434.881	3.21
435.24	3.26
435.6	3.38
435.959	3.33
436.319	3.3
436.678	3.37
437.037	3.37
437.396	3.41
437.756	3.41
438.115	3.32
438.474	3.32
438.833	3.1
439.192	3.16
439.551	3.33
439.91	3.19
440.269	3.5
440.628	3.16
440.987	3.26
441.345	3.1
441.704	3.35
442.063	3.36
442.421	3.25
442.78	3.33
443.138	3.43
443.497	3.25
443.855	3.31
444.214	3.27
444.572	3.37
444.93	3.37
445.288	3.35
445.647	3.37
446.005	3.28
446.363	3.26
446.721	3.4
447.079	3.15
447.437	3.36
447.795	3.25
448.153	3.37
448.51	3.29
448.868	3.29
449.226	3.36
449.584	3.38
449.941	3.34
450.299	3.28
450.656	3.4
451.014	3.41
451.371	3.46
451.729	3.5
452.086	3.39
452.443	3.38
452.801	3.5
453.158	3.4
453.515	3.29
453.872	3.21
454.229	3.23
454.586	3.33
454.943	3.29
455.3	3.5
455.657	3.26
456.014	3.39
456.371	3.34
456.727	3.31
457.084	3.57
457.441	3.45
457.797	3.35
458.154	3.47
458.51	3.36
458.867	3.43
459.223	3.51
459.58	3.37
459.936	3.48
460.292	3.5
460.648	3.33
461.005	3.42
461.361	3.31
461.717	3.29
462.073	3.4
462.429	3.35
462.785	3.58
463.141	3.43
463.496	3.49
463.852	3.45
464.208	3.45
464.564	3.58
464.919	3.44
465.275	3.5
465.631	3.49
465.986	3.53
466.342	3.45
466.697	3.57
467.052	3.42
467.408	3.7
467.763	3.47
468.118	3.43
468.473	3.42
468.829	3.46
469.184	3.51
469.539	3.57
469.894	3.63
470.249	3.8
470.603	3.59
470.958	3.39
471.313	3.53
471.668	3.46
472.023	3.43
472.377	3.53
472.732	3.57
473.086	3.42
473.441	3.39
473.795	3.61
474.15	3.55
474.504	3.67
474.859	3.59
475.213	3.55
475.567	3.25
475.921	3.59
476.275	3.55
476.63	3.6
476.984	3.69
477.338	3.66
477.692	3.58
478.045	3.48
478.399	3.52
478.753	3.56
479.107	3.61
479.461	3.52
479.814	3.41
480.168	3.54
480.521	3.59
480.875	3.48
481.228	3.46
481.582	3.64
481.935	3.66
482.289	3.56
482.642	3.65
482.995	3.58
483.348	3.53
483.701	3.5
484.055	3.43
484.408	3.48
484.761	3.33
485.114	3.28
485.466	3.2
485.819	3.25
486.172	3.32
486.525	3.41
486.878	3.45
487.23	3.49
487.583	3.54
487.936	3.43
488.288	3.4
488.641	3.33
488.993	3.32
489.345	3.31
489.698	3.36
490.05	3.36
490.402	3.42
490.754	3.54
491.107	3.54
491.459	3.61
491.811	3.5
492.163	3.48
492.515	3.46
492.866	3.37
493.218	3.32
493.57	3.36
493.922	3.45
494.274	3.57
494.625	3.54
494.977	3.61
495.328	3.61
495.68	3.65
496.031	3.63
496.383	3.7
496.734	3.64
497.086	3.71
497.437	3.65
497.788	3.69
498.139	3.7
498.49	3.53
498.842	3.6
499.193	3.65
499.544	3.68
499.894	3.57
500.245	3.68
500.596	3.6
500.947	3.66
501.298	3.65
501.648	3.61
501.999	3.53
502.35	3.66
502.7	3.78
503.051	3.73
503.401	3.6
503.752	3.64
504.102	3.63
504.452	3.6
504.803	3.72
505.153	3.67
505.503	3.76
505.853	3.62
506.203	3.61
506.553	3.57
506.903	3.72
507.253	3.64
507.603	3.85
507.953	3.76
508.303	3.73
508.652	3.81
509.002	3.74
509.352	3.68
509.701	3.63
510.051	3.7
510.4	3.72
510.75	3.64
511.099	3.66
511.449	3.69
511.798	3.66
512.147	3.65
512.496	3.76
512.846	3.71
513.195	3.66
513.544	3.67
513.893	3.7
514.242	3.63
514.591	3.69
514.939	3.68
515.288	3.82
515.637	3.7
515.986	3.74
516.334	3.64
516.683	3.69
517.032	3.72
517.38	3.81
517.729	3.89
518.077	3.74
518.426	3.77
518.774	3.76
519.122	3.79
519.47	3.78
519.819	3.71
520.167	3.62
520.515	3.66
520.863	3.68
521.211	3.72
521.559	3.81
521.907	3.72
522.255	3.75
522.602	3.82
522.95	3.82
523.298	3.78
523.645	3.9
523.993	3.82
524.341	3.86
524.688	3.8
525.036	3.8
525.383	3.78
525.73	3.79
526.078	3.65
526.425	3.71
526.772	3.71
527.119	3.63
527.466	3.7
527.814	3.64
528.161	3.64
528.508	3.75
528.854	3.77
529.201	3.63
529.548	3.6
529.895	3.57
530.242	3.51
530.588	3.56
530.935	3.57
531.282	3.66
531.628	3.71
531.975	3.75
532.321	3.78
532.667	3.79
533.014	3.86
533.36	3.78
533.706	3.76
534.052	3.71
534.399	3.7
534.745	3.67
535.091	3.62
535.437	3.62
535.783	3.75
536.129	3.9
536.474	3.77
536.82	3.77
537.166	3.92
537.512	3.79
537.857	3.79
538.203	3.75
538.549	3.69
538.894	3.62
539.239	3.88
539.585	3.81
539.93	3.71
540.276	3.98
540.621	4.02
540.966	3.87
541.311	3.96
541.656	3.86
542.001	3.7
542.346	3.69
542.691	3.64
543.036	3.6
543.381	3.59
543.726	3.72
544.071	3.79
544.415	3.79
544.76	3.8
545.105	3.8
545.449	3.81
545.794	3.84
546.138	3.87
546.483	3.98
546.827	3.86
547.171	3.9
547.516	3.73
547.86	3.83
548.204	3.91
548.548	3.79
548.892	3.75
549.236	3.76
549.58	3.98
549.924	3.96
550.268	4.03
550.612	4.01
550.956	3.96
551.3	3.97
551.643	4.17
551.987	4.08
552.33	3.87
552.674	3.88
553.017	3.86
553.361	3.98
553.704	4.14
554.048	3.91
554.391	3.99
554.734	4
555.077	4.1
555.42	4.04
555.764	4.12
556.107	4.04
556.45	3.95
556.793	4.19
557.135	3.95
557.478	3.85
557.821	4.05
558.164	3.91
558.507	4.01
558.849	3.76
559.192	4.03
559.534	4.21
559.877	3.86
560.219	3.86
560.562	3.93
560.904	3.98
561.246	3.94
561.589	4.02
561.931	4.21
562.273	3.87
562.615	4.08
562.957	3.97
563.299	4
563.641	4.19
563.983	4.15
564.325	4
564.667	3.83
565.008	4.23
565.35	4.06
565.692	4.11
566.033	4.03
566.375	4.09
566.716	4.03
567.058	4.08
567.399	4.16
567.741	4.01
568.082	4.15
568.423	3.96
568.764	3.98
569.105	4.07
569.447	4.17
569.788	4.23
570.129	4.15
570.47	4.08
570.811	4.06
571.151	4.21
571.492	4.03
571.833	4.14
572.174	4.19
572.514	4.13
572.855	3.97
573.195	4.11
573.536	4.08
573.876	4.13
574.217	3.95
574.557	4.03
574.898	4.04
575.238	4.1
575.578	4.03
575.918	4.18
576.258	3.98
576.598	4.01
576.938	4.13
577.278	4
577.618	4.09
577.958	4.17
578.298	4.04
578.638	3.96
578.977	4.06
579.317	4.01
579.657	4.31
579.996	4.17
580.336	4.32
580.675	4.11
581.014	4.09
581.354	4.19
581.693	4.05
582.032	4.18
582.372	4.22
582.711	4.52
583.05	4.1
583.389	4.39
583.728	4.38
584.067	4.41
584.406	4.33
584.745	4.44
585.083	4.29
585.422	4.44
585.761	4.42
586.1	4.1
586.438	4.72
586.777	4.14
587.115	4.2
587.454	4.47
587.792	4.11
588.13	4.28
588.469	4.25
588.807	4.12
589.145	4.12
589.483	4.42
589.821	4.39
590.159	4.15
590.497	4.2
590.835	4.21
591.173	4.16
591.511	4.24
591.849	4.3
592.187	4.37
592.524	3.96
592.862	4.37
593.2	4
593.537	4.23
593.875	4.48
594.212	4.33
594.55	4.05
594.887	4.5
595.224	4.29
595.561	4.12
595.899	4.43
596.236	4.28
596.573	4.16
596.91	4.07
597.247	4.32
597.584	4.23
597.921	4.35
598.258	4.06
598.594	3.98
598.931	4.05
599.268	4.24
599.604	4.15
599.941	4.19
600.277	4.23
600.614	4.53
600.95	4.35
601.287	4.2
601.623	4.18
601.959	4.45
602.296	4.25
602.632	4.44
602.968	4.44
603.304	4.39
603.64	4.32
603.976	4.31
604.312	4.48
604.648	4.69
604.984	4.28
605.319	4.39
605.655	4.48
605.991	4.22
606.326	4.2
606.662	4.17
606.998	4.39
607.333	4.32
607.668	4.36
608.004	4.2
608.339	4.28
608.674	4.27
609.01	4.16
609.345	4.61
609.68	4.43
610.015	4.1
610.35	4.26
610.685	4.56
611.02	4.34
611.355	4.36
611.689	4.23
612.024	4.58
612.359	4.37
612.694	4.19
613.028	4.2
613.363	4.32
613.697	4.49
614.032	4.44
614.366	4.23
614.7	4.26
615.035	4.32
615.369	4.39
615.703	4.28
616.037	4.37
616.371	4.81
616.705	4.42
617.039	4.6
617.373	4.19
617.707	4.42
618.041	4.42
618.375	4.48
618.709	4.59
619.042	4.12
619.376	4.37
619.71	4.5
620.043	4.61
620.377	4.35
620.71	4.44
621.043	4.67
621.377	4.62
621.71	4.16
622.043	3.97
622.376	4.39
622.709	4.24
623.043	4.44
623.376	4.59
623.709	4.21
624.041	4.89
624.374	4.89
624.707	4.5
625.04	4.72
625.373	3.91
625.705	4.72
626.038	4.93
626.37	4.71
626.703	4.31
627.035	4.63
627.368	4.82
627.7	4.67
628.032	4.43
628.365	4.28
628.697	4.69
629.029	4.61
629.361	4.31
629.693	4.42
630.025	4.6
630.357	4.38
630.689	4.66
631.021	4.42
631.353	4.39
631.684	4.47
632.016	4.58
632.348	4.71
632.679	4.19
633.011	4.44
633.342	4.21
633.674	4.72
634.005	4.55
634.336	4.66
634.668	4.48
634.999	4.2
635.33	4.24
635.661	4.49
635.992	4.5
636.323	4.42
636.654	4.41
636.985	4.41
637.316	4.52
637.647	4.38
637.977	4.57
638.308	4.57
638.639	4.72
638.969	4.65
639.3	4.96
639.63	4.25
639.961	4.75
640.291	4.8
640.622	4.38
640.952	4.79
641.282	4.7
641.612	4.67
641.943	4.5
642.273	4.37
642.603	4.76
642.933	4.62
643.263	4.29
643.592	4.34
643.922	4.18
644.252	4.68
644.582	4.67
644.911	5.03
645.241	4.92
645.571	4.75
645.9	4.62
646.23	4.39
646.559	4.53
646.888	4.34
647.218	4.61
647.547	5.19
647.876	4.99
648.205	4.63
648.534	4.92
648.863	4.95
649.192	5.1
649.521	4.77
649.85	5.02
650.179	4.71
650.508	4.56
650.837	4.89
651.165	4.58
651.494	4.92
651.822	4.56
652.151	4.65
652.479	4.7
652.808	5.1
653.136	4.43
653.465	4.41
653.793	4.45
654.121	5.07
654.449	4.89
654.777	4.94
655.105	5.22
655.433	4.81
655.761	4.85
656.089	4.51
656.417	4.62
656.745	4.59
657.073	4.61
657.4	4.46
657.728	5.14
658.056	4.29
658.383	4.92
658.711	4.54
659.038	4.47
659.365	4.65
659.693	4.35
660.02	5.11
660.347	4.55
660.674	4.35
661.001	4.85
661.329	4.53
661.656	4.4
661.982	4.63
662.309	4.63
662.636	4.81
662.963	5.03
663.29	4.72
663.616	4.7
663.943	4.64
664.27	4.39
664.596	4.74
664.923	4.05
665.249	4.35
665.576	4.96
665.902	4.8
666.228	4.03
666.554	5.03
666.881	4.91
667.207	4.7
667.533	4.85
667.859	4.79
668.185	4.76
668.511	4.89
668.837	5.29
669.162	4.84
669.488	5.16
669.814	5.03
670.139	5.1
670.465	4.82
670.791	5.2
671.116	4.87
671.442	5.03
671.767	4.98
672.092	4.71
672.418	5.12
672.743	4.77
673.068	4.95
673.393	4.54
673.718	5.27
674.043	4.55
674.368	5
674.693	5.49
675.018	5.22
675.343	5.13
675.667	4.47
675.992	4.81
676.317	4.86
676.641	4.22
676.966	4.99
677.29	5.02
677.615	5.16
677.939	4.66
678.264	4.96
678.588	3.41
678.912	4.54
679.236	4.45
679.56	5.64
679.885	4.98
680.209	4.61
680.532	5.01
680.856	4.17
681.18	5.04
681.504	4.54
681.828	4.34
682.152	4.8
682.475	5.04
682.799	4.68
683.122	4.46
683.446	4.86
683.769	5.03
684.093	4.8
684.416	4.8
684.739	4.44
685.062	5.16
685.386	4.88
685.709	4.88
686.032	5.03
686.355	4.83
686.678	5.26
687.001	4.6
687.324	4.46
687.646	6.31
687.969	4.86
688.292	5.01
688.614	4.46
688.937	5.24
689.26	5.26
689.582	4.78
689.904	4.66
690.227	4.94
690.549	4.72
690.871	4.91
691.194	5.14
691.516	5.19
691.838	5.51
692.16	5.44
692.482	5.02
692.804	5.08
