Data from 815646_chest_Reflection__4__59.txt Node

Date: Fri Sep 16 14:58:21 CDT 2022
User: ToomeyLab
Spectrometer: FLMS14357
Trigger mode: 0
Integration Time (sec): 1.000000E-2
Scans to average: 100
Electric dark correction enabled: true
Nonlinearity correction enabled: false
Boxcar width: 0
XAxis mode: Wavelengths
Number of Pixels in Spectrum: 2048
>>>>>Begin Spectral Data<<<<<
189.047	-186.86
189.435	-186.86
189.823	-186.86
190.211	181.84
190.599	-40.45
190.987	89.46
191.375	169.11
191.763	352.26
192.151	-1530.18
192.538	30.55
192.926	-13.51
193.314	41.27
193.702	577.62
194.089	92.59
194.477	93.1
194.864	-70.26
195.252	-640.64
195.639	2901.94
196.027	-43.37
196.414	183.04
196.801	19.25
197.189	429.42
197.576	-84.64
197.963	-763.15
198.351	-80.99
198.738	-0.93
199.125	23.26
199.512	-147.82
199.899	21.13
200.286	-2.4
200.673	1.09
201.06	26.05
201.447	-13.21
201.833	20.44
202.22	15.08
202.607	-67.54
202.994	13.29
203.38	12.39
203.767	-11.28
204.154	16.34
204.54	-10.57
204.927	38.7
205.313	29.64
205.699	50.96
206.086	49.6
206.472	2.37
206.858	-9.21
207.245	16.69
207.631	21.98
208.017	9.09
208.403	-18.37
208.789	-11.14
209.175	15.6
209.561	10.5
209.947	-32.36
210.333	-3.44
210.719	0.02
211.105	-18.68
211.491	0.01
211.876	15.3
212.262	-9.64
212.648	4.55
213.034	0.18
213.419	2.33
213.805	16.81
214.19	1.59
214.576	-21.53
214.961	34.83
215.346	-32.68
215.732	-51.25
216.117	14.48
216.502	22.5
216.888	-54.52
217.273	11
217.658	6.96
218.043	-49.22
218.428	6.95
218.813	-5.79
219.198	10.97
219.583	-8.04
219.968	11.2
220.353	-5.27
220.738	12.36
221.122	-10.29
221.507	19.29
221.892	-0.48
222.276	-2.73
222.661	-4.56
223.046	7.79
223.43	-3.91
223.815	-3.54
224.199	7.62
224.583	1.31
224.968	0.1
225.352	-0.14
225.736	13.61
226.121	3.12
226.505	-0.61
226.889	1.83
227.273	4
227.657	7.08
228.041	2.05
228.425	-8.49
228.809	3.54
229.193	-0.48
229.577	1.9
229.961	0.68
230.344	2.17
230.728	1.31
231.112	1.32
231.495	1.25
231.879	2.54
232.263	2.05
232.646	1
233.03	1.68
233.413	3.18
233.797	0.51
234.18	4.36
234.563	1.27
234.946	1.14
235.33	1.8
235.713	2.9
236.096	0.57
236.479	1.07
236.862	0.32
237.245	2.49
237.628	3.7
238.011	2.44
238.394	1.51
238.777	2.09
239.16	0.53
239.543	2.87
239.925	2.17
240.308	0.89
240.691	0.66
241.073	1.43
241.456	0.82
241.838	-0.4
242.221	0.89
242.603	1.97
242.986	0.57
243.368	1.36
243.75	2.15
244.133	1.91
244.515	1.33
244.897	1.79
245.279	1.29
245.661	1.66
246.043	1.95
246.425	1.15
246.807	1.9
247.189	0.93
247.571	1.4
247.953	1.68
248.335	1.69
248.717	1.68
249.098	1.75
249.48	1.6
249.862	1.69
250.243	2.07
250.625	1.85
251.006	2.12
251.388	1.95
251.769	0.34
252.151	1.29
252.532	1.24
252.913	2.02
253.295	2.09
253.676	1.76
254.057	1.13
254.438	1.11
254.819	0.23
255.2	1.4
255.581	1.57
255.962	1.62
256.343	1.52
256.724	0.86
257.105	0.87
257.486	1.17
257.867	1.48
258.247	2.55
258.628	1.29
259.009	1.32
259.389	1.82
259.77	1.62
260.15	2.02
260.531	1.54
260.911	1.81
261.292	1.4
261.672	1.44
262.052	1.34
262.432	1.37
262.813	1.99
263.193	1.88
263.573	1.82
263.953	1.75
264.333	1.96
264.713	0.61
265.093	0.79
265.473	1.2
265.853	2.17
266.233	0.89
266.612	2.57
266.992	0.26
267.372	1.46
267.752	1.36
268.131	1.69
268.511	1.74
268.89	2.05
269.27	0.82
269.649	1.39
270.029	1.56
270.408	1.54
270.787	1.18
271.167	1.48
271.546	2.03
271.925	1.59
272.304	1.23
272.683	1.09
273.062	1.21
273.441	1.69
273.82	1.16
274.199	1.7
274.578	1.47
274.957	1.46
275.336	1.68
275.715	2.02
276.093	1.55
276.472	1.56
276.851	1.18
277.229	1.52
277.608	2.02
277.986	1.47
278.365	0.88
278.743	1.29
279.122	1.19
279.5	1.08
279.878	1.97
280.257	1.93
280.635	1.53
281.013	1.75
281.391	1.4
281.769	1.83
282.147	1.94
282.525	0.88
282.903	1.42
283.281	0.84
283.659	1.5
284.037	1.27
284.415	2.04
284.792	1.69
285.17	1.58
285.548	1.33
285.925	1.57
286.303	1.95
286.68	1.25
287.058	1.26
287.435	1.54
287.813	1.88
288.19	1.42
288.567	1.3
288.945	1.28
289.322	1.37
289.699	0.99
290.076	1.3
290.453	1.58
290.83	1.37
291.207	1.22
291.584	1.27
291.961	1.72
292.338	1.5
292.715	1.39
293.092	1.87
293.469	1.69
293.845	1.39
294.222	1.93
294.599	1.51
294.975	1.67
295.352	1.89
295.728	1.19
296.105	2
296.481	1.3
296.858	1.05
297.234	1.5
297.61	1.96
297.986	1.97
298.363	1.35
298.739	1.39
299.115	2.03
299.491	1.82
299.867	1.66
300.243	1.35
300.619	1.84
300.995	1.8
301.371	2.22
301.746	1.73
302.122	1.97
302.498	1.35
302.874	2.02
303.249	2.24
303.625	1.82
304	1.81
304.376	1.02
304.751	2.07
305.127	1.41
305.502	1.73
305.878	1.9
306.253	1.77
306.628	1.5
307.003	2.45
307.378	2.45
307.754	1.93
308.129	3.05
308.504	2.35
308.879	2.21
309.254	1.96
309.629	1.43
310.003	2.05
310.378	1.39
310.753	2.09
311.128	1.91
311.502	1.77
311.877	2.28
312.252	2.17
312.626	2.29
313.001	2.18
313.375	2.32
313.75	2.24
314.124	2
314.498	1.93
314.873	2.87
315.247	2.02
315.621	2.28
315.995	1.68
316.369	2.13
316.743	2.14
317.117	1.66
317.491	2.22
317.865	2.45
318.239	2.07
318.613	1.78
318.987	1.53
319.361	1.64
319.734	2.23
320.108	2.02
320.482	2.84
320.855	2.18
321.229	2.34
321.602	2.67
321.976	2.25
322.349	1.59
322.723	2.48
323.096	2.17
323.469	2.4
323.843	2.83
324.216	2.84
324.589	2.47
324.962	2.13
325.335	2.44
325.708	2.47
326.081	2.38
326.454	2.41
326.827	2.08
327.2	2.19
327.573	1.99
327.945	2.42
328.318	2.23
328.691	2.27
329.063	2.15
329.436	2.22
329.809	2.39
330.181	2.29
330.553	2.2
330.926	2.01
331.298	2.36
331.671	2.19
332.043	1.8
332.415	2.37
332.787	2.27
333.159	2.54
333.532	2.44
333.904	2.4
334.276	2.55
334.648	2.52
335.02	2.61
335.391	2.93
335.763	2.32
336.135	2.06
336.507	2.51
336.879	2.82
337.25	1.71
337.622	2.57
337.993	2.97
338.365	2.53
338.736	3.02
339.108	2.67
339.479	2.93
339.851	2.08
340.222	2.82
340.593	2.66
340.964	2.67
341.336	2.59
341.707	2.16
342.078	2.84
342.449	2.87
342.82	2.64
343.191	2.17
343.562	2.59
343.933	2.58
344.303	2.75
344.674	2.53
345.045	2.88
345.416	2.55
345.786	2.57
346.157	2.59
346.527	2.45
346.898	2.39
347.268	2.44
347.639	2.38
348.009	2.51
348.38	2.72
348.75	2.33
349.12	2.86
349.49	2.96
349.861	2.79
350.231	2.46
350.601	2.69
350.971	2.55
351.341	2.83
351.711	2.6
352.081	2.91
352.45	2.94
352.82	3.08
353.19	2.18
353.56	2.43
353.929	2.85
354.299	2.73
354.669	2.88
355.038	2.37
355.408	2.88
355.777	2.71
356.147	2.66
356.516	3.11
356.885	2.66
357.254	2.59
357.624	2.47
357.993	2.58
358.362	2.63
358.731	2.59
359.1	2.45
359.469	2.53
359.838	2.79
360.207	3
360.576	3.23
360.945	2.38
361.314	2.45
361.682	2.03
362.051	2.75
362.42	2.97
362.788	2.88
363.157	2.62
363.525	2.41
363.894	2.8
364.262	2.55
364.631	2.95
364.999	2.56
365.367	2.72
365.735	2.94
366.104	2.92
366.472	2.77
366.84	2.87
367.208	3.14
367.576	2.45
367.944	2.56
368.312	3.13
368.68	3.16
369.048	2.98
369.416	2.66
369.783	2.75
370.151	2.96
370.519	2.72
370.886	2.66
371.254	2.33
371.621	3.45
371.989	2.75
372.356	2.87
372.724	2.87
373.091	2.92
373.458	2.64
373.826	2.78
374.193	2.88
374.56	2.64
374.927	3.02
375.294	3.06
375.661	3.03
376.028	3.26
376.395	2.63
376.762	3.52
377.129	2.73
377.496	3
377.863	3.31
378.229	3.43
378.596	2.47
378.963	3.09
379.329	2.51
379.696	3.02
380.062	2.64
380.429	2.77
380.795	2.87
381.161	2.99
381.528	3.21
381.894	3.05
382.26	2.93
382.626	2.92
382.993	2.88
383.359	2.86
383.725	2.82
384.091	3.12
384.457	2.5
384.823	2.72
385.188	3.05
385.554	2.76
385.92	2.91
386.286	2.99
386.651	2.91
387.017	3.01
387.383	2.6
387.748	2.81
388.114	2.76
388.479	3.16
388.845	3.04
389.21	3.13
389.575	2.87
389.94	3.04
390.306	3.01
390.671	2.9
391.036	3
391.401	3.04
391.766	3.02
392.131	2.92
392.496	2.61
392.861	2.97
393.226	3.01
393.591	2.75
393.956	2.97
394.32	3.18
394.685	2.72
395.05	3.25
395.414	2.9
395.779	2.81
396.143	3.23
396.508	2.89
396.872	2.96
397.236	2.87
397.601	2.83
397.965	2.81
398.329	2.82
398.694	3.08
399.058	3.18
399.422	3.16
399.786	3.27
400.15	3.22
400.514	2.86
400.878	3.26
401.242	2.97
401.605	3.15
401.969	2.99
402.333	3.08
402.697	2.76
403.06	3.25
403.424	2.9
403.787	3.06
404.151	3.2
404.514	3.03
404.878	2.87
405.241	3.01
405.604	3.45
405.968	3.05
406.331	3.08
406.694	2.98
407.057	3.1
407.42	2.9
407.783	3.21
408.146	3.44
408.509	3.14
408.872	3.21
409.235	3.29
409.598	2.86
409.961	3.05
410.323	3.17
410.686	3.46
411.049	3.05
411.411	2.88
411.774	3.2
412.136	3.14
412.499	3.24
412.861	3.22
413.223	3.34
413.586	3.14
413.948	3.24
414.31	3.23
414.672	3.13
415.035	3.25
415.397	3.05
415.759	3.23
416.121	3.24
416.483	3.29
416.845	3.36
417.206	3.24
417.568	3.17
417.93	3.35
418.292	3.35
418.653	3.08
419.015	3.18
419.377	3.25
419.738	3.16
420.1	3.25
420.461	3.18
420.822	3.01
421.184	3.17
421.545	3.24
421.906	3.2
422.267	3.23
422.629	3.07
422.99	3.09
423.351	3.1
423.712	3.05
424.073	3.18
424.434	3.22
424.795	3.05
425.155	3.17
425.516	3.24
425.877	3.17
426.238	3.19
426.598	3.14
426.959	3.27
427.32	3.1
427.68	3.31
428.041	3.14
428.401	3.25
428.761	3.48
429.122	3.55
429.482	3.23
429.842	3.29
430.202	3.52
430.563	3.37
430.923	3.54
431.283	3.53
431.643	3.51
432.003	3.37
432.363	3.58
432.722	3.53
433.082	3.41
433.442	3.48
433.802	3.48
434.161	3.27
434.521	3.41
434.881	3.36
435.24	3.25
435.6	3.33
435.959	3.45
436.319	3.48
436.678	3.52
437.037	3.28
437.396	3.34
437.756	3.51
438.115	3.35
438.474	3.44
438.833	3.32
439.192	3.4
439.551	3.33
439.91	3.31
440.269	3.44
440.628	3.46
440.987	3.34
441.345	3.31
441.704	3.32
442.063	3.46
442.421	3.45
442.78	3.27
443.138	3.36
443.497	3.4
443.855	3.4
444.214	3.3
444.572	3.48
444.93	3.4
445.288	3.34
445.647	3.43
446.005	3.39
446.363	3.49
446.721	3.41
447.079	3.27
447.437	3.46
447.795	3.34
448.153	3.46
448.51	3.34
448.868	3.33
449.226	3.38
449.584	3.44
449.941	3.3
450.299	3.42
450.656	3.46
451.014	3.42
451.371	3.55
451.729	3.57
452.086	3.57
452.443	3.37
452.801	3.57
453.158	3.43
453.515	3.41
453.872	3.43
454.229	3.51
454.586	3.54
454.943	3.4
455.3	3.62
455.657	3.34
456.014	3.45
456.371	3.52
456.727	3.51
457.084	3.62
457.441	3.59
457.797	3.64
458.154	3.51
458.51	3.5
458.867	3.43
459.223	3.64
459.58	3.52
459.936	3.44
460.292	3.55
460.648	3.38
461.005	3.56
461.361	3.44
461.717	3.47
462.073	3.47
462.429	3.52
462.785	3.53
463.141	3.62
463.496	3.61
463.852	3.62
464.208	3.6
464.564	3.74
464.919	3.55
465.275	3.76
465.631	3.66
465.986	3.62
466.342	3.66
466.697	3.79
467.052	3.69
467.408	3.79
467.763	3.62
468.118	3.58
468.473	3.62
468.829	3.7
469.184	3.72
469.539	3.57
469.894	3.62
470.249	3.79
470.603	3.76
470.958	3.61
471.313	3.82
471.668	3.64
472.023	3.71
472.377	3.73
472.732	3.67
473.086	3.66
473.441	3.54
473.795	3.75
474.15	3.56
474.504	3.78
474.859	3.6
475.213	3.81
475.567	3.48
475.921	3.82
476.275	3.74
476.63	3.72
476.984	3.83
477.338	3.86
477.692	3.73
478.045	3.68
478.399	3.83
478.753	3.77
479.107	3.79
479.461	3.71
479.814	3.74
480.168	3.73
480.521	3.79
480.875	3.72
481.228	3.74
481.582	3.74
481.935	3.85
482.289	3.96
482.642	3.72
482.995	3.8
483.348	3.7
483.701	3.78
484.055	3.69
484.408	3.68
484.761	3.59
485.114	3.51
485.466	3.48
485.819	3.49
486.172	3.52
486.525	3.57
486.878	3.62
487.23	3.64
487.583	3.73
487.936	3.73
488.288	3.71
488.641	3.59
488.993	3.65
489.345	3.58
489.698	3.6
490.05	3.61
490.402	3.57
490.754	3.71
491.107	3.67
491.459	3.82
491.811	3.66
492.163	3.73
492.515	3.75
492.866	3.72
493.218	3.65
493.57	3.62
493.922	3.64
494.274	3.73
494.625	3.69
494.977	3.77
495.328	3.93
495.68	3.79
496.031	3.75
496.383	3.91
496.734	3.89
497.086	3.9
497.437	3.9
497.788	3.86
498.139	3.88
498.49	3.94
498.842	3.87
499.193	4.03
499.544	3.97
499.894	3.84
500.245	3.97
500.596	3.94
500.947	3.93
501.298	3.94
501.648	4.11
501.999	3.95
502.35	4.04
502.7	4.06
503.051	4.1
503.401	3.84
503.752	3.99
504.102	4.02
504.452	4.11
504.803	4.11
505.153	4.15
505.503	4.1
505.853	3.96
506.203	4.15
506.553	3.99
506.903	4.14
507.253	4.02
507.603	4.22
507.953	4.09
508.303	4.14
508.652	3.95
509.002	4.01
509.352	4.17
509.701	4.21
510.051	4.14
510.4	4.01
510.75	4.1
511.099	3.99
511.449	3.95
511.798	4.12
512.147	4.08
512.496	4.14
512.846	4
513.195	4.12
513.544	4.12
513.893	4.1
514.242	4.12
514.591	4.06
514.939	4.18
515.288	4.25
515.637	4.15
515.986	4.23
516.334	4.28
516.683	4.18
517.032	4.29
517.38	4.38
517.729	4.25
518.077	4.18
518.426	4.17
518.774	4.17
519.122	4.33
519.47	4.22
519.819	4.15
520.167	4.12
520.515	4.17
520.863	4.22
521.211	4.25
521.559	4.23
521.907	4.26
522.255	4.22
522.602	4.27
522.95	4.37
523.298	4.34
523.645	4.41
523.993	4.35
524.341	4.4
524.688	4.47
525.036	4.43
525.383	4.38
525.73	4.43
526.078	4.36
526.425	4.32
526.772	4.4
527.119	4.33
527.466	4.35
527.814	4.36
528.161	4.35
528.508	4.41
528.854	4.41
529.201	4.35
529.548	4.35
529.895	4.26
530.242	4.25
530.588	4.23
530.935	4.27
531.282	4.27
531.628	4.31
531.975	4.41
532.321	4.37
532.667	4.39
533.014	4.49
533.36	4.44
533.706	4.53
534.052	4.53
534.399	4.53
534.745	4.48
535.091	4.37
535.437	4.43
535.783	4.4
536.129	4.55
536.474	4.5
536.82	4.57
537.166	4.68
537.512	4.68
537.857	4.57
538.203	4.54
538.549	4.62
538.894	4.51
539.239	4.71
539.585	4.6
539.93	4.65
540.276	4.86
540.621	4.92
540.966	4.79
541.311	4.72
541.656	4.75
542.001	4.67
542.346	4.72
542.691	4.66
543.036	4.63
543.381	4.56
543.726	4.62
544.071	4.68
544.415	4.66
544.76	4.73
545.105	4.76
545.449	4.75
545.794	4.77
546.138	4.88
546.483	4.95
546.827	4.98
547.171	4.91
547.516	4.8
547.86	4.85
548.204	4.96
548.548	4.94
548.892	4.89
549.236	4.89
549.58	5.11
549.924	5.11
550.268	5.12
550.612	5.14
550.956	4.95
551.3	5.08
551.643	5.2
551.987	5.3
552.33	5.09
552.674	5.11
553.017	5.24
553.361	5.11
553.704	5.21
554.048	5.15
554.391	5.27
554.734	5.39
555.077	5.31
555.42	5.2
555.764	5.18
556.107	5.34
556.45	5.21
556.793	5.31
557.135	5.45
557.478	5.34
557.821	5.38
558.164	5.66
558.507	5.42
558.849	5.33
559.192	5.45
559.534	5.57
559.877	5.43
560.219	5.45
560.562	5.6
560.904	5.62
561.246	5.42
561.589	5.73
561.931	5.64
562.273	5.79
562.615	5.81
562.957	5.69
563.299	5.65
563.641	5.63
563.983	5.77
564.325	5.69
564.667	5.59
565.008	5.59
565.35	5.65
565.692	5.59
566.033	5.62
566.375	5.68
566.716	5.54
567.058	5.89
567.399	5.95
567.741	5.75
568.082	5.94
568.423	5.75
568.764	5.85
569.105	5.92
569.447	5.91
569.788	5.96
570.129	6.09
570.47	6.19
570.811	6.04
571.151	5.96
571.492	6.07
571.833	6.05
572.174	6.17
572.514	6.12
572.855	5.99
573.195	6.16
573.536	6.03
573.876	6.13
574.217	5.94
574.557	6.15
574.898	6.05
575.238	6.35
575.578	6.37
575.918	6.29
576.258	6.18
576.598	6.05
576.938	6.34
577.278	6.22
577.618	6.28
577.958	6.21
578.298	6.28
578.638	6.36
578.977	6.34
579.317	6.41
579.657	6.29
579.996	6.51
580.336	6.52
580.675	6.53
581.014	6.54
581.354	6.52
581.693	6.68
582.032	6.93
582.372	6.74
582.711	6.88
583.05	6.75
583.389	6.69
583.728	6.81
584.067	6.8
584.406	6.74
584.745	6.94
585.083	6.87
585.422	7.04
585.761	6.85
586.1	6.6
586.438	7.14
586.777	6.84
587.115	7
587.454	7
587.792	6.93
588.13	7.22
588.469	7.07
588.807	6.86
589.145	6.91
589.483	7.24
589.821	7.09
590.159	7.1
590.497	7.35
590.835	7.11
591.173	7.11
591.511	7.02
591.849	7.38
592.187	7.16
592.524	7.11
592.862	7.39
593.2	7.07
593.537	7.36
593.875	7.51
594.212	7.52
594.55	7.25
594.887	7.6
595.224	7.63
595.561	7.42
595.899	7.49
596.236	7.49
596.573	7.41
596.91	7.61
597.247	7.46
597.584	7.63
597.921	7.7
598.258	7.61
598.594	7.33
598.931	7.43
599.268	7.64
599.604	7.68
599.941	7.43
600.277	7.8
600.614	7.94
600.95	7.88
601.287	7.86
601.623	8.03
601.959	7.98
602.296	7.64
602.632	8.07
602.968	8.2
603.304	7.8
603.64	7.83
603.976	8.07
604.312	8
604.648	8.27
604.984	8.02
605.319	8.08
605.655	8.07
605.991	8.05
606.326	8.19
606.662	8.18
606.998	8.17
607.333	8.23
607.668	8.34
608.004	8.16
608.339	8.43
608.674	8.26
609.01	8.51
609.345	8.56
609.68	8.38
610.015	8.38
610.35	8.37
610.685	8.6
611.02	8.51
611.355	8.69
611.689	8.49
612.024	8.47
612.359	8.49
612.694	8.45
613.028	8.4
613.363	8.71
613.697	8.95
614.032	8.76
614.366	8.48
614.7	8.77
615.035	8.76
615.369	8.84
615.703	9.08
616.037	8.92
616.371	9.03
616.705	8.89
617.039	9.14
617.373	8.99
617.707	9.06
618.041	9.01
618.375	9.07
618.709	9.01
619.042	9.26
619.376	8.92
619.71	9.34
620.043	9.1
620.377	9.29
620.71	9.34
621.043	9.54
621.377	9.44
621.71	9.61
622.043	8.89
622.376	9.46
622.709	9.5
623.043	9.43
623.376	9.05
623.709	9.11
624.041	9.77
624.374	9.36
624.707	9.63
625.04	9.54
625.373	9.44
625.705	9.59
626.038	9.69
626.37	10.01
626.703	9.92
627.035	9.96
627.368	10.1
627.7	10.17
628.032	9.96
628.365	9.52
628.697	9.99
629.029	9.93
629.361	9.87
629.693	10.15
630.025	10.02
630.357	10.2
630.689	10.05
631.021	10.08
631.353	9.87
631.684	10.13
632.016	10.32
632.348	10.78
632.679	10.23
633.011	10.61
633.342	10.05
633.674	10.44
634.005	10.58
634.336	10.22
634.668	10.31
634.999	9.99
635.33	10.48
635.661	10.58
635.992	10.5
636.323	10.82
636.654	10.64
636.985	10.61
637.316	10.79
637.647	10.97
637.977	10.46
638.308	10.63
638.639	10.83
638.969	11.04
639.3	11.04
639.63	10.67
639.961	11.27
640.291	10.89
640.622	11.11
640.952	10.85
641.282	11.19
641.612	10.91
641.943	10.98
642.273	10.8
642.603	11.26
642.933	10.83
643.263	11.04
643.592	10.77
643.922	10.78
644.252	11.09
644.582	10.83
644.911	11.11
645.241	11.65
645.571	11.56
645.9	11.42
646.23	10.89
646.559	10.92
646.888	11.21
647.218	11.69
647.547	11.61
647.876	12.07
648.205	11.76
648.534	11.63
648.863	11.87
649.192	11.93
649.521	12.04
649.85	12.3
650.179	11.67
650.508	12.13
650.837	11.74
651.165	11.41
651.494	12.35
651.822	11.6
652.151	12
652.479	12.17
652.808	12.23
653.136	12.12
653.465	12.01
653.793	12.14
654.121	12.34
654.449	12.2
654.777	12.38
655.105	12.27
655.433	12.11
655.761	12.49
656.089	12.16
656.417	12.28
656.745	11.97
657.073	12.34
657.4	12.45
657.728	13.09
658.056	12.5
658.383	12.47
658.711	12.36
659.038	12.37
659.365	12.47
659.693	12.28
660.02	12.74
660.347	12.81
660.674	12.66
661.001	12.55
661.329	12.34
661.656	12.54
661.982	12.62
662.309	12.62
662.636	12.97
662.963	13.11
663.29	13.13
663.616	12.85
663.943	13.3
664.27	12.75
664.596	13.07
664.923	13.07
665.249	13.08
665.576	13.35
665.902	13.39
666.228	12.81
666.554	13.38
666.881	13.47
667.207	13.48
667.533	13.22
667.859	14.01
668.185	13.45
668.511	13.31
668.837	13.72
669.162	13.37
669.488	13.56
669.814	13.57
670.139	13.58
670.465	13.81
670.791	13.43
671.116	13.32
671.442	13.45
671.767	13.75
672.092	13.66
672.418	13.76
672.743	14.16
673.068	13.86
673.393	12.93
673.718	14.48
674.043	13.59
674.368	13.75
674.693	14.88
675.018	14.45
675.343	14.03
675.667	14.15
675.992	13.52
676.317	14.08
676.641	13.12
676.966	13.92
677.29	14.53
677.615	14.39
677.939	14.41
678.264	14.23
678.588	13.89
678.912	14.37
679.236	14.24
679.56	14.93
679.885	14.57
680.209	14.58
680.532	14.98
680.856	14.48
681.18	14.19
681.504	14.07
681.828	14.93
682.152	14.4
682.475	14.83
682.799	14.52
683.122	14.58
683.446	14.53
683.769	14.72
684.093	14.85
684.416	14.67
684.739	14.93
685.062	15.65
685.386	14.95
685.709	14.78
686.032	15.46
686.355	15.47
686.678	15.48
687.001	15.05
687.324	15.49
687.646	15.96
