Data from 815646_crown_Reflection__4__71.txt Node

Date: Fri Sep 16 15:04:30 CDT 2022
User: ToomeyLab
Spectrometer: FLMS14357
Trigger mode: 0
Integration Time (sec): 1.000000E-2
Scans to average: 100
Electric dark correction enabled: true
Nonlinearity correction enabled: false
Boxcar width: 0
XAxis mode: Wavelengths
Number of Pixels in Spectrum: 2048
>>>>>Begin Spectral Data<<<<<
189.047	-264.35
189.435	-264.35
189.823	-264.35
190.211	70.57
190.599	-161.23
190.987	93.14
191.375	117.18
191.763	3427.1
192.151	-50.49
192.538	-309.92
192.926	418.3
193.314	82.62
193.702	570.63
194.089	148.68
194.477	88.63
194.864	168.2
195.252	-573.26
195.639	216.77
196.027	144.54
196.414	102.59
196.801	-42.59
197.189	135.65
197.576	-134.21
197.963	-357.8
198.351	-31.44
198.738	2.01
199.125	18.73
199.512	-83.42
199.899	45.26
200.286	-22.43
200.673	-7.53
201.06	27.44
201.447	-0.39
201.833	-2.39
202.22	15.71
202.607	-73.48
202.994	1.03
203.38	7.83
203.767	-31.19
204.154	16.6
204.54	-2.77
204.927	7.67
205.313	8.2
205.699	41.48
206.086	-2.15
206.472	4.35
206.858	0.56
207.245	-2.53
207.631	13.26
208.017	-3.21
208.403	-21.52
208.789	-14.2
209.175	10.21
209.561	-10.49
209.947	3.27
210.333	33.13
210.719	41.39
211.105	36.9
211.491	-9.98
211.876	21.75
212.262	16.59
212.648	-9.07
213.034	5.89
213.419	-15.52
213.805	12.75
214.19	29.87
214.576	14.33
214.961	10.43
215.346	5.71
215.732	-9.6
216.117	15.92
216.502	-23.37
216.888	-8.68
217.273	32.5
217.658	-1.02
218.043	-37.34
218.428	11.84
218.813	18.83
219.198	-6.59
219.583	10
219.968	1.61
220.353	-10.83
220.738	-4.39
221.122	-19.18
221.507	24.12
221.892	-6.3
222.276	17.58
222.661	6.15
223.046	7.02
223.43	6.47
223.815	-12.88
224.199	9.32
224.583	1.58
224.968	6.08
225.352	-3.82
225.736	10.73
226.121	0.47
226.505	5.35
226.889	5
227.273	2.65
227.657	6.31
228.041	2.99
228.425	-2.34
228.809	6.13
229.193	4.6
229.577	5.52
229.961	1.19
230.344	3.46
230.728	3
231.112	2.99
231.495	2.64
231.879	2.93
232.263	1.18
232.646	0.21
233.03	3.65
233.413	3.91
233.797	1.99
234.18	5.58
234.563	3.13
234.946	1.76
235.33	1.64
235.713	1.91
236.096	1.83
236.479	3.11
236.862	2.35
237.245	0.81
237.628	3.96
238.011	3.74
238.394	2.36
238.777	3.8
239.16	1.83
239.543	4.08
239.925	2.25
240.308	1.16
240.691	2.3
241.073	2.21
241.456	1.82
241.838	2.4
242.221	1.61
242.603	2.6
242.986	2.33
243.368	2.4
243.75	2.02
244.133	2.34
244.515	2.71
244.897	3.11
245.279	2.83
245.661	2.04
246.043	2.19
246.425	2.68
246.807	2.8
247.189	1.54
247.571	1.54
247.953	1.85
248.335	2.42
248.717	2.48
249.098	2.59
249.48	2.32
249.862	2.38
250.243	2.92
250.625	2.71
251.006	3.19
251.388	2.17
251.769	1.69
252.151	1.73
252.532	1.03
252.913	3.2
253.295	2.36
253.676	2.9
254.057	2.13
254.438	1.68
254.819	1.64
255.2	1.88
255.581	1.8
255.962	2.55
256.343	1.71
256.724	1.86
257.105	1.68
257.486	2.26
257.867	1.55
258.247	2.09
258.628	2.86
259.009	2.12
259.389	2
259.77	2
260.15	2.16
260.531	2.32
260.911	2.03
261.292	2.09
261.672	2.29
262.052	2.04
262.432	2.29
262.813	3.05
263.193	2.39
263.573	2.51
263.953	2.75
264.333	2.35
264.713	2.15
265.093	1.5
265.473	1.79
265.853	3.07
266.233	1.89
266.612	3.3
266.992	1.14
267.372	2.22
267.752	1.97
268.131	2.02
268.511	2.91
268.89	2.42
269.27	2.3
269.649	2.08
270.029	1.97
270.408	2.46
270.787	2.31
271.167	1.84
271.546	2.71
271.925	2.2
272.304	2.18
272.683	1.81
273.062	1.9
273.441	2.17
273.82	2.15
274.199	2.23
274.578	1.87
274.957	2.43
275.336	2.44
275.715	2.49
276.093	2.39
276.472	1.82
276.851	1.59
277.229	1.93
277.608	2.39
277.986	2.43
278.365	1.6
278.743	2.59
279.122	1.66
279.5	1.56
279.878	2.74
280.257	2.27
280.635	1.99
281.013	1.46
281.391	2.33
281.769	2.32
282.147	2.23
282.525	1.48
282.903	2.1
283.281	2.04
283.659	2.25
284.037	2.02
284.415	2.18
284.792	2.32
285.17	2.27
285.548	1.81
285.925	1.6
286.303	2.45
286.68	1.59
287.058	1.85
287.435	1.78
287.813	2.3
288.19	1.64
288.567	1.75
288.945	2.16
289.322	2.27
289.699	2
290.076	1.43
290.453	2.16
290.83	1.98
291.207	1.91
291.584	1.4
291.961	1.9
292.338	1.88
292.715	1.97
293.092	2.01
293.469	1.79
293.845	2.19
294.222	1.65
294.599	1.79
294.975	1.53
295.352	2.35
295.728	1.59
296.105	2.33
296.481	1.6
296.858	1.92
297.234	2.04
297.61	2.31
297.986	2.29
298.363	1.8
298.739	1.45
299.115	2.14
299.491	2.25
299.867	2.15
300.243	2.12
300.619	1.87
300.995	1.92
301.371	2
301.746	1.88
302.122	2.43
302.498	1.93
302.874	2.19
303.249	2.02
303.625	2.12
304	2.04
304.376	1.48
304.751	2.25
305.127	2.19
305.502	2.17
305.878	2.38
306.253	2.06
306.628	1.39
307.003	2.1
307.378	2.11
307.754	2.46
308.129	2.81
308.504	2.67
308.879	2.07
309.254	2.15
309.629	1.64
310.003	2.17
310.378	1.81
310.753	1.78
311.128	2
311.502	1.51
311.877	2.19
312.252	2.41
312.626	2.06
313.001	1.85
313.375	2.34
313.75	2.29
314.124	2.04
314.498	2.06
314.873	2.42
315.247	2.16
315.621	2.01
315.995	2.1
316.369	2.07
316.743	2.38
317.117	2.4
317.491	1.8
317.865	2.46
318.239	2.35
318.613	2.05
318.987	1.7
319.361	2.17
319.734	1.81
320.108	2.11
320.482	2.31
320.855	1.82
321.229	1.81
321.602	2.37
321.976	1.99
322.349	2.2
322.723	1.46
323.096	1.34
323.469	1.97
323.843	2.62
324.216	2.49
324.589	2.22
324.962	1.76
325.335	2.41
325.708	2.06
326.081	2.24
326.454	2.44
326.827	2.18
327.2	2.04
327.573	1.77
327.945	2.36
328.318	2.39
328.691	2.29
329.063	1.98
329.436	1.9
329.809	1.37
330.181	2.14
330.553	2.53
330.926	2.08
331.298	2.31
331.671	1.83
332.043	1.88
332.415	1.98
332.787	2.06
333.159	2.47
333.532	2.42
333.904	2.29
334.276	2.21
334.648	1.95
335.02	2.65
335.391	2.66
335.763	2
336.135	1.75
336.507	1.65
336.879	2.46
337.25	1.56
337.622	1.66
337.993	2.59
338.365	2.4
338.736	2.63
339.108	2.28
339.479	2.49
339.851	2.05
340.222	2.16
340.593	2.23
340.964	2.38
341.336	2.33
341.707	1.76
342.078	2.32
342.449	2.26
342.82	2.16
343.191	2.36
343.562	2.25
343.933	2.37
344.303	2.56
344.674	1.75
345.045	2.85
345.416	2.12
345.786	2.27
346.157	2.35
346.527	2.25
346.898	2.36
347.268	2.79
347.639	2.12
348.009	2.21
348.38	2.16
348.75	1.86
349.12	2.49
349.49	2.38
349.861	2.53
350.231	2.35
350.601	2.11
350.971	2.24
351.341	2.58
351.711	2.17
352.081	2.06
352.45	2.47
352.82	2.42
353.19	2.36
353.56	2.41
353.929	2.67
354.299	2.3
354.669	2.35
355.038	2.5
355.408	2.3
355.777	2.47
356.147	2.1
356.516	2.73
356.885	2.1
357.254	2.42
357.624	2.3
357.993	2.34
358.362	2.22
358.731	2.38
359.1	2.31
359.469	2.01
359.838	2.29
360.207	2.6
360.576	2.02
360.945	2.24
361.314	2.08
361.682	2.14
362.051	2.32
362.42	2.41
362.788	2.43
363.157	2.46
363.525	2.21
363.894	2.44
364.262	2.28
364.631	2.33
364.999	2.56
365.367	2.33
365.735	2.74
366.104	2.47
366.472	2.69
366.84	2.63
367.208	2.72
367.576	2.36
367.944	2.24
368.312	2.12
368.68	2.8
369.048	2.96
369.416	2.3
369.783	2.53
370.151	2.3
370.519	2.38
370.886	2.42
371.254	2.16
371.621	2.36
371.989	2.17
372.356	2.55
372.724	2.44
373.091	2.21
373.458	2.36
373.826	2.29
374.193	2.66
374.56	2.05
374.927	2.56
375.294	2.15
375.661	2.28
376.028	2.83
376.395	2.17
376.762	2.85
377.129	2.35
377.496	2.58
377.863	2.64
378.229	2.44
378.596	2.02
378.963	2.33
379.329	2.62
379.696	2.6
380.062	2.46
380.429	2.24
380.795	2.64
381.161	2.49
381.528	2.62
381.894	2.45
382.26	2.37
382.626	2.33
382.993	2.58
383.359	2.39
383.725	2.49
384.091	2.61
384.457	2.14
384.823	2.48
385.188	2.44
385.554	2.17
385.92	2.35
386.286	2.37
386.651	2.27
387.017	2.46
387.383	2.16
387.748	2.1
388.114	2.14
388.479	2.6
388.845	2.5
389.21	2.61
389.575	2.36
389.94	2.4
390.306	2.54
390.671	2.36
391.036	2.49
391.401	2.37
391.766	2.58
392.131	2.77
392.496	2.38
392.861	2.29
393.226	2.6
393.591	2.42
393.956	2.61
394.32	2.63
394.685	2.5
395.05	2.72
395.414	2.27
395.779	2.32
396.143	2.54
396.508	2.39
396.872	2.57
397.236	2.45
397.601	2.59
397.965	2.14
398.329	2.35
398.694	2.67
399.058	2.72
399.422	2.5
399.786	2.55
400.15	2.67
400.514	2.57
400.878	2.51
401.242	2.29
401.605	2.29
401.969	2.53
402.333	2.45
402.697	2.77
403.06	2.66
403.424	2.57
403.787	2.5
404.151	2.56
404.514	2.45
404.878	2.41
405.241	2.34
405.604	2.72
405.968	2.66
406.331	2.57
406.694	2.49
407.057	2.66
407.42	2.45
407.783	2.76
408.146	2.78
408.509	2.68
408.872	2.72
409.235	2.92
409.598	2.66
409.961	2.52
410.323	2.5
410.686	2.74
411.049	2.49
411.411	2.39
411.774	2.39
412.136	2.49
412.499	2.64
412.861	2.61
413.223	2.78
413.586	2.66
413.948	2.6
414.31	2.8
414.672	2.7
415.035	2.79
415.397	2.44
415.759	2.64
416.121	2.59
416.483	2.51
416.845	2.7
417.206	2.63
417.568	2.72
417.93	2.89
418.292	2.67
418.653	2.44
419.015	2.58
419.377	2.64
419.738	2.48
420.1	2.62
420.461	2.52
420.822	2.44
421.184	2.49
421.545	2.62
421.906	2.55
422.267	2.65
422.629	2.42
422.99	2.49
423.351	2.58
423.712	2.51
424.073	2.72
424.434	2.53
424.795	2.52
425.155	2.56
425.516	2.61
425.877	2.58
426.238	2.44
426.598	2.58
426.959	2.48
427.32	2.55
427.68	2.66
428.041	2.61
428.401	2.65
428.761	2.82
429.122	2.64
429.482	2.4
429.842	2.63
430.202	2.8
430.563	2.85
430.923	2.7
431.283	2.82
431.643	2.81
432.003	2.62
432.363	2.58
432.722	2.74
433.082	2.64
433.442	2.73
433.802	2.79
434.161	2.6
434.521	2.66
434.881	2.58
435.24	2.76
435.6	2.7
435.959	2.75
436.319	2.74
436.678	2.65
437.037	2.59
437.396	2.7
437.756	2.87
438.115	2.79
438.474	2.59
438.833	2.67
439.192	2.78
439.551	2.79
439.91	2.7
440.269	2.77
440.628	2.63
440.987	2.68
441.345	2.68
441.704	2.74
442.063	2.78
442.421	2.67
442.78	2.69
443.138	2.7
443.497	2.72
443.855	2.74
444.214	2.65
444.572	2.8
444.93	2.78
445.288	2.62
445.647	2.43
446.005	2.69
446.363	2.72
446.721	2.71
447.079	2.63
447.437	2.62
447.795	2.64
448.153	2.76
448.51	2.63
448.868	2.72
449.226	2.76
449.584	2.75
449.941	2.67
450.299	2.64
450.656	2.79
451.014	2.84
451.371	2.81
451.729	2.73
452.086	2.82
452.443	2.78
452.801	2.84
453.158	2.88
453.515	2.64
453.872	2.63
454.229	2.65
454.586	2.69
454.943	2.51
455.3	2.82
455.657	2.73
456.014	2.89
456.371	2.73
456.727	2.79
457.084	2.8
457.441	2.75
457.797	2.84
458.154	2.71
458.51	2.87
458.867	2.82
459.223	2.73
459.58	2.72
459.936	2.81
460.292	2.77
460.648	2.66
461.005	2.67
461.361	2.6
461.717	2.68
462.073	2.69
462.429	2.83
462.785	2.84
463.141	2.77
463.496	2.84
463.852	2.77
464.208	2.88
464.564	2.78
464.919	2.82
465.275	2.86
465.631	2.91
465.986	2.83
466.342	2.78
466.697	2.89
467.052	2.89
467.408	2.88
467.763	2.68
468.118	2.86
468.473	2.89
468.829	2.9
469.184	2.66
469.539	2.95
469.894	3
470.249	3.03
470.603	2.95
470.958	2.76
471.313	2.9
471.668	2.68
472.023	2.91
472.377	2.97
472.732	3.06
473.086	2.84
473.441	2.73
473.795	3.03
474.15	2.87
474.504	2.82
474.859	2.83
475.213	2.91
475.567	2.62
475.921	2.85
476.275	2.93
476.63	2.89
476.984	2.89
477.338	2.99
477.692	2.85
478.045	2.84
478.399	2.78
478.753	2.89
479.107	2.83
479.461	2.73
479.814	2.8
480.168	2.87
480.521	2.84
480.875	2.94
481.228	2.8
481.582	2.95
481.935	2.93
482.289	2.96
482.642	2.83
482.995	2.84
483.348	2.83
483.701	2.84
484.055	2.76
484.408	2.8
484.761	2.66
485.114	2.56
485.466	2.53
485.819	2.57
486.172	2.68
486.525	2.85
486.878	2.82
487.23	2.92
487.583	2.88
487.936	2.81
488.288	2.76
488.641	2.66
488.993	2.7
489.345	2.66
489.698	2.67
490.05	2.78
490.402	2.77
490.754	2.9
491.107	2.89
491.459	2.95
491.811	2.82
492.163	2.81
492.515	2.78
492.866	2.68
493.218	2.69
493.57	2.64
493.922	2.81
494.274	2.91
494.625	2.88
494.977	2.96
495.328	3.03
495.68	2.89
496.031	2.91
496.383	3.04
496.734	2.93
497.086	2.89
497.437	3
497.788	2.96
498.139	2.91
498.49	2.94
498.842	2.94
499.193	2.9
499.544	3.03
499.894	2.87
500.245	2.93
500.596	2.93
500.947	3.04
501.298	2.92
501.648	2.99
501.999	2.95
502.35	3.05
502.7	3.09
503.051	3.06
503.401	2.95
503.752	3.04
504.102	3.07
504.452	2.91
504.803	3.1
505.153	2.98
505.503	2.98
505.853	2.89
506.203	2.96
506.553	2.92
506.903	2.89
507.253	2.83
507.603	3.02
507.953	3.08
508.303	3
508.652	3.02
509.002	3
509.352	3.06
509.701	2.96
510.051	3.06
510.4	2.84
510.75	3.01
511.099	2.98
511.449	2.84
511.798	2.97
512.147	2.91
512.496	3
512.846	2.94
513.195	2.91
513.544	2.96
513.893	2.96
514.242	3
514.591	3.03
514.939	3
515.288	3.09
515.637	3.09
515.986	2.98
516.334	3
516.683	3.02
517.032	3.12
517.38	3.07
517.729	3.2
518.077	2.93
518.426	3.02
518.774	3.06
519.122	2.93
519.47	3.03
519.819	2.88
520.167	2.94
520.515	2.84
520.863	2.99
521.211	2.99
521.559	3.01
521.907	3.1
522.255	2.99
522.602	3.09
522.95	3.06
523.298	3.06
523.645	3.04
523.993	3.03
524.341	3.1
524.688	3.1
525.036	3.04
525.383	3.07
525.73	3
526.078	3.05
526.425	3.03
526.772	3.03
527.119	2.89
527.466	2.95
527.814	2.95
528.161	2.96
528.508	3.03
528.854	3.06
529.201	2.91
529.548	2.94
529.895	2.88
530.242	2.79
530.588	2.85
530.935	2.92
531.282	3
531.628	3.07
531.975	3.07
532.321	3.1
532.667	3.14
533.014	3.17
533.36	3.07
533.706	3.06
534.052	3.03
534.399	3.02
534.745	2.94
535.091	2.89
535.437	2.91
535.783	3.07
536.129	3.16
536.474	3.04
536.82	3.04
537.166	3.13
537.512	3.14
537.857	3.04
538.203	2.98
538.549	2.95
538.894	2.97
539.239	3.21
539.585	3.13
539.93	3.04
540.276	3.27
540.621	3.25
540.966	3.08
541.311	3.05
541.656	3.16
542.001	3.01
542.346	2.98
542.691	2.98
543.036	2.87
543.381	2.87
543.726	2.98
544.071	3.06
544.415	3.06
544.76	3.04
545.105	3.12
545.449	3.1
545.794	3.09
546.138	3.09
546.483	3.17
546.827	3.21
547.171	3.22
547.516	2.98
547.86	3.13
548.204	3.16
548.548	3.13
548.892	3.01
549.236	3.07
549.58	3.27
549.924	3.31
550.268	3.24
550.612	3.31
550.956	3.15
551.3	3.16
551.643	3.33
551.987	3.3
552.33	3.13
552.674	3.04
553.017	3.26
553.361	3.33
553.704	3.35
554.048	3.04
554.391	3.28
554.734	3.24
555.077	3.17
555.42	3.29
555.764	3.24
556.107	3.36
556.45	3.35
556.793	3.34
557.135	3.28
557.478	3.23
557.821	3.28
558.164	3.37
558.507	3.34
558.849	3.17
559.192	3.25
559.534	3.43
559.877	3.19
560.219	3.22
560.562	3.43
560.904	3.36
561.246	3.27
561.589	3.28
561.931	3.44
562.273	3.35
562.615	3.19
562.957	3.32
563.299	3.32
563.641	3.34
563.983	3.46
564.325	3.31
564.667	3.41
565.008	3.39
565.35	3.26
565.692	3.33
566.033	3.36
566.375	3.14
566.716	3.22
567.058	3.3
567.399	3.34
567.741	3.2
568.082	3.46
568.423	3.12
568.764	3.19
569.105	3.36
569.447	3.39
569.788	3.41
570.129	3.49
570.47	3.35
570.811	3.49
571.151	3.43
571.492	3.36
571.833	3.29
572.174	3.42
572.514	3.26
572.855	3.28
573.195	3.24
573.536	3.23
573.876	3.34
574.217	3.31
574.557	3.34
574.898	3.24
575.238	3.51
575.578	3.29
575.918	3.31
576.258	3.28
576.598	3.25
576.938	3.39
577.278	3.3
577.618	3.42
577.958	3.42
578.298	3.3
578.638	3.21
578.977	3.4
579.317	3.35
579.657	3.39
579.996	3.48
580.336	3.48
580.675	3.31
581.014	3.55
581.354	3.43
581.693	3.45
582.032	3.54
582.372	3.27
582.711	3.61
583.05	3.59
583.389	3.52
583.728	3.37
584.067	3.55
584.406	3.63
584.745	3.45
585.083	3.55
585.422	3.5
585.761	3.59
586.1	3.22
586.438	3.48
586.777	3.22
587.115	3.57
587.454	3.61
587.792	3.46
588.13	3.57
588.469	3.31
588.807	3.39
589.145	3.18
589.483	3.63
589.821	3.63
590.159	3.29
590.497	3.34
590.835	3.45
591.173	3.64
591.511	3.46
591.849	3.48
592.187	3.54
592.524	3.38
592.862	3.59
593.2	3.32
593.537	3.66
593.875	3.69
594.212	3.52
594.55	3.47
594.887	3.52
595.224	3.4
595.561	3.39
595.899	3.46
596.236	3.6
596.573	3.5
596.91	3.53
597.247	3.44
597.584	3.66
597.921	3.57
598.258	3.25
598.594	3.22
598.931	3.42
599.268	3.54
599.604	3.43
599.941	3.48
600.277	3.59
600.614	3.76
600.95	3.48
601.287	3.44
601.623	3.6
601.959	3.8
602.296	3.54
602.632	3.57
602.968	3.49
603.304	3.55
603.64	3.26
603.976	3.62
604.312	3.72
604.648	3.66
604.984	3.49
605.319	3.59
605.655	3.57
605.991	3.59
606.326	3.46
606.662	3.51
606.998	3.42
607.333	3.61
607.668	3.67
608.004	3.69
608.339	3.5
608.674	3.66
609.01	3.59
609.345	3.95
609.68	3.44
610.015	3.69
610.35	3.58
610.685	3.59
611.02	3.59
611.355	3.62
611.689	3.63
612.024	3.5
612.359	3.66
612.694	3.53
613.028	3.35
613.363	3.45
613.697	3.85
614.032	3.61
614.366	3.46
614.7	3.7
615.035	3.69
615.369	3.66
615.703	3.88
616.037	3.33
616.371	3.88
616.705	3.22
617.039	3.71
617.373	3.35
617.707	3.83
618.041	3.69
618.375	3.87
618.709	3.45
619.042	3.39
619.376	3.77
619.71	3.93
620.043	3.61
620.377	3.74
620.71	3.85
621.043	4.01
621.377	3.4
621.71	3.35
622.043	3.54
622.376	3.72
622.709	3.71
623.043	3.56
623.376	3.79
623.709	3.51
624.041	3.89
624.374	3.55
624.707	4.25
625.04	3.7
625.373	3.59
625.705	3.74
626.038	4.05
626.37	3.73
626.703	3.61
627.035	3.57
627.368	4.24
627.7	3.94
628.032	3.64
628.365	3.55
628.697	3.68
629.029	3.79
629.361	3.64
629.693	3.72
630.025	3.93
630.357	3.74
630.689	3.65
631.021	3.71
631.353	3.98
631.684	3.76
632.016	3.73
632.348	3.92
632.679	3.54
633.011	3.43
633.342	3.94
633.674	4.32
634.005	3.67
634.336	3.82
634.668	3.67
634.999	3.53
635.33	3.72
635.661	3.64
635.992	3.55
636.323	3.71
636.654	3.76
636.985	3.98
637.316	3.72
637.647	3.83
637.977	3.84
638.308	3.56
638.639	4.07
638.969	3.47
639.3	4.12
639.63	3.5
639.961	4.37
640.291	3.75
640.622	3.55
640.952	3.94
641.282	3.98
641.612	3.64
641.943	4.06
642.273	3.62
642.603	4.1
642.933	3.65
643.263	3.73
643.592	3.85
643.922	3.34
644.252	3.58
644.582	3.57
644.911	3.82
645.241	3.98
645.571	3.97
645.9	4.05
646.23	3.85
646.559	3.55
646.888	4.19
647.218	3.9
647.547	4.28
647.876	3.75
648.205	3.75
648.534	3.47
648.863	4.15
649.192	4.46
649.521	4.14
649.85	3.91
650.179	3.49
650.508	3.97
650.837	4.14
651.165	3.73
651.494	4.25
651.822	3.65
652.151	3.8
652.479	3.84
652.808	4.23
653.136	3.79
653.465	3.74
653.793	4.11
654.121	3.75
654.449	3.99
654.777	3.97
655.105	4.17
655.433	3.68
655.761	4.14
656.089	4.14
656.417	4.31
656.745	4.01
657.073	4.23
657.4	3.69
657.728	4.19
658.056	3.27
658.383	4.29
658.711	3.85
659.038	3.77
659.365	4.42
659.693	3.42
660.02	3.68
660.347	4.27
660.674	3.97
661.001	4.11
661.329	3.92
661.656	3.88
661.982	4.15
662.309	4.18
662.636	4.43
662.963	4.57
663.29	3.8
663.616	4.26
663.943	4.22
664.27	3.67
664.596	4.31
664.923	3.6
665.249	4.09
665.576	4.08
665.902	4.35
666.228	3.48
666.554	4.39
666.881	4.29
667.207	4.21
667.533	4.01
667.859	4.14
668.185	4.31
668.511	4.15
668.837	4.33
669.162	4.73
669.488	4.64
669.814	3.97
670.139	4.14
670.465	4.53
670.791	4.07
671.116	4.2
671.442	4.62
671.767	4.11
672.092	4.07
672.418	4.47
672.743	4.31
673.068	4.4
673.393	4.35
673.718	4.75
674.043	3.73
674.368	4.14
674.693	5.46
675.018	4.11
675.343	4.35
675.667	3.81
675.992	3.61
676.317	4.37
676.641	4.06
676.966	3.81
677.29	4.15
677.615	4.87
677.939	3.79
678.264	4.37
678.588	3.74
678.912	3.82
679.236	4.29
679.56	4.61
679.885	4.16
680.209	3.17
680.532	4.63
680.856	4.15
681.18	4.45
681.504	4.48
681.828	4.31
682.152	3.91
682.475	4.01
682.799	4.08
683.122	4.09
683.446	4.6
683.769	4.82
684.093	4.5
684.416	4.43
684.739	4.37
685.062	4.21
685.386	3.79
685.709	3.94
686.032	4.48
686.355	4.34
686.678	4.03
687.001	3.77
687.324	4.47
687.646	4.5
687.969	4
688.292	4.39
688.614	3.95
688.937	4.47
689.26	3.94
689.582	4.03
689.904	4.34
690.227	4.37
690.549	4.42
690.871	4.88
691.194	4.79
691.516	3.93
691.838	4.58
692.16	4.84
692.482	3.91
692.804	4.38
