Data from 815646_crown_Reflection__1__68.txt Node

Date: Fri Sep 16 15:03:35 CDT 2022
User: ToomeyLab
Spectrometer: FLMS14357
Trigger mode: 0
Integration Time (sec): 1.000000E-2
Scans to average: 100
Electric dark correction enabled: true
Nonlinearity correction enabled: false
Boxcar width: 0
XAxis mode: Wavelengths
Number of Pixels in Spectrum: 2048
>>>>>Begin Spectral Data<<<<<
189.047	-349.86
189.435	-349.86
189.823	-349.86
190.211	177.88
190.599	141.43
190.987	138.15
191.375	221.29
191.763	2732.26
192.151	-64.1
192.538	180.63
192.926	-255.56
193.314	147.07
193.702	818.32
194.089	77.03
194.477	-30.61
194.864	139.73
195.252	65.78
195.639	998.06
196.027	72.64
196.414	98.9
196.801	-47.41
197.189	40.4
197.576	-203.11
197.963	-524.88
198.351	-46.76
198.738	-47.4
199.125	31.25
199.512	-127.03
199.899	-16.76
200.286	0.6
200.673	12.09
201.06	-6.64
201.447	-7.77
201.833	-7
202.22	-9.76
202.607	-11.13
202.994	30.53
203.38	-16.81
203.767	44.73
204.154	11.58
204.54	-6.5
204.927	-63.34
205.313	15.6
205.699	35.1
206.086	28.26
206.472	16.59
206.858	17.1
207.245	7.29
207.631	15.08
208.017	-7.23
208.403	-49.34
208.789	-9.52
209.175	3.55
209.561	12.5
209.947	4.57
210.333	-8.29
210.719	-30.35
211.105	-7.34
211.491	-27.91
211.876	-2.21
212.262	18.04
212.648	11.96
213.034	-6.69
213.419	-17.06
213.805	28.79
214.19	8.27
214.576	3.07
214.961	-18.55
215.346	-13.65
215.732	-70.16
216.117	42.06
216.502	-30.59
216.888	-12.77
217.273	-2.75
217.658	-4.4
218.043	-45.57
218.428	10.15
218.813	5.33
219.198	-13.66
219.583	4.35
219.968	4.74
220.353	-13.28
220.738	13.57
221.122	9.27
221.507	18.59
221.892	1.33
222.276	4.8
222.661	8.58
223.046	10.21
223.43	4.27
223.815	-4.56
224.199	-3.71
224.583	5.33
224.968	5.97
225.352	-12.74
225.736	5.16
226.121	-0.3
226.505	0.46
226.889	0.65
227.273	2.71
227.657	1.68
228.041	-0.6
228.425	-4.16
228.809	4
229.193	2.25
229.577	2.65
229.961	1.18
230.344	3.06
230.728	2.35
231.112	1.75
231.495	1.92
231.879	3.05
232.263	0.15
232.646	2.08
233.03	1.54
233.413	3.69
233.797	0.46
234.18	3.64
234.563	2.54
234.946	1.9
235.33	3.27
235.713	0.89
236.096	2.05
236.479	2.69
236.862	0.93
237.245	1.19
237.628	2.26
238.011	1.68
238.394	1.44
238.777	2.76
239.16	1.52
239.543	4.2
239.925	3.06
240.308	-0.31
240.691	2.48
241.073	2.07
241.456	1.49
241.838	1.16
242.221	2.35
242.603	2.25
242.986	1.38
243.368	1.85
243.75	2.12
244.133	2.26
244.515	1.75
244.897	2.57
245.279	1.88
245.661	1.86
246.043	0.99
246.425	2.18
246.807	2.67
247.189	1.93
247.571	1.5
247.953	2.1
248.335	2.11
248.717	1.86
249.098	2.19
249.48	2.01
249.862	1.95
250.243	1.94
250.625	1.87
251.006	1.87
251.388	1.94
251.769	1.22
252.151	1.16
252.532	2.49
252.913	1.91
253.295	1.9
253.676	1.81
254.057	1.59
254.438	1.24
254.819	1.09
255.2	1.42
255.581	1.73
255.962	1.79
256.343	2.16
256.724	1.53
257.105	1.22
257.486	2.65
257.867	1.14
258.247	1.99
258.628	1.48
259.009	1.78
259.389	1.83
259.77	1.22
260.15	1.9
260.531	1.37
260.911	1.97
261.292	1.55
261.672	1.95
262.052	1.62
262.432	1.77
262.813	2.32
263.193	1.65
263.573	1.91
263.953	2.13
264.333	1.97
264.713	1.49
265.093	1.25
265.473	1.65
265.853	2.29
266.233	1.81
266.612	2.32
266.992	1.32
267.372	2.34
267.752	1.76
268.131	2.09
268.511	2.06
268.89	2.06
269.27	1.91
269.649	1.42
270.029	1.85
270.408	1.59
270.787	1.77
271.167	1.36
271.546	2.57
271.925	2.24
272.304	1.63
272.683	1.22
273.062	1.99
273.441	1.95
273.82	1.88
274.199	1.8
274.578	1.78
274.957	2.15
275.336	1.91
275.715	2.14
276.093	1.7
276.472	1.84
276.851	1.97
277.229	1.56
277.608	2.06
277.986	2.34
278.365	1.36
278.743	2.26
279.122	1.45
279.5	1.47
279.878	1.37
280.257	2.34
280.635	2.26
281.013	1.32
281.391	2.27
281.769	2.01
282.147	1.81
282.525	1.4
282.903	1.6
283.281	1.8
283.659	1.57
284.037	2.13
284.415	1.95
284.792	2.15
285.17	2.1
285.548	1.3
285.925	1.55
286.303	1.96
286.68	1.91
287.058	1.36
287.435	1.75
287.813	2.07
288.19	1.68
288.567	1.8
288.945	1.52
289.322	1.84
289.699	1.87
290.076	1.67
290.453	2.17
290.83	1.98
291.207	1.75
291.584	1.67
291.961	1.72
292.338	2.02
292.715	1.49
293.092	1.85
293.469	1.5
293.845	1.79
294.222	1.74
294.599	1.96
294.975	1.49
295.352	1.84
295.728	1.46
296.105	2.02
296.481	1.31
296.858	1.39
297.234	2.05
297.61	2.33
297.986	2.06
298.363	1.96
298.739	1.55
299.115	2.07
299.491	2.09
299.867	1.96
300.243	1.96
300.619	2.2
300.995	1.55
301.371	2.07
301.746	1.67
302.122	1.99
302.498	1.91
302.874	1.83
303.249	2.12
303.625	1.85
304	1.86
304.376	1.61
304.751	2.06
305.127	1.34
305.502	1.72
305.878	1.69
306.253	2.32
306.628	1.74
307.003	2.18
307.378	2.37
307.754	2.5
308.129	2.44
308.504	2.09
308.879	1.99
309.254	1.94
309.629	1.33
310.003	2
310.378	1.6
310.753	1.68
311.128	1.81
311.502	1.69
311.877	2.09
312.252	2.3
312.626	1.94
313.001	2.07
313.375	2.16
313.75	2.08
314.124	2.07
314.498	2.08
314.873	2.2
315.247	1.82
315.621	2.16
315.995	2.24
316.369	2.03
316.743	2.43
317.117	1.68
317.491	1.8
317.865	2.42
318.239	2.6
318.613	2.32
318.987	1.99
319.361	1.44
319.734	1.7
320.108	1.75
320.482	1.99
320.855	1.79
321.229	2.21
321.602	2.65
321.976	1.64
322.349	1.48
322.723	2.06
323.096	2.06
323.469	1.96
323.843	2.42
324.216	2.3
324.589	2.2
324.962	2.16
325.335	2.47
325.708	2.18
326.081	2.11
326.454	2.02
326.827	1.97
327.2	1.83
327.573	1.59
327.945	2.29
328.318	2.02
328.691	2.22
329.063	1.9
329.436	1.96
329.809	1.67
330.181	2.32
330.553	2.06
330.926	2.24
331.298	2.24
331.671	1.89
332.043	1.23
332.415	2.34
332.787	2.85
333.159	1.73
333.532	2.91
333.904	2.06
334.276	2.28
334.648	2.26
335.02	2.28
335.391	2.57
335.763	1.53
336.135	1.52
336.507	2.21
336.879	2.34
337.25	1.09
337.622	1.85
337.993	2.39
338.365	2.5
338.736	2.94
339.108	2.24
339.479	2.24
339.851	2.23
340.222	1.96
340.593	2.48
340.964	2.27
341.336	2.18
341.707	1.86
342.078	2.55
342.449	2.32
342.82	1.86
343.191	2.27
343.562	2.1
343.933	2.47
344.303	2.57
344.674	1.36
345.045	2.06
345.416	2.11
345.786	2.39
346.157	2.07
346.527	1.86
346.898	2.26
347.268	2.75
347.639	1.81
348.009	2.3
348.38	2.36
348.75	2.05
349.12	2.56
349.49	2.45
349.861	2.31
350.231	2.14
350.601	2.26
350.971	2.07
351.341	2.4
351.711	2.27
352.081	1.79
352.45	2.76
352.82	2.76
353.19	2.33
353.56	2.84
353.929	2.39
354.299	2.06
354.669	2.09
355.038	2.11
355.408	2.5
355.777	2.03
356.147	1.96
356.516	2.26
356.885	2.69
357.254	2.7
357.624	2.06
357.993	2.22
358.362	1.79
358.731	2.64
359.1	2.26
359.469	2.26
359.838	2.22
360.207	2.3
360.576	2.11
360.945	2.16
361.314	2.09
361.682	2.05
362.051	2.39
362.42	2.41
362.788	2.6
363.157	2.3
363.525	2.18
363.894	2.48
364.262	2.26
364.631	2.2
364.999	1.94
365.367	2.36
365.735	2.42
366.104	2.5
366.472	2.52
366.84	2.21
367.208	2.8
367.576	2.34
367.944	1.95
368.312	2.27
368.68	2.45
369.048	2.53
369.416	2.47
369.783	2.2
370.151	2.39
370.519	2.18
370.886	1.9
371.254	2.06
371.621	2.49
371.989	2.03
372.356	2.38
372.724	2.33
373.091	2.46
373.458	2.12
373.826	2.28
374.193	2.67
374.56	2.22
374.927	2.14
375.294	2.31
375.661	2.05
376.028	2.64
376.395	2.02
376.762	2.78
377.129	1.95
377.496	2.38
377.863	2.26
378.229	2.67
378.596	2.35
378.963	2.6
379.329	2.11
379.696	2.51
380.062	2.56
380.429	2.27
380.795	2.31
381.161	2.41
381.528	2.49
381.894	2.43
382.26	2.38
382.626	2.39
382.993	2.16
383.359	2.37
383.725	2.35
384.091	2.29
384.457	1.76
384.823	2.54
385.188	2.3
385.554	2.42
385.92	2.55
386.286	2.38
386.651	2.49
387.017	2.38
387.383	1.98
387.748	2.21
388.114	2.19
388.479	2.35
388.845	2.26
389.21	2.7
389.575	2.49
389.94	2.6
390.306	2.35
390.671	2.4
391.036	2.15
391.401	2.29
391.766	2.45
392.131	2.38
392.496	2.37
392.861	2.42
393.226	2.55
393.591	2.12
393.956	2.45
394.32	2.77
394.685	2.5
395.05	2.66
395.414	2.42
395.779	2.45
396.143	2.5
396.508	2.33
396.872	2.4
397.236	2.51
397.601	2.36
397.965	2.51
398.329	2.35
398.694	2.57
399.058	2.66
399.422	2.3
399.786	2.65
400.15	2.38
400.514	2.42
400.878	2.56
401.242	2.41
401.605	2.36
401.969	2.26
402.333	2.38
402.697	2.57
403.06	2.48
403.424	2.53
403.787	2.36
404.151	2.41
404.514	2.16
404.878	2.35
405.241	2.49
405.604	2.5
405.968	2.54
406.331	2.42
406.694	2.3
407.057	2.49
407.42	2.5
407.783	2.53
408.146	2.87
408.509	2.43
408.872	2.57
409.235	2.63
409.598	2.43
409.961	2.47
410.323	2.66
410.686	2.95
411.049	2.21
411.411	2.33
411.774	2.73
412.136	2.46
412.499	2.58
412.861	2.55
413.223	2.4
413.586	2.6
413.948	2.38
414.31	2.77
414.672	2.26
415.035	2.57
415.397	2.37
415.759	2.59
416.121	2.35
416.483	2.49
416.845	2.63
417.206	2.58
417.568	2.57
417.93	2.76
418.292	2.49
418.653	2.5
419.015	2.52
419.377	2.65
419.738	2.56
420.1	2.55
420.461	2.57
420.822	2.46
421.184	2.52
421.545	2.37
421.906	2.56
422.267	2.49
422.629	2.45
422.99	2.44
423.351	2.55
423.712	2.4
424.073	2.64
424.434	2.58
424.795	2.44
425.155	2.42
425.516	2.57
425.877	2.6
426.238	2.52
426.598	2.51
426.959	2.55
427.32	2.44
427.68	2.56
428.041	2.31
428.401	2.51
428.761	2.7
429.122	2.61
429.482	2.39
429.842	2.53
430.202	2.7
430.563	2.59
430.923	2.79
431.283	2.83
431.643	2.82
432.003	2.66
432.363	2.75
432.722	2.58
433.082	2.68
433.442	2.85
433.802	2.61
434.161	2.51
434.521	2.7
434.881	2.58
435.24	2.59
435.6	2.86
435.959	2.73
436.319	2.62
436.678	2.6
437.037	2.41
437.396	2.76
437.756	2.72
438.115	2.66
438.474	2.56
438.833	2.72
439.192	2.68
439.551	2.59
439.91	2.77
440.269	2.86
440.628	2.54
440.987	2.55
441.345	2.62
441.704	2.6
442.063	2.76
442.421	2.65
442.78	2.59
443.138	2.7
443.497	2.64
443.855	2.62
444.214	2.7
444.572	2.76
444.93	2.67
445.288	2.68
445.647	2.66
446.005	2.55
446.363	2.6
446.721	2.68
447.079	2.57
447.437	2.74
447.795	2.63
448.153	2.68
448.51	2.61
448.868	2.55
449.226	2.66
449.584	2.72
449.941	2.63
450.299	2.68
450.656	2.75
451.014	2.75
451.371	2.7
451.729	2.61
452.086	2.59
452.443	2.73
452.801	2.76
453.158	2.68
453.515	2.56
453.872	2.55
454.229	2.67
454.586	2.67
454.943	2.56
455.3	2.81
455.657	2.71
456.014	2.73
456.371	2.68
456.727	2.7
457.084	2.84
457.441	2.63
457.797	2.85
458.154	2.69
458.51	2.77
458.867	2.67
459.223	2.84
459.58	2.8
459.936	2.92
460.292	2.79
460.648	2.66
461.005	2.64
461.361	2.59
461.717	2.63
462.073	2.68
462.429	2.79
462.785	2.73
463.141	2.83
463.496	2.85
463.852	2.91
464.208	2.82
464.564	2.73
464.919	2.78
465.275	2.9
465.631	2.81
465.986	2.82
466.342	2.74
466.697	2.7
467.052	2.75
467.408	2.96
467.763	2.62
468.118	2.72
468.473	2.76
468.829	2.88
469.184	2.76
469.539	2.86
469.894	2.78
470.249	3.1
470.603	2.97
470.958	2.67
471.313	2.8
471.668	2.61
472.023	2.84
472.377	2.8
472.732	2.76
473.086	2.81
473.441	2.65
473.795	2.9
474.15	2.76
474.504	2.89
474.859	2.88
475.213	2.94
475.567	2.57
475.921	2.87
476.275	2.83
476.63	2.84
476.984	2.88
477.338	2.85
477.692	2.88
478.045	2.93
478.399	2.97
478.753	2.85
479.107	2.93
479.461	2.89
479.814	2.76
480.168	2.76
480.521	2.87
480.875	2.88
481.228	2.87
481.582	2.87
481.935	2.92
482.289	2.96
482.642	2.88
482.995	2.86
483.348	2.8
483.701	2.82
484.055	2.83
484.408	2.91
484.761	2.75
485.114	2.65
485.466	2.61
485.819	2.65
486.172	2.7
486.525	2.77
486.878	2.75
487.23	2.76
487.583	2.81
487.936	2.77
488.288	2.84
488.641	2.8
488.993	2.76
489.345	2.72
489.698	2.76
490.05	2.75
490.402	2.78
490.754	2.85
491.107	2.83
491.459	2.93
491.811	2.83
492.163	2.81
492.515	2.81
492.866	2.79
493.218	2.67
493.57	2.78
493.922	2.82
494.274	2.89
494.625	2.82
494.977	2.93
495.328	2.83
495.68	2.9
496.031	2.91
496.383	2.88
496.734	2.97
497.086	2.96
497.437	2.84
497.788	3.05
498.139	2.93
498.49	2.95
498.842	2.95
499.193	3.03
499.544	3
499.894	2.87
500.245	2.99
500.596	2.89
500.947	2.91
501.298	2.9
501.648	3.05
501.999	2.91
502.35	2.97
502.7	3
503.051	3.04
503.401	2.99
503.752	2.99
504.102	2.97
504.452	3.02
504.803	3.08
505.153	3.13
505.503	2.98
505.853	2.84
506.203	3.01
506.553	2.89
506.903	2.94
507.253	2.92
507.603	2.99
507.953	2.93
508.303	3.09
508.652	2.89
509.002	3.01
509.352	3.05
509.701	3.12
510.051	3.1
510.4	2.93
510.75	3.05
511.099	2.96
511.449	3.05
511.798	2.91
512.147	2.98
512.496	3
512.846	3.02
513.195	3.01
513.544	3.01
513.893	3.04
514.242	3.04
514.591	3.08
514.939	3.05
515.288	3.13
515.637	3.14
515.986	3
516.334	2.87
516.683	3.09
517.032	3.08
517.38	3.2
517.729	3.08
518.077	3.09
518.426	3.05
518.774	3.07
519.122	3.1
519.47	3.09
519.819	2.96
520.167	2.98
520.515	2.95
520.863	2.98
521.211	3.03
521.559	3.03
521.907	3.08
522.255	2.97
522.602	3.06
522.95	3.09
523.298	3.07
523.645	3.24
523.993	3.1
524.341	3.15
524.688	3.09
525.036	3.27
525.383	3.12
525.73	3.04
526.078	3.09
526.425	3.05
526.772	3.05
527.119	3.04
527.466	3.08
527.814	3
528.161	3.1
528.508	3.11
528.854	3.12
529.201	3.06
529.548	2.95
529.895	2.97
530.242	2.97
530.588	3
530.935	2.98
531.282	3.04
531.628	3.05
531.975	3.11
532.321	3.09
532.667	3.09
533.014	3.19
533.36	3.11
533.706	3.08
534.052	3.07
534.399	3.12
534.745	3.1
535.091	2.98
535.437	3.06
535.783	3.11
536.129	3.15
536.474	3.08
536.82	3.15
537.166	3.17
537.512	3.14
537.857	3.17
538.203	3
538.549	3.07
538.894	3.03
539.239	3.27
539.585	3.13
539.93	3.05
540.276	3.26
540.621	3.3
540.966	3.2
541.311	3.27
541.656	3.18
542.001	3.16
542.346	3.11
542.691	3.12
543.036	3.08
543.381	3
543.726	3.07
544.071	3.08
544.415	3.11
544.76	3.14
545.105	3.22
545.449	3.14
545.794	3.19
546.138	3.13
546.483	3.33
546.827	3.26
547.171	3.22
547.516	3.12
547.86	3.2
548.204	3.2
548.548	3.21
548.892	3.13
549.236	3.21
549.58	3.35
549.924	3.28
550.268	3.27
550.612	3.41
550.956	3.16
551.3	3.45
551.643	3.3
551.987	3.41
552.33	3.22
552.674	3.14
553.017	3.27
553.361	3.38
553.704	3.38
554.048	3.28
554.391	3.47
554.734	3.32
555.077	3.38
555.42	3.4
555.764	3.54
556.107	3.51
556.45	3.37
556.793	3.41
557.135	3.4
557.478	3.44
557.821	3.16
558.164	3.46
558.507	3.43
558.849	3.26
559.192	3.37
559.534	3.51
559.877	3.34
560.219	3.31
560.562	3.5
560.904	3.36
561.246	3.43
561.589	3.68
561.931	3.52
562.273	3.45
562.615	3.53
562.957	3.35
563.299	3.43
563.641	3.33
563.983	3.62
564.325	3.32
564.667	3.28
565.008	3.5
565.35	3.23
565.692	3.37
566.033	3.49
566.375	3.29
566.716	3.37
567.058	3.37
567.399	3.53
567.741	3.32
568.082	3.55
568.423	3.22
568.764	3.38
569.105	3.56
569.447	3.48
569.788	3.59
570.129	3.53
570.47	3.5
570.811	3.53
571.151	3.58
571.492	3.53
571.833	3.4
572.174	3.52
572.514	3.33
572.855	3.53
573.195	3.36
573.536	3.42
573.876	3.43
574.217	3.42
574.557	3.47
574.898	3.5
575.238	3.57
575.578	3.56
575.918	3.54
576.258	3.51
576.598	3.42
576.938	3.51
577.278	3.39
577.618	3.54
577.958	3.6
578.298	3.44
578.638	3.42
578.977	3.56
579.317	3.54
579.657	3.53
579.996	3.6
580.336	3.55
580.675	3.36
581.014	3.71
581.354	3.72
581.693	3.44
582.032	3.6
582.372	3.74
582.711	3.6
583.05	3.74
583.389	3.72
583.728	3.65
584.067	3.62
584.406	3.68
584.745	3.86
585.083	3.66
585.422	3.99
585.761	3.82
586.1	3.33
586.438	3.91
586.777	3.28
587.115	3.63
587.454	3.84
587.792	3.7
588.13	3.61
588.469	3.68
588.807	3.51
589.145	3.42
589.483	3.7
589.821	3.76
590.159	3.56
590.497	3.66
590.835	3.86
591.173	3.74
591.511	3.73
591.849	3.68
592.187	3.62
592.524	3.45
592.862	3.68
593.2	3.23
593.537	3.74
593.875	3.53
594.212	3.6
594.55	3.49
594.887	3.82
595.224	3.72
595.561	3.63
595.899	3.65
596.236	3.87
596.573	3.51
596.91	3.64
597.247	3.49
597.584	3.66
597.921	3.64
598.258	3.61
598.594	3.37
598.931	3.57
599.268	3.61
599.604	3.56
599.941	3.69
600.277	3.83
600.614	3.86
600.95	3.5
601.287	3.77
601.623	3.71
601.959	3.92
602.296	3.57
602.632	3.73
602.968	3.72
603.304	3.68
603.64	3.6
603.976	3.86
604.312	3.75
604.648	3.84
604.984	3.78
605.319	3.9
605.655	3.91
605.991	3.86
606.326	3.76
606.662	3.73
606.998	3.74
607.333	3.81
607.668	3.9
608.004	3.91
608.339	3.89
608.674	3.82
609.01	3.93
609.345	4.14
609.68	3.75
610.015	3.92
610.35	3.63
610.685	3.94
611.02	3.85
611.355	3.87
611.689	3.82
612.024	3.64
612.359	3.71
612.694	3.82
613.028	3.61
613.363	3.8
613.697	4.08
614.032	4.03
614.366	3.87
614.7	4.11
615.035	3.73
615.369	3.75
615.703	3.85
616.037	3.82
616.371	4.17
616.705	4.01
617.039	3.73
617.373	3.88
617.707	3.81
618.041	4.18
618.375	3.99
618.709	3.76
619.042	3.87
619.376	4.09
619.71	4.22
620.043	3.88
620.377	4.12
620.71	4.16
621.043	4.07
621.377	3.94
621.71	4.04
622.043	4.03
622.376	3.79
622.709	4.22
623.043	4.05
623.376	3.73
623.709	3.52
624.041	4.37
624.374	3.96
624.707	4.16
625.04	3.84
625.373	3.78
625.705	3.86
626.038	4.11
626.37	3.7
626.703	3.74
627.035	4.08
627.368	4.19
627.7	4.26
628.032	3.71
628.365	4.08
628.697	3.9
629.029	4.04
629.361	4.01
629.693	4.15
630.025	4.33
630.357	4.22
630.689	3.84
631.021	4.03
631.353	4.42
631.684	4.1
632.016	4.1
632.348	4.25
632.679	4.1
633.011	3.9
633.342	3.87
633.674	4.3
634.005	4.42
634.336	3.78
634.668	3.95
634.999	3.63
635.33	4.14
635.661	4.14
635.992	3.78
636.323	3.92
636.654	3.91
636.985	4.17
637.316	4.1
637.647	4.18
637.977	3.78
638.308	4.35
638.639	4.31
638.969	3.96
639.3	4.3
639.63	3.81
639.961	4.37
640.291	4.22
640.622	4.12
640.952	4.06
641.282	4.23
641.612	4.02
641.943	4.16
642.273	3.64
642.603	4.6
642.933	4.01
643.263	4.13
643.592	3.8
643.922	3.67
644.252	4.25
644.582	4.11
644.911	4.03
645.241	3.96
645.571	4.49
645.9	4.28
646.23	4.27
646.559	4.2
646.888	3.99
647.218	4.54
647.547	4.63
647.876	4.58
648.205	4.29
648.534	4.02
648.863	4.39
649.192	4.01
649.521	4.27
649.85	4.65
650.179	3.88
650.508	4.15
650.837	4.49
651.165	3.64
651.494	4.53
651.822	4.36
652.151	4.29
652.479	4.42
652.808	4.29
653.136	4.09
653.465	4.38
653.793	4.12
654.121	4.53
654.449	4.37
654.777	4.17
655.105	4.58
655.433	4.41
655.761	4.83
656.089	4.12
656.417	3.95
656.745	4.16
657.073	4.01
657.4	4.26
657.728	4.78
658.056	3.63
658.383	4.19
658.711	3.86
659.038	4.21
659.365	4.68
659.693	4.05
660.02	4.44
660.347	4.42
660.674	4.18
661.001	4.32
661.329	3.96
661.656	4.16
661.982	4.17
662.309	4.44
662.636	4.34
662.963	4.61
663.29	4.56
663.616	4.45
663.943	4.86
664.27	4.25
664.596	4.26
664.923	3.79
665.249	4.32
665.576	4.42
665.902	4.51
666.228	3.83
666.554	4.66
666.881	4.84
667.207	4.55
667.533	4.2
667.859	4.18
668.185	5.14
668.511	4.65
668.837	4.6
669.162	4.59
669.488	5.51
669.814	4.39
670.139	4.44
670.465	4.45
670.791	4.62
671.116	4.55
671.442	4.75
671.767	4.62
672.092	4.05
672.418	4.43
672.743	4.92
673.068	4.95
673.393	3.93
673.718	4.89
674.043	4.11
674.368	4.78
674.693	5.76
675.018	4.73
675.343	5
675.667	4.67
675.992	4.95
676.317	4.35
676.641	4.04
676.966	4.47
677.29	4.67
677.615	5.1
677.939	4.4
678.264	4.62
678.588	4.66
678.912	4.53
679.236	4.44
679.56	4.36
679.885	4.57
680.209	4.29
680.532	4.91
680.856	4.33
681.18	4.64
681.504	4.18
681.828	4.21
682.152	4.6
682.475	4.84
682.799	4.19
683.122	4.58
683.446	4.99
683.769	4.51
684.093	4.66
684.416	4.63
684.739	4.17
685.062	4.83
685.386	4.6
685.709	4.42
686.032	4.54
686.355	4.77
686.678	4.19
687.001	4.3
687.324	4.81
687.646	5.33
687.969	5.19
688.292	4.12
688.614	4.16
688.937	4.59
689.26	5.12
689.582	4.69
689.904	4.51
690.227	5.2
690.549	4.8
690.871	4.47
691.194	4.11
691.516	4.57
691.838	5.21
692.16	5.07
692.482	4.25
692.804	4.17
