Data from 0034_forehead_Reflection__0__192.txt Node

Date: Thu Oct 20 22:24:32 CDT 2022
User: ToomeyLab
Spectrometer: FLMS14357
Trigger mode: 0
Integration Time (sec): 1.000000E-2
Scans to average: 100
Electric dark correction enabled: true
Nonlinearity correction enabled: false
Boxcar width: 0
XAxis mode: Wavelengths
Number of Pixels in Spectrum: 2048
>>>>>Begin Spectral Data<<<<<
189.047	-837.08
189.435	-837.08
189.823	-837.08
190.211	698.24
190.599	-19.04
190.987	-738.42
191.375	105.46
191.763	-32.92
192.151	145.3
192.538	-122.1
192.926	50.54
193.314	-1736.66
193.702	-0.59
194.089	82.59
194.477	-1057.85
194.864	-79.69
195.252	21.3
195.639	112.91
196.027	-55.37
196.414	103.59
196.801	-347.63
197.189	166.78
197.576	10.21
197.963	100
198.351	5.08
198.738	19.96
199.125	28.38
199.512	-2.31
199.899	2.54
200.286	55.99
200.673	4.57
201.06	58.95
201.447	21.62
201.833	-11.92
202.22	37.23
202.607	-13.64
202.994	-37.56
203.38	1.11
203.767	42.27
204.154	13.7
204.54	-47.77
204.927	18.21
205.313	53.87
205.699	57.84
206.086	37.94
206.472	68.39
206.858	3.98
207.245	-6.84
207.631	4.21
208.017	-14.43
208.403	-19.71
208.789	24.87
209.175	59.95
209.561	45.65
209.947	24.43
210.333	12.78
210.719	44.25
211.105	42.19
211.491	-44.85
211.876	16.43
212.262	33.37
212.648	20.44
213.034	14.8
213.419	-9.83
213.805	-12.29
214.19	-18.88
214.576	-28.48
214.961	3.23
215.346	-13.68
215.732	24.83
216.117	2.97
216.502	61.8
216.888	7.13
217.273	-13.56
217.658	31.77
218.043	19.77
218.428	12.76
218.813	26.57
219.198	22.1
219.583	31.11
219.968	28.58
220.353	17.09
220.738	18.65
221.122	13.44
221.507	23.02
221.892	15.38
222.276	14.07
222.661	17.3
223.046	27.59
223.43	-3.04
223.815	5.52
224.199	-16.55
224.583	10.83
224.968	15.62
225.352	17.59
225.736	10.19
226.121	-2.92
226.505	14.86
226.889	10.8
227.273	3.56
227.657	7.07
228.041	0.03
228.425	6.76
228.809	5.83
229.193	5.44
229.577	3.91
229.961	4.54
230.344	4.12
230.728	4.6
231.112	3.5
231.495	6.06
231.879	7.82
232.263	5.7
232.646	4.58
233.03	5.01
233.413	3.06
233.797	3.89
234.18	4.09
234.563	5.88
234.946	4.21
235.33	3.92
235.713	5.6
236.096	4.17
236.479	6.73
236.862	4.79
237.245	4.05
237.628	4.28
238.011	4.7
238.394	6.1
238.777	6.79
239.16	4.79
239.543	4.44
239.925	2.66
240.308	4.76
240.691	7
241.073	2.22
241.456	4.77
241.838	3.7
242.221	4.07
242.603	3.85
242.986	4.7
243.368	4.3
243.75	4.7
244.133	4.76
244.515	4.22
244.897	3.82
245.279	4.44
245.661	5.56
246.043	4.73
246.425	4.62
246.807	4.76
247.189	4.87
247.571	4.73
247.953	4.16
248.335	4.2
248.717	4.33
249.098	4.3
249.48	4.38
249.862	4.36
250.243	4.1
250.625	4.45
251.006	5.38
251.388	5.3
251.769	4.48
252.151	5.61
252.532	4.76
252.913	5.1
253.295	5.05
253.676	5.27
254.057	3.57
254.438	4.28
254.819	4.34
255.2	5.19
255.581	5.53
255.962	5.29
256.343	3.3
256.724	3.92
257.105	5.29
257.486	4.04
257.867	4.97
258.247	4.05
258.628	4.92
259.009	4.18
259.389	4.07
259.77	4.76
260.15	4.78
260.531	4.44
260.911	4.51
261.292	4.43
261.672	4.11
262.052	4.47
262.432	4.74
262.813	4.76
263.193	5.22
263.573	4.67
263.953	4.34
264.333	4.76
264.713	4.28
265.093	4.34
265.473	4.7
265.853	4.94
266.233	4.78
266.612	4.43
266.992	4.25
267.372	4.98
267.752	4.37
268.131	5.13
268.511	4.62
268.89	3.54
269.27	4.46
269.649	4.03
270.029	3.82
270.408	4.43
270.787	4.26
271.167	4.65
271.546	3.98
271.925	4.8
272.304	4.42
272.683	4.32
273.062	4.23
273.441	4.48
273.82	4.83
274.199	4.03
274.578	3.99
274.957	4.27
275.336	4.13
275.715	4.42
276.093	4.59
276.472	4.27
276.851	5.08
277.229	3.64
277.608	4.26
277.986	4.01
278.365	4.25
278.743	4.17
279.122	4.54
279.5	4.57
279.878	5.14
280.257	4.05
280.635	4.44
281.013	4.4
281.391	5.05
281.769	4.14
282.147	3.82
282.525	4.26
282.903	4.47
283.281	4.16
283.659	3.97
284.037	3.89
284.415	4.72
284.792	4.06
285.17	4.18
285.548	4.25
285.925	4.71
286.303	4.36
286.68	4.88
287.058	4.47
287.435	4.06
287.813	4.1
288.19	4.19
288.567	4.28
288.945	5.05
289.322	4.89
289.699	4.5
290.076	4.68
290.453	4.49
290.83	4.98
291.207	4.72
291.584	4.6
291.961	4.5
292.338	4.64
292.715	4.53
293.092	5.09
293.469	5.06
293.845	5.46
294.222	5.23
294.599	5.62
294.975	4.98
295.352	5.16
295.728	4.98
296.105	5.24
296.481	4.36
296.858	5.11
297.234	5.39
297.61	5.57
297.986	5.34
298.363	5.21
298.739	5.39
299.115	5.23
299.491	5.1
299.867	4.98
300.243	5.53
300.619	5.48
300.995	5.41
301.371	5.53
301.746	5.72
302.122	6.05
302.498	5.87
302.874	6.09
303.249	5.98
303.625	5.65
304	6.03
304.376	6.09
304.751	6.17
305.127	5.78
305.502	6.32
305.878	5.93
306.253	5.81
306.628	5.93
307.003	6.3
307.378	6.04
307.754	6.53
308.129	6.04
308.504	6.94
308.879	6.37
309.254	6.63
309.629	6.74
310.003	6.1
310.378	6.3
310.753	6.84
311.128	6.6
311.502	6.42
311.877	7.29
312.252	6.69
312.626	6.97
313.001	6.68
313.375	6.89
313.75	6.81
314.124	6.88
314.498	6.97
314.873	7.35
315.247	7.02
315.621	7.38
315.995	7.03
316.369	7.65
316.743	7.11
317.117	7.83
317.491	7.97
317.865	7.43
318.239	7.31
318.613	7.91
318.987	7.27
319.361	7.81
319.734	7.03
320.108	7.9
320.482	8.26
320.855	8.35
321.229	8.01
321.602	7.13
321.976	7.79
322.349	8.03
322.723	9.03
323.096	8.46
323.469	8.17
323.843	8.47
324.216	8.41
324.589	8.92
324.962	8.37
325.335	8.69
325.708	8.82
326.081	8.94
326.454	9
326.827	8.76
327.2	9.17
327.573	8.85
327.945	8.68
328.318	8.52
328.691	9.15
329.063	9.37
329.436	8.88
329.809	8.94
330.181	8.83
330.553	8.94
330.926	9.54
331.298	8.99
331.671	9.37
332.043	9.52
332.415	9.44
332.787	9.88
333.159	9.51
333.532	9.5
333.904	9.58
334.276	9.57
334.648	9.58
335.02	10.12
335.391	9.61
335.763	9.91
336.135	9.98
336.507	9.47
336.879	10.14
337.25	9.5
337.622	10.28
337.993	9.69
338.365	10.38
338.736	10.42
339.108	9.83
339.479	10.07
339.851	9.94
340.222	10.16
340.593	10.43
340.964	10.49
341.336	10.58
341.707	10.06
342.078	10.44
342.449	10.42
342.82	10.47
343.191	10.51
343.562	10.71
343.933	10.49
344.303	11.01
344.674	10.52
345.045	10.69
345.416	10.71
345.786	10.89
346.157	10.77
346.527	10.75
346.898	10.68
347.268	11.01
347.639	10.94
348.009	10.9
348.38	11.1
348.75	10.88
349.12	11.16
349.49	11.61
349.861	10.98
350.231	11.5
350.601	11.55
350.971	11.57
351.341	11.54
351.711	11.39
352.081	11.15
352.45	11.69
352.82	11.43
353.19	11.68
353.56	11.91
353.929	11.83
354.299	12.08
354.669	11.83
355.038	11.94
355.408	11.83
355.777	12.36
356.147	12.16
356.516	11.97
356.885	12.18
357.254	12.25
357.624	12.29
357.993	12.08
358.362	12.13
358.731	12.52
359.1	12.13
359.469	12.18
359.838	12.32
360.207	12.91
360.576	12.55
360.945	12.81
361.314	12.79
361.682	12.7
362.051	12.45
362.42	12.64
362.788	12.56
363.157	12.54
363.525	12.76
363.894	12.77
364.262	13.03
364.631	13.05
364.999	12.98
365.367	13.35
365.735	13.02
366.104	12.78
366.472	12.83
366.84	13.26
367.208	13.02
367.576	13.22
367.944	13.62
368.312	13.24
368.68	13.62
369.048	13.41
369.416	13.21
369.783	13.56
370.151	14.03
370.519	13.75
370.886	13.55
371.254	13.68
371.621	13.76
371.989	13.93
372.356	13.78
372.724	14.18
373.091	13.97
373.458	13.8
373.826	14
374.193	14.39
374.56	14.06
374.927	14.09
375.294	14.11
375.661	14.46
376.028	13.94
376.395	14.5
376.762	14.51
377.129	14.55
377.496	14.55
377.863	14.53
378.229	14.81
378.596	14.44
378.963	14.45
379.329	14.83
379.696	14.96
380.062	14.47
380.429	15.26
380.795	14.71
381.161	15.02
381.528	14.96
381.894	15.21
382.26	15.09
382.626	15.07
382.993	14.92
383.359	15.15
383.725	15.53
384.091	15.43
384.457	15.37
384.823	15.59
385.188	15.48
385.554	15.16
385.92	15.45
386.286	15.55
386.651	15.4
387.017	15.55
387.383	15.6
387.748	15.98
388.114	15.83
388.479	15.64
388.845	15.88
389.21	16.07
389.575	15.76
389.94	15.9
390.306	16.04
390.671	16.2
391.036	16.38
391.401	15.97
391.766	16.12
392.131	16.19
392.496	16.27
392.861	16.07
393.226	16.3
393.591	16.36
393.956	16.18
394.32	16.81
394.685	16.58
395.05	16.57
395.414	16.64
395.779	16.57
396.143	16.5
396.508	16.72
396.872	16.73
397.236	16.77
397.601	17.08
397.965	16.96
398.329	16.71
398.694	17.15
399.058	16.97
399.422	17.2
399.786	17.17
400.15	17.43
400.514	17.2
400.878	17.07
401.242	17.21
401.605	17.51
401.969	17.42
402.333	17.46
402.697	17.5
403.06	17.37
403.424	17.75
403.787	17.71
404.151	17.52
404.514	17.61
404.878	17.56
405.241	17.69
405.604	17.73
405.968	17.7
406.331	17.74
406.694	17.83
407.057	17.78
407.42	18.18
407.783	17.93
408.146	18.09
408.509	17.89
408.872	18.32
409.235	17.91
409.598	18.28
409.961	18.43
410.323	18.44
410.686	18.41
411.049	18.52
411.411	18.17
411.774	18.54
412.136	18.6
412.499	18.55
412.861	18.61
413.223	18.75
413.586	18.53
413.948	18.69
414.31	18.73
414.672	18.79
415.035	19.04
415.397	18.99
415.759	19.04
416.121	18.93
416.483	18.82
416.845	19.12
417.206	19.07
417.568	18.83
417.93	18.8
418.292	18.91
418.653	19
419.015	18.99
419.377	19.05
419.738	19.08
420.1	19.02
420.461	18.95
420.822	19.09
421.184	19.03
421.545	19.05
421.906	19.08
422.267	18.99
422.629	18.98
422.99	19.05
423.351	19.04
423.712	19.19
424.073	19.46
424.434	19.32
424.795	19.31
425.155	19.42
425.516	19.4
425.877	19.26
426.238	19.52
426.598	19.6
426.959	19.52
427.32	19.72
427.68	19.71
428.041	20.01
428.401	19.97
428.761	20.21
429.122	20.17
429.482	20.12
429.842	20.44
430.202	20.58
430.563	20.4
430.923	20.62
431.283	20.26
431.643	20.48
432.003	20.53
432.363	20.8
432.722	20.81
433.082	20.62
433.442	20.71
433.802	20.63
434.161	20.9
434.521	20.44
434.881	20.51
435.24	20.57
435.6	20.83
435.959	20.92
436.319	20.97
436.678	20.85
437.037	21.09
437.396	21.36
437.756	20.96
438.115	21.09
438.474	21.27
438.833	21.34
439.192	21.34
439.551	21.25
439.91	21.36
440.269	21.29
440.628	21.39
440.987	21.28
441.345	21.36
441.704	21.36
442.063	21.29
442.421	21.38
442.78	21.39
443.138	21.39
443.497	21.58
443.855	21.39
444.214	21.81
444.572	21.97
444.93	21.8
445.288	21.87
445.647	21.73
446.005	21.84
446.363	21.83
446.721	21.84
447.079	21.81
447.437	21.77
447.795	21.7
448.153	21.72
448.51	21.78
448.868	21.87
449.226	22.01
449.584	21.89
449.941	22.16
450.299	22.14
450.656	22.3
451.014	22.39
451.371	22.59
451.729	22.47
452.086	22.97
452.443	22.72
452.801	22.63
453.158	22.86
453.515	22.83
453.872	22.81
454.229	22.81
454.586	22.71
454.943	22.84
455.3	23.05
455.657	22.91
456.014	22.98
456.371	23.12
456.727	23.18
457.084	23.14
457.441	23.23
457.797	23.36
458.154	23.25
458.51	23.24
458.867	23.44
459.223	23.45
459.58	23.4
459.936	23.45
460.292	23.39
460.648	23.41
461.005	23.01
461.361	23.18
461.717	23.13
462.073	23.18
462.429	23.36
462.785	23.53
463.141	23.75
463.496	23.71
463.852	23.82
464.208	24.01
464.564	23.99
464.919	24.16
465.275	24.28
465.631	24.11
465.986	24.3
466.342	24.06
466.697	24.26
467.052	24.33
467.408	24.37
467.763	24.38
468.118	24.73
468.473	24.66
468.829	24.51
469.184	24.47
469.539	24.47
469.894	24.67
470.249	24.64
470.603	24.7
470.958	24.75
471.313	24.59
471.668	24.74
472.023	24.89
472.377	24.97
472.732	25.12
473.086	24.95
473.441	25.06
473.795	25.01
474.15	24.99
474.504	25.18
474.859	25.31
475.213	25.26
475.567	25.33
475.921	25.34
476.275	25.71
476.63	25.39
476.984	25.56
477.338	25.38
477.692	25.3
478.045	25.53
478.399	25.63
478.753	25.43
479.107	25.53
479.461	25.55
479.814	25.55
480.168	25.74
480.521	25.6
480.875	25.64
481.228	25.91
481.582	25.83
481.935	25.83
482.289	25.74
482.642	25.62
482.995	25.86
483.348	25.84
483.701	25.75
484.055	25.55
484.408	25.43
484.761	25.14
485.114	25.07
485.466	24.97
485.819	25
486.172	24.85
486.525	25.04
486.878	25.23
487.23	25.55
487.583	25.59
487.936	25.78
488.288	25.7
488.641	25.49
488.993	25.43
489.345	25.48
489.698	25.42
490.05	25.63
490.402	25.73
490.754	25.85
491.107	26.08
491.459	26.37
491.811	26.25
492.163	26.39
492.515	26.29
492.866	26.19
493.218	26.13
493.57	26.02
493.922	26.03
494.274	26.26
494.625	26.48
494.977	26.8
495.328	27
495.68	27.18
496.031	27.42
496.383	27.35
496.734	27.43
497.086	27.16
497.437	27.57
497.788	27.42
498.139	27.3
498.49	27.21
498.842	27.13
499.193	27.37
499.544	27.55
499.894	27.58
500.245	27.57
500.596	27.67
500.947	27.85
501.298	27.75
501.648	27.91
501.999	27.9
502.35	27.97
502.7	28.08
503.051	28.3
503.401	28.14
503.752	28.32
504.102	28.28
504.452	28.42
504.803	28.33
505.153	28.32
505.503	28.57
505.853	28.48
506.203	28.38
506.553	28.52
506.903	28.34
507.253	28.53
507.603	28.67
507.953	28.73
508.303	28.79
508.652	28.65
509.002	28.7
509.352	28.81
509.701	28.69
510.051	28.76
510.4	28.55
510.75	28.57
511.099	28.74
511.449	28.64
511.798	28.82
512.147	28.98
512.496	28.92
512.846	28.95
513.195	28.91
513.544	28.87
513.893	29
514.242	29.19
514.591	29.29
514.939	29.25
515.288	29.22
515.637	29.19
515.986	29.45
516.334	29.55
516.683	29.46
517.032	29.54
517.38	29.66
517.729	29.59
518.077	29.61
518.426	29.62
518.774	29.69
519.122	29.33
519.47	29.51
519.819	29.31
520.167	29.24
520.515	29.43
520.863	29.32
521.211	29.52
521.559	29.54
521.907	29.68
522.255	29.86
522.602	30.02
522.95	30.17
523.298	30.12
523.645	30.43
523.993	30.23
524.341	30.25
524.688	30.45
525.036	30.38
525.383	30.54
525.73	30.4
526.078	30.43
526.425	30.24
526.772	30.04
527.119	29.95
527.466	30.06
527.814	30.01
528.161	30.22
528.508	30.19
528.854	30.25
529.201	30.12
529.548	29.93
529.895	29.66
530.242	29.73
530.588	29.81
530.935	29.78
531.282	29.72
531.628	29.91
531.975	30.24
532.321	30.43
532.667	30.53
533.014	30.61
533.36	30.65
533.706	30.78
534.052	30.78
534.399	30.52
534.745	30.54
535.091	30.51
535.437	30.49
535.783	30.58
536.129	30.63
536.474	30.91
536.82	31.12
537.166	31.27
537.512	31.29
537.857	31.12
538.203	31.12
538.549	31.08
538.894	31.21
539.239	31.49
539.585	31.55
539.93	31.73
540.276	32.05
540.621	31.88
540.966	31.94
541.311	32.05
541.656	32
542.001	31.59
542.346	31.5
542.691	31.23
543.036	31.08
543.381	31.21
543.726	31.28
544.071	31.51
544.415	31.49
544.76	31.52
545.105	31.85
545.449	32.08
545.794	31.99
546.138	32.46
546.483	32.07
546.827	32.18
547.171	32.51
547.516	32.59
547.86	32.36
548.204	32.36
548.548	32.24
548.892	32.61
549.236	32.52
549.58	32.8
549.924	32.98
550.268	33.1
550.612	33.24
550.956	33.1
551.3	33.2
551.643	33.33
551.987	33.29
552.33	33.42
552.674	33.5
553.017	33.64
553.361	33.42
553.704	33.57
554.048	33.71
554.391	33.4
554.734	33.5
555.077	33.49
555.42	33.6
555.764	33.76
556.107	33.75
556.45	34.14
556.793	34.1
557.135	34.22
557.478	34.16
557.821	34.3
558.164	34.06
558.507	34.28
558.849	34.22
559.192	34.46
559.534	34.45
559.877	34.27
560.219	34.44
560.562	34.62
560.904	34.36
561.246	34.74
561.589	34.48
561.931	34.36
562.273	34.47
562.615	34.58
562.957	34.54
563.299	34.73
563.641	34.81
563.983	34.83
564.325	34.68
564.667	34.98
565.008	34.74
565.35	34.69
565.692	34.93
566.033	35.11
566.375	35.06
566.716	35.06
567.058	35.08
567.399	34.76
567.741	34.69
568.082	34.74
568.423	34.81
568.764	34.89
569.105	35.12
569.447	35.23
569.788	35.3
570.129	35.5
570.47	35.23
570.811	35.23
571.151	35.44
571.492	35.64
571.833	35.58
572.174	35.65
572.514	35.44
572.855	35.61
573.195	35.57
573.536	35.15
573.876	35.1
574.217	35.52
574.557	35.52
574.898	35.56
575.238	35.73
575.578	35.98
575.918	35.84
576.258	35.87
576.598	35.68
576.938	35.81
577.278	35.8
577.618	36
577.958	36.11
578.298	36.13
578.638	35.94
578.977	36.17
579.317	36.16
579.657	36.14
579.996	36.55
580.336	36.65
580.675	36.82
581.014	36.81
581.354	36.67
581.693	36.55
582.032	36.82
582.372	36.88
582.711	36.76
583.05	36.62
583.389	36.93
583.728	36.99
584.067	37.08
584.406	36.98
584.745	36.92
585.083	36.73
585.422	37.13
585.761	37.26
586.1	37.13
586.438	37.41
586.777	37.29
587.115	37.38
587.454	37.64
587.792	37.3
588.13	37.47
588.469	37.45
588.807	37.44
589.145	37.52
589.483	37.66
589.821	37.27
590.159	37.68
590.497	37.57
590.835	37.48
591.173	37.28
591.511	37.32
591.849	37.6
592.187	37.5
592.524	37.72
592.862	37.42
593.2	37.64
593.537	37.97
593.875	37.65
594.212	37.83
594.55	37.77
594.887	37.63
595.224	37.89
595.561	38.02
595.899	38.23
596.236	38.01
596.573	38.14
596.91	37.78
597.247	37.97
597.584	38.08
597.921	37.82
598.258	37.78
598.594	37.86
598.931	37.73
599.268	37.66
599.604	38.02
599.941	38.31
600.277	38.29
600.614	38.39
600.95	38.63
601.287	38.54
601.623	38.4
601.959	38.48
602.296	38.46
602.632	38.58
602.968	38.71
603.304	38.75
603.64	38.86
603.976	38.77
604.312	38.9
604.648	38.54
604.984	38.09
605.319	38.53
605.655	38.6
605.991	38.19
606.326	38.47
606.662	38.41
606.998	38.72
607.333	38.4
607.668	38.38
608.004	39.06
608.339	38.95
608.674	39.04
609.01	39.48
609.345	39.22
609.68	39.14
610.015	39.39
610.35	38.85
610.685	38.89
611.02	38.78
611.355	38.9
611.689	39.34
612.024	38.95
612.359	39.39
612.694	39.21
613.028	39.5
613.363	39.57
613.697	39.9
614.032	39.67
614.366	39.59
614.7	39.8
615.035	39.97
615.369	39.85
615.703	39.96
616.037	40.3
616.371	39.46
616.705	39.49
617.039	39.77
617.373	39.63
617.707	40.28
618.041	40.12
618.375	39.87
618.709	40.26
619.042	39.93
619.376	40.4
619.71	40.53
620.043	40.48
620.377	40.28
620.71	40.06
621.043	40.84
621.377	40.14
621.71	40.24
622.043	40.28
622.376	40.62
622.709	40.46
623.043	40.56
623.376	40.55
623.709	40.81
624.041	40.84
624.374	40.91
624.707	40.96
625.04	40.85
625.373	41.39
625.705	41.22
626.038	40.91
626.37	40.67
626.703	40.81
627.035	41.11
627.368	40.74
627.7	40.64
628.032	41.08
628.365	40.71
628.697	40.71
629.029	40.8
629.361	40.73
629.693	40.97
630.025	41.34
630.357	41.27
630.689	41
631.021	41.31
631.353	41.21
631.684	41.22
632.016	41.56
632.348	41.4
632.679	40.89
633.011	41.68
633.342	41.5
633.674	41.56
634.005	41.22
634.336	41.92
634.668	41.78
634.999	41.36
635.33	41.64
635.661	41.76
635.992	41.63
636.323	41.71
636.654	41.89
636.985	41.64
637.316	41.97
637.647	41.73
637.977	41.83
638.308	41.91
638.639	41.94
638.969	41.87
639.3	41.58
639.63	41.71
639.961	41.79
640.291	41.84
640.622	42.34
640.952	41.9
641.282	42.21
641.612	41.78
641.943	42.11
642.273	42.27
642.603	42.04
642.933	42.11
643.263	41.87
643.592	42.09
643.922	42.48
644.252	41.98
644.582	42.35
644.911	42.34
645.241	42.26
645.571	42.29
645.9	42.08
646.23	42.21
646.559	42.88
646.888	42.1
647.218	42.22
647.547	42.64
647.876	42.72
648.205	42.37
648.534	42.38
648.863	42.9
649.192	42.14
649.521	42.8
649.85	42.34
650.179	42.17
650.508	42.95
650.837	42.31
651.165	42.45
651.494	42.79
651.822	43.18
652.151	42.65
652.479	42.7
652.808	42.65
653.136	42.47
653.465	42.94
653.793	43.11
654.121	42.55
654.449	42.83
654.777	42.84
655.105	43.35
655.433	43.08
655.761	42.88
656.089	42.89
656.417	43.34
656.745	43.12
657.073	43.46
657.4	43.75
657.728	43.08
658.056	42.96
658.383	42.66
658.711	42.74
659.038	43.1
659.365	43.3
659.693	43.5
660.02	42.93
660.347	43.44
660.674	43.14
661.001	43.21
661.329	43.02
661.656	42.64
661.982	43.37
662.309	43.56
662.636	43.74
662.963	43.05
663.29	43.85
663.616	43.35
663.943	43.95
664.27	43.46
664.596	43.87
664.923	43.54
665.249	44.28
665.576	44.29
665.902	43.36
666.228	43.91
666.554	43.58
666.881	43.87
667.207	44.06
667.533	44.01
667.859	44.01
668.185	44.27
668.511	44.15
668.837	44.09
669.162	43.73
669.488	44.31
669.814	43.92
