Data from 0034_forehead_Reflection__1__193.txt Node

Date: Thu Oct 20 22:24:46 CDT 2022
User: ToomeyLab
Spectrometer: FLMS14357
Trigger mode: 0
Integration Time (sec): 1.000000E-2
Scans to average: 100
Electric dark correction enabled: true
Nonlinearity correction enabled: false
Boxcar width: 0
XAxis mode: Wavelengths
Number of Pixels in Spectrum: 2048
>>>>>Begin Spectral Data<<<<<
189.047	-1145.52
189.435	-1145.52
189.823	-1145.52
190.211	-533.16
190.599	16.92
190.987	-257.95
191.375	30.77
191.763	-65.05
192.151	14.61
192.538	11.49
192.926	53.72
193.314	-1316.72
193.702	175.61
194.089	15.37
194.477	773.16
194.864	-48.97
195.252	30.29
195.639	187.26
196.027	69.81
196.414	108.71
196.801	362.55
197.189	563.77
197.576	104.16
197.963	74.44
198.351	39.98
198.738	11.92
199.125	17.18
199.512	57.64
199.899	25.83
200.286	25.65
200.673	34.46
201.06	55.94
201.447	90.53
201.833	24.52
202.22	20.21
202.607	24.16
202.994	10.93
203.38	11.68
203.767	57.13
204.154	28.29
204.54	85.15
204.927	1.05
205.313	51.2
205.699	51.92
206.086	-8.26
206.472	-13.55
206.858	53.82
207.245	31.53
207.631	32.92
208.017	17.61
208.403	-40.15
208.789	-13.71
209.175	61.09
209.561	15.8
209.947	46.99
210.333	36.12
210.719	53.77
211.105	51.45
211.491	-39.5
211.876	12.35
212.262	31.18
212.648	39.55
213.034	19.14
213.419	14.17
213.805	-2.05
214.19	-0.96
214.576	31.4
214.961	37.86
215.346	-15.55
215.732	5.12
216.117	39.43
216.502	39.97
216.888	14.5
217.273	22.27
217.658	37.62
218.043	37.53
218.428	28.52
218.813	28.41
219.198	2.48
219.583	-7.02
219.968	30.18
220.353	18.03
220.738	12.29
221.122	19.48
221.507	0.68
221.892	19.4
222.276	8.06
222.661	19.67
223.046	32.24
223.43	14.04
223.815	11.62
224.199	-1.88
224.583	6.53
224.968	19.43
225.352	21.02
225.736	6.36
226.121	-1.78
226.505	6.03
226.889	7.59
227.273	3.41
227.657	5.62
228.041	7.59
228.425	9.72
228.809	4.93
229.193	6.63
229.577	3.57
229.961	4.44
230.344	4.97
230.728	4.41
231.112	4.37
231.495	5.49
231.879	5.35
232.263	4.39
232.646	4.29
233.03	5.12
233.413	3.04
233.797	3.42
234.18	3.12
234.563	7.75
234.946	6.42
235.33	5.32
235.713	5.89
236.096	3.73
236.479	6.51
236.862	5.05
237.245	5.42
237.628	5.82
238.011	5.12
238.394	7.57
238.777	4.16
239.16	3.96
239.543	3.13
239.925	5.14
240.308	5.93
240.691	6.11
241.073	3.62
241.456	5.22
241.838	3.84
242.221	2.95
242.603	2.55
242.986	4.13
243.368	4.07
243.75	4.32
244.133	4.27
244.515	4.11
244.897	4.52
245.279	3.83
245.661	5.32
246.043	4.28
246.425	5.31
246.807	5.34
247.189	3.89
247.571	4.31
247.953	3.67
248.335	4
248.717	3.72
249.098	3.98
249.48	3.92
249.862	4.46
250.243	3.74
250.625	4.81
251.006	4.77
251.388	5.07
251.769	4.76
252.151	3.9
252.532	4.26
252.913	4.01
253.295	4.51
253.676	4.47
254.057	3.27
254.438	4.43
254.819	4.6
255.2	4.58
255.581	5.12
255.962	5.19
256.343	3.27
256.724	4.05
257.105	4.39
257.486	4.07
257.867	4.6
258.247	5.73
258.628	4.66
259.009	3.46
259.389	3.54
259.77	4.15
260.15	4.41
260.531	3.97
260.911	3.68
261.292	3.88
261.672	3.95
262.052	4.05
262.432	4.61
262.813	3.98
263.193	4.52
263.573	4.73
263.953	3.9
264.333	4.35
264.713	4.3
265.093	4.5
265.473	4.99
265.853	5.19
266.233	4.23
266.612	5.11
266.992	3.57
267.372	4.44
267.752	4.55
268.131	4.19
268.511	4.62
268.89	4.01
269.27	3.8
269.649	3.78
270.029	3.93
270.408	4.38
270.787	4.1
271.167	4.01
271.546	4.77
271.925	4.23
272.304	4.25
272.683	3.87
273.062	3.92
273.441	3.94
273.82	4.4
274.199	3.87
274.578	3.91
274.957	3.82
275.336	4.01
275.715	4.01
276.093	4.45
276.472	4.01
276.851	4.91
277.229	4.04
277.608	3.75
277.986	3.87
278.365	3.85
278.743	3.99
279.122	4.54
279.5	3.72
279.878	4.52
280.257	3.82
280.635	4.09
281.013	3.41
281.391	5.06
281.769	4.25
282.147	3.25
282.525	3.68
282.903	3.86
283.281	4.03
283.659	3.54
284.037	3.73
284.415	4.23
284.792	3.96
285.17	4.27
285.548	3.47
285.925	3.48
286.303	4.32
286.68	4.36
287.058	4.14
287.435	3.94
287.813	4.32
288.19	3.74
288.567	4.22
288.945	4.38
289.322	3.71
289.699	3.3
290.076	3.87
290.453	3.89
290.83	4.04
291.207	4.32
291.584	4.13
291.961	3.94
292.338	4
292.715	4.46
293.092	4.59
293.469	4.67
293.845	5.02
294.222	4.56
294.599	5.36
294.975	4.27
295.352	4.77
295.728	4.17
296.105	4.84
296.481	4.26
296.858	4.5
297.234	5.14
297.61	4.88
297.986	4.62
298.363	4.56
298.739	4.49
299.115	4.55
299.491	4.6
299.867	4.44
300.243	5.05
300.619	5.22
300.995	4.66
301.371	5.08
301.746	4.89
302.122	5.05
302.498	4.87
302.874	5.33
303.249	5.27
303.625	4.96
304	5.96
304.376	5.3
304.751	5.29
305.127	5.11
305.502	5.69
305.878	5.71
306.253	4.71
306.628	5.63
307.003	5.94
307.378	4.84
307.754	5.96
308.129	5.79
308.504	5.53
308.879	5.2
309.254	5.77
309.629	5.94
310.003	5.29
310.378	6.06
310.753	6.23
311.128	5.7
311.502	5.81
311.877	6.32
312.252	5.51
312.626	6.06
313.001	6.13
313.375	6.45
313.75	6.5
314.124	6.07
314.498	6.43
314.873	6.58
315.247	6.49
315.621	6.39
315.995	6.48
316.369	6.87
316.743	6.14
317.117	6.92
317.491	7.18
317.865	6.6
318.239	7.18
318.613	7.48
318.987	7.05
319.361	7.12
319.734	7.11
320.108	6.89
320.482	6.83
320.855	7.54
321.229	7.56
321.602	6.63
321.976	7.36
322.349	7.64
322.723	8.13
323.096	7.74
323.469	7.42
323.843	8.15
324.216	7.44
324.589	8.47
324.962	7.69
325.335	8.19
325.708	7.73
326.081	8.14
326.454	8.01
326.827	8.14
327.2	8.04
327.573	8.09
327.945	7.96
328.318	7.93
328.691	8.76
329.063	8.8
329.436	8.49
329.809	8.45
330.181	8.36
330.553	8.44
330.926	8.24
331.298	8.43
331.671	9.22
332.043	8.68
332.415	8.35
332.787	9.27
333.159	9.09
333.532	8.94
333.904	8.85
334.276	9.28
334.648	8.9
335.02	8.5
335.391	9.13
335.763	8.83
336.135	9.56
336.507	8.36
336.879	9.61
337.25	8.67
337.622	9.64
337.993	9.8
338.365	9.63
338.736	9.31
339.108	9.85
339.479	9.5
339.851	9.42
340.222	9.4
340.593	9.4
340.964	9.89
341.336	9.9
341.707	9.49
342.078	9.76
342.449	9.55
342.82	9.9
343.191	10.03
343.562	10.05
343.933	10.14
344.303	9.83
344.674	10.37
345.045	10.02
345.416	10.29
345.786	10.2
346.157	10.57
346.527	10.26
346.898	10.72
347.268	10.4
347.639	10.45
348.009	10.74
348.38	11.23
348.75	10.74
349.12	10.81
349.49	10.92
349.861	10.84
350.231	11.12
350.601	10.91
350.971	10.92
351.341	11.27
351.711	11.26
352.081	10.99
352.45	11.3
352.82	11.21
353.19	11.2
353.56	11.52
353.929	11.22
354.299	11.63
354.669	11.61
355.038	11.75
355.408	11.43
355.777	11.47
356.147	11.99
356.516	11.77
356.885	11.7
357.254	12.02
357.624	12.02
357.993	11.63
358.362	12.44
358.731	12.32
359.1	11.82
359.469	12.25
359.838	12.2
360.207	12.7
360.576	12.07
360.945	12.56
361.314	12.22
361.682	12.29
362.051	12.41
362.42	12.4
362.788	12.39
363.157	12.42
363.525	12.83
363.894	12.64
364.262	13
364.631	12.77
364.999	13.21
365.367	13.18
365.735	13.02
366.104	13.08
366.472	13
366.84	13.43
367.208	13.29
367.576	13.22
367.944	13.48
368.312	13.68
368.68	13.64
369.048	13.49
369.416	13.78
369.783	13.66
370.151	14.05
370.519	13.78
370.886	13.9
371.254	14.12
371.621	14.04
371.989	13.99
372.356	14.06
372.724	14.33
373.091	14.28
373.458	14
373.826	14.15
374.193	14.64
374.56	14.42
374.927	14.41
375.294	14.61
375.661	14.82
376.028	14.36
376.395	15.02
376.762	14.93
377.129	14.66
377.496	14.87
377.863	14.94
378.229	15.03
378.596	15.03
378.963	15.01
379.329	15.04
379.696	15.13
380.062	15.43
380.429	15.44
380.795	15.46
381.161	15.71
381.528	15.36
381.894	15.38
382.26	15.26
382.626	15.64
382.993	15.47
383.359	15.9
383.725	15.68
384.091	16.02
384.457	15.57
384.823	15.77
385.188	16.02
385.554	15.61
385.92	15.96
386.286	16.17
386.651	15.81
387.017	16.23
387.383	16.29
387.748	16.68
388.114	16.46
388.479	16.52
388.845	16.96
389.21	16.69
389.575	16.83
389.94	17.26
390.306	16.88
390.671	16.93
391.036	16.89
391.401	16.82
391.766	17.28
392.131	17.15
392.496	16.84
392.861	17.12
393.226	17.33
393.591	17.38
393.956	17.23
394.32	17.53
394.685	17.73
395.05	17.57
395.414	17.61
395.779	17.57
396.143	17.45
396.508	18.02
396.872	17.9
397.236	17.82
397.601	18.23
397.965	18.12
398.329	18.4
398.694	18.08
399.058	18.25
399.422	18.42
399.786	18.52
400.15	18.46
400.514	18.71
400.878	18.42
401.242	18.74
401.605	18.92
401.969	18.79
402.333	18.61
402.697	18.93
403.06	18.69
403.424	19.12
403.787	18.97
404.151	19.01
404.514	19.14
404.878	19.14
405.241	19.11
405.604	19.05
405.968	19.24
406.331	19.19
406.694	19.29
407.057	19.26
407.42	19.6
407.783	19.55
408.146	19.82
408.509	19.76
408.872	19.76
409.235	19.61
409.598	19.89
409.961	19.99
410.323	20.27
410.686	20.43
411.049	20.24
411.411	20.14
411.774	20.2
412.136	20.42
412.499	20.64
412.861	20.45
413.223	20.56
413.586	20.5
413.948	20.46
414.31	20.65
414.672	20.75
415.035	20.68
415.397	20.91
415.759	21.17
416.121	21.12
416.483	21.09
416.845	21.01
417.206	21.22
417.568	21.19
417.93	21.06
418.292	21.25
418.653	21.17
419.015	21.15
419.377	21.08
419.738	21.23
420.1	21.34
420.461	21.43
420.822	21.29
421.184	21.26
421.545	21.32
421.906	21.31
422.267	21.36
422.629	21.22
422.99	21.37
423.351	21.51
423.712	21.49
424.073	21.79
424.434	21.78
424.795	21.94
425.155	21.72
425.516	21.63
425.877	21.72
426.238	22.01
426.598	22.03
426.959	22.28
427.32	22.39
427.68	22.45
428.041	22.67
428.401	22.74
428.761	22.84
429.122	22.96
429.482	22.81
429.842	23.12
430.202	23.26
430.563	23.36
430.923	23.34
431.283	23.27
431.643	23.25
432.003	23.18
432.363	23.68
432.722	23.86
433.082	23.57
433.442	23.54
433.802	23.51
434.161	23.78
434.521	23.46
434.881	23.74
435.24	23.55
435.6	23.75
435.959	23.78
436.319	23.96
436.678	24.11
437.037	24.54
437.396	24.32
437.756	24.36
438.115	24.41
438.474	24.46
438.833	24.33
439.192	24.47
439.551	24.55
439.91	24.53
440.269	24.46
440.628	24.46
440.987	24.64
441.345	24.61
441.704	24.65
442.063	24.83
442.421	24.62
442.78	24.85
443.138	24.96
443.497	25.01
443.855	25.36
444.214	25.41
444.572	25.41
444.93	25.21
445.288	25.4
445.647	25.49
446.005	25.33
446.363	25.53
446.721	25.42
447.079	25.23
447.437	25.22
447.795	25.17
448.153	25.42
448.51	25.45
448.868	25.62
449.226	25.81
449.584	25.94
449.941	26.11
450.299	26.07
450.656	26.25
451.014	26.44
451.371	26.43
451.729	26.47
452.086	26.77
452.443	26.78
452.801	26.74
453.158	26.8
453.515	26.82
453.872	26.91
454.229	26.88
454.586	27.01
454.943	27.03
455.3	27.2
455.657	27.45
456.014	27.54
456.371	27.59
456.727	27.56
457.084	27.48
457.441	27.43
457.797	27.62
458.154	27.88
458.51	27.68
458.867	27.78
459.223	28.09
459.58	27.78
459.936	27.76
460.292	27.8
460.648	27.67
461.005	27.46
461.361	27.39
461.717	27.64
462.073	28
462.429	28.05
462.785	28.32
463.141	28.36
463.496	28.47
463.852	28.84
464.208	28.85
464.564	28.77
464.919	28.87
465.275	28.89
465.631	28.94
465.986	29.09
466.342	29.21
466.697	29.22
467.052	29.35
467.408	29.46
467.763	29.33
468.118	29.64
468.473	29.54
468.829	29.7
469.184	29.69
469.539	29.62
469.894	29.95
470.249	30.05
470.603	29.73
470.958	29.96
471.313	29.92
471.668	29.96
472.023	30.35
472.377	30.15
472.732	30.27
473.086	30.56
473.441	30.45
473.795	30.65
474.15	30.72
474.504	30.41
474.859	30.68
475.213	30.76
475.567	30.79
475.921	30.69
476.275	31.04
476.63	31.13
476.984	31.22
477.338	31.26
477.692	31.18
478.045	31.16
478.399	31.3
478.753	31.28
479.107	31.22
479.461	31.57
479.814	31.46
480.168	31.64
480.521	31.65
480.875	31.52
481.228	31.85
481.582	31.8
481.935	31.63
482.289	31.73
482.642	31.63
482.995	31.58
483.348	31.7
483.701	31.59
484.055	31.46
484.408	31.19
484.761	30.83
485.114	30.71
485.466	30.88
485.819	31.09
486.172	31.18
486.525	31.47
486.878	31.65
487.23	31.89
487.583	31.8
487.936	31.88
488.288	31.71
488.641	31.62
488.993	31.65
489.345	31.6
489.698	31.73
490.05	31.95
490.402	32.2
490.754	32.47
491.107	32.64
491.459	32.94
491.811	32.84
492.163	32.94
492.515	32.78
492.866	32.35
493.218	32.43
493.57	32.62
493.922	32.92
494.274	33.1
494.625	33.49
494.977	33.67
495.328	33.88
495.68	34.24
496.031	34.33
496.383	34.4
496.734	34.52
497.086	34.33
497.437	34.58
497.788	34.54
498.139	34.03
498.49	34.21
498.842	34.31
499.193	34.62
499.544	34.75
499.894	34.83
500.245	34.81
500.596	34.89
500.947	35.2
501.298	35.1
501.648	35.11
501.999	35.3
502.35	35.43
502.7	35.65
503.051	35.68
503.401	35.77
503.752	35.63
504.102	35.79
504.452	35.95
504.803	36.09
505.153	35.91
505.503	35.94
505.853	36.09
506.203	35.95
506.553	36.2
506.903	36.41
507.253	36.42
507.603	36.55
507.953	36.52
508.303	36.65
508.652	36.57
509.002	36.58
509.352	36.43
509.701	36.45
510.051	36.56
510.4	36.6
510.75	36.54
511.099	36.48
511.449	36.63
511.798	36.83
512.147	36.97
512.496	36.92
512.846	37.08
513.195	37.12
513.544	37.23
513.893	37.1
514.242	37.41
514.591	37.34
514.939	37.66
515.288	37.54
515.637	37.52
515.986	37.7
516.334	37.89
516.683	37.82
517.032	37.98
517.38	38.08
517.729	38.13
518.077	38.03
518.426	38.09
518.774	37.98
519.122	37.95
519.47	37.74
519.819	37.67
520.167	37.58
520.515	37.84
520.863	37.8
521.211	38.19
521.559	38.22
521.907	38.45
522.255	38.46
522.602	38.72
522.95	38.79
523.298	38.9
523.645	39.11
523.993	38.91
524.341	39.15
524.688	39.26
525.036	39.35
525.383	39.4
525.73	39.48
526.078	39.38
526.425	39.22
526.772	38.94
527.119	38.9
527.466	39.05
527.814	39.06
528.161	39.14
528.508	39.32
528.854	39.4
529.201	39.02
529.548	38.87
529.895	38.78
530.242	38.87
530.588	38.96
530.935	39.09
531.282	39.04
531.628	39.32
531.975	39.32
532.321	39.68
532.667	39.9
533.014	40.11
533.36	40
533.706	40.12
534.052	40.14
534.399	39.88
534.745	39.65
535.091	39.95
535.437	40
535.783	40.26
536.129	40.28
536.474	40.55
536.82	40.86
537.166	40.94
537.512	40.83
537.857	40.68
538.203	40.9
538.549	40.87
538.894	41.24
539.239	41.23
539.585	41.43
539.93	41.83
540.276	41.91
540.621	41.82
540.966	41.93
541.311	42.05
541.656	41.76
542.001	41.47
542.346	41.29
542.691	41.01
543.036	40.9
543.381	41.25
543.726	41.26
544.071	41.59
544.415	41.7
544.76	41.7
545.105	42.09
545.449	42.22
545.794	42.2
546.138	42.64
546.483	42.58
546.827	42.7
547.171	42.9
547.516	42.87
547.86	42.71
548.204	42.78
548.548	42.89
548.892	43.06
549.236	43.25
549.58	43.33
549.924	43.52
550.268	43.75
550.612	44.04
550.956	43.82
551.3	44.17
551.643	44.06
551.987	44.22
552.33	44.15
552.674	44.39
553.017	44.38
553.361	44.4
553.704	44.47
554.048	44.44
554.391	44.2
554.734	44.52
555.077	44.48
555.42	44.42
555.764	44.8
556.107	44.88
556.45	45.02
556.793	45.09
557.135	45.15
557.478	45.42
557.821	45.37
558.164	45.38
558.507	45.55
558.849	45.51
559.192	45.63
559.534	45.72
559.877	45.75
560.219	45.89
560.562	45.8
560.904	46.23
561.246	45.94
561.589	46.02
561.931	45.91
562.273	46.03
562.615	46.16
562.957	46.05
563.299	46.4
563.641	46.27
563.983	46.57
564.325	46.38
564.667	46.76
565.008	46.49
565.35	46.57
565.692	46.64
566.033	46.79
566.375	46.85
566.716	46.91
567.058	46.96
567.399	46.76
567.741	46.73
568.082	46.35
568.423	46.79
568.764	46.83
569.105	46.96
569.447	47.09
569.788	47.33
570.129	47.35
570.47	47.41
570.811	47.35
571.151	47.55
571.492	47.46
571.833	47.52
572.174	47.78
572.514	47.5
572.855	47.62
573.195	47.51
573.536	47.53
573.876	47.35
574.217	47.53
574.557	47.77
574.898	47.67
575.238	48.07
575.578	48.34
575.918	48.15
576.258	48.23
576.598	48.23
576.938	48.43
577.278	48.31
577.618	48.42
577.958	48.49
578.298	48.7
578.638	48.51
578.977	48.65
579.317	48.79
579.657	48.61
579.996	48.97
580.336	49.27
580.675	49.38
581.014	49.33
581.354	49.87
581.693	49.47
582.032	49.46
582.372	49.79
582.711	49.49
583.05	49.83
583.389	49.73
583.728	49.94
584.067	49.85
584.406	49.88
584.745	50.22
585.083	50.01
585.422	50.22
585.761	50.28
586.1	50.41
586.438	50.32
586.777	50.12
587.115	50.74
587.454	51.02
587.792	50.74
588.13	50.72
588.469	50.54
588.807	50.85
589.145	50.43
589.483	50.74
589.821	50.92
590.159	50.81
590.497	50.65
590.835	50.75
591.173	50.97
591.511	50.87
591.849	51.22
592.187	50.94
592.524	50.99
592.862	51.17
593.2	50.93
593.537	51.59
593.875	51.83
594.212	51.55
594.55	51.39
594.887	51.31
595.224	51.48
595.561	51.92
595.899	51.66
596.236	51.65
596.573	51.66
596.91	51.65
597.247	51.59
597.584	51.97
597.921	51.73
598.258	51.83
598.594	51.77
598.931	52.01
599.268	51.8
599.604	51.61
599.941	52.01
600.277	52.25
600.614	52.43
600.95	52.37
601.287	52.43
601.623	52.7
601.959	52.73
602.296	52.89
602.632	52.48
602.968	52.6
603.304	52.89
603.64	52.99
603.976	52.86
604.312	52.9
604.648	53.09
604.984	52.55
605.319	52.72
605.655	52.79
605.991	52.92
606.326	52.82
606.662	52.79
606.998	52.99
607.333	52.76
607.668	53.28
608.004	53.27
608.339	53.58
608.674	54.06
609.01	53.86
609.345	54.17
609.68	53.82
610.015	53.93
610.35	53.73
610.685	53.5
611.02	53.65
611.355	53.82
611.689	53.82
612.024	53.71
612.359	54.33
612.694	54.12
613.028	54.28
613.363	54.32
613.697	54.47
614.032	54.96
614.366	54.51
614.7	54.91
615.035	54.53
615.369	54.52
615.703	54.86
616.037	55.36
616.371	55.09
616.705	55.2
617.039	54.88
617.373	55.13
617.707	55.36
618.041	55.08
618.375	55.19
618.709	55.71
619.042	55.67
619.376	55.7
619.71	55.55
620.043	55.66
620.377	55.66
620.71	55.69
621.043	55.9
621.377	55.38
621.71	55.38
622.043	56
622.376	55.84
622.709	56.23
623.043	56.4
623.376	56.29
623.709	55.93
624.041	55.95
624.374	56.18
624.707	55.96
625.04	56.5
625.373	56.93
625.705	56.61
626.038	56.27
626.37	56.49
626.703	56.86
627.035	56.56
627.368	56.47
627.7	56.61
628.032	56.85
628.365	56.56
628.697	56.73
629.029	56.75
629.361	56.43
629.693	56.42
630.025	56.85
630.357	56.97
630.689	57.35
631.021	57.19
631.353	56.73
631.684	56.93
632.016	57.16
632.348	57.41
632.679	57.33
633.011	57.5
633.342	57.45
633.674	57.66
634.005	57.67
634.336	58.2
634.668	58.18
634.999	57.78
635.33	57.5
635.661	57.99
635.992	58.23
636.323	58.17
636.654	57.5
636.985	58.05
637.316	58.22
637.647	57.89
637.977	58.14
638.308	58.33
638.639	58.64
638.969	58.73
639.3	58.14
639.63	58.31
639.961	58.31
640.291	58.88
640.622	58.91
640.952	58.8
641.282	58.9
641.612	58.97
641.943	58.59
642.273	58.91
642.603	58.72
642.933	58.88
643.263	59.11
643.592	58.87
643.922	59.23
644.252	58.75
644.582	59.28
644.911	58.77
645.241	59
645.571	59.4
645.9	58.89
646.23	59.72
646.559	60.22
646.888	59.85
647.218	59.05
647.547	59.54
647.876	59.6
648.205	59.7
648.534	59.53
648.863	60.17
649.192	59.86
649.521	60.25
649.85	59.7
650.179	60.29
650.508	59.99
650.837	59.37
651.165	60.05
651.494	60.2
651.822	60.36
652.151	60.39
652.479	60.87
652.808	60.16
653.136	60.47
653.465	60.89
653.793	60.64
654.121	60.17
654.449	60.81
654.777	60.11
655.105	60.7
655.433	61.33
655.761	60.73
656.089	60.78
656.417	61.04
656.745	60.24
657.073	60.76
657.4	61.5
657.728	60.79
658.056	61.23
658.383	60.74
658.711	60.93
659.038	61.32
659.365	61.3
659.693	61.38
660.02	60.88
660.347	60.79
660.674	61.41
661.001	61.19
661.329	60.98
661.656	60.9
661.982	61.06
662.309	61.59
662.636	61.5
662.963	61.15
663.29	61.65
663.616	61.73
663.943	61.58
664.27	61.74
664.596	61.77
664.923	61.66
665.249	62.25
665.576	62.41
665.902	61.3
666.228	62.48
666.554	62.06
666.881	62.15
667.207	61.85
667.533	61.94
667.859	62.04
668.185	62.48
668.511	62.64
668.837	62.62
669.162	61.45
669.488	61.86
669.814	62.78
670.139	62.56
670.465	61.73
