Data from 0034_crown_Reflection__1__188.txt Node

Date: Thu Oct 20 22:23:21 CDT 2022
User: ToomeyLab
Spectrometer: FLMS14357
Trigger mode: 0
Integration Time (sec): 1.000000E-2
Scans to average: 100
Electric dark correction enabled: true
Nonlinearity correction enabled: false
Boxcar width: 0
XAxis mode: Wavelengths
Number of Pixels in Spectrum: 2048
>>>>>Begin Spectral Data<<<<<
189.047	491.05
189.435	491.05
189.823	491.05
190.211	-457.14
190.599	-340.12
190.987	-414.94
191.375	116.09
191.763	-178.22
192.151	195.37
192.538	-119.04
192.926	60.16
193.314	-992.93
193.702	-13.41
194.089	46.97
194.477	-432.6
194.864	103.5
195.252	8.07
195.639	217.64
196.027	-10.36
196.414	89.86
196.801	-204.3
197.189	486.14
197.576	137.13
197.963	369.65
198.351	-7.46
198.738	33.37
199.125	-8.02
199.512	49.73
199.899	-92.4
200.286	-9.17
200.673	-3.73
201.06	26.39
201.447	27.11
201.833	10.15
202.22	-42.69
202.607	-51.71
202.994	-9.33
203.38	-62.11
203.767	-4.14
204.154	7.89
204.54	-15.26
204.927	5.77
205.313	38.46
205.699	0.24
206.086	5.02
206.472	-34.08
206.858	-97.91
207.245	-2.27
207.631	-73.4
208.017	-9.39
208.403	-66.66
208.789	-3.19
209.175	11.62
209.561	13.76
209.947	10.8
210.333	-17
210.719	4.8
211.105	2.27
211.491	-89.53
211.876	-50.87
212.262	-20.92
212.648	-27.15
213.034	-21.95
213.419	-30.39
213.805	-11.98
214.19	-35.25
214.576	-47.5
214.961	-38.52
215.346	-42.5
215.732	10.51
216.117	-45.37
216.502	-15.1
216.888	-23.08
217.273	-24.86
217.658	6.3
218.043	15.51
218.428	-10.83
218.813	19.21
219.198	-18.29
219.583	-2.17
219.968	24.26
220.353	-12.96
220.738	9.26
221.122	-13.32
221.507	-35.04
221.892	-5.07
222.276	-19
222.661	0.87
223.046	14.71
223.43	-6.39
223.815	-0.63
224.199	-19.07
224.583	-7.29
224.968	-1.42
225.352	8.14
225.736	-1.88
226.121	3.55
226.505	2.75
226.889	1.17
227.273	-3.84
227.657	-1.6
228.041	2.59
228.425	0.57
228.809	5.44
229.193	0.47
229.577	0.76
229.961	2.99
230.344	2.76
230.728	2.16
231.112	2.39
231.495	2.37
231.879	3.02
232.263	3.5
232.646	2.22
233.03	2
233.413	-0.91
233.797	-0.54
234.18	2.04
234.563	3.86
234.946	2.42
235.33	1.13
235.713	-0.61
236.096	0.48
236.479	2.65
236.862	2.18
237.245	0.7
237.628	1.83
238.011	2.58
238.394	4.14
238.777	1.47
239.16	1.61
239.543	1.59
239.925	1.59
240.308	0.93
240.691	3.14
241.073	0.76
241.456	2.14
241.838	2.19
242.221	1.64
242.603	2.89
242.986	2.37
243.368	2.15
243.75	2.36
244.133	1.99
244.515	2.22
244.897	2.54
245.279	1.2
245.661	2.95
246.043	2.26
246.425	2.96
246.807	3.2
247.189	2.87
247.571	2.47
247.953	1.98
248.335	2.23
248.717	2.46
249.098	2.47
249.48	2.19
249.862	2.24
250.243	2.64
250.625	2.54
251.006	2.21
251.388	2.82
251.769	1.83
252.151	1.35
252.532	1.5
252.913	1.79
253.295	2.14
253.676	2.86
254.057	1.75
254.438	1.63
254.819	2.17
255.2	2.34
255.581	1.88
255.962	2.89
256.343	2.13
256.724	1.81
257.105	2.38
257.486	1.71
257.867	2.81
258.247	1.95
258.628	1.81
259.009	1.36
259.389	2.16
259.77	1.42
260.15	2.34
260.531	2.15
260.911	1.85
261.292	2.35
261.672	2.22
262.052	2.4
262.432	2.11
262.813	1.83
263.193	3.15
263.573	2.06
263.953	2.04
264.333	1.73
264.713	1.74
265.093	1.86
265.473	2.38
265.853	2.16
266.233	1.99
266.612	1.9
266.992	1.13
267.372	2.37
267.752	2.39
268.131	2.65
268.511	2.37
268.89	2.03
269.27	1.6
269.649	1.39
270.029	1.54
270.408	2.02
270.787	1.53
271.167	2.05
271.546	1.29
271.925	1.89
272.304	2.14
272.683	2.03
273.062	1.91
273.441	1.87
273.82	2.25
274.199	1.77
274.578	1.66
274.957	2.32
275.336	1.87
275.715	2.46
276.093	2.7
276.472	2.31
276.851	2.27
277.229	1.45
277.608	1.6
277.986	1.91
278.365	1.7
278.743	1.67
279.122	2.13
279.5	1.95
279.878	2.02
280.257	1.94
280.635	1.8
281.013	1.47
281.391	2.08
281.769	2.06
282.147	1.16
282.525	1.23
282.903	1.81
283.281	2.03
283.659	1.34
284.037	1.15
284.415	1.94
284.792	1.85
285.17	2.36
285.548	1.62
285.925	1.75
286.303	1.79
286.68	2.07
287.058	1.85
287.435	1.57
287.813	1.64
288.19	1.71
288.567	1.67
288.945	2.28
289.322	1.48
289.699	1.52
290.076	1.53
290.453	1.39
290.83	1.77
291.207	2.2
291.584	1.75
291.961	1.92
292.338	1.37
292.715	1.32
293.092	2.24
293.469	2.09
293.845	1.58
294.222	1.67
294.599	2.6
294.975	1.69
295.352	2.11
295.728	1.66
296.105	1.94
296.481	1.54
296.858	1.82
297.234	1.68
297.61	1.75
297.986	1.64
298.363	1.72
298.739	1.62
299.115	1.59
299.491	1.52
299.867	1.56
300.243	1.72
300.619	1.38
300.995	1.32
301.371	1.64
301.746	1.55
302.122	1.9
302.498	1.31
302.874	2.13
303.249	2.05
303.625	2.06
304	1.71
304.376	1.15
304.751	1.76
305.127	1.19
305.502	2.02
305.878	1.82
306.253	1.32
306.628	1.5
307.003	1.6
307.378	1.15
307.754	1.4
308.129	1.56
308.504	1.47
308.879	1.77
309.254	1.66
309.629	1.78
310.003	1.61
310.378	1.55
310.753	1.69
311.128	1.54
311.502	1.59
311.877	1.57
312.252	1.61
312.626	1.29
313.001	1.73
313.375	1.73
313.75	0.93
314.124	1.42
314.498	1.59
314.873	1.28
315.247	1.28
315.621	1.73
315.995	1.45
316.369	2
316.743	1.51
317.117	1.85
317.491	2.05
317.865	1.34
318.239	1.47
318.613	2.2
318.987	1.62
319.361	1.91
319.734	1
320.108	1.47
320.482	1.9
320.855	1.32
321.229	2.36
321.602	1.4
321.976	1.47
322.349	1.61
322.723	2.25
323.096	1.39
323.469	1.31
323.843	1.82
324.216	1.24
324.589	1.7
324.962	1.27
325.335	1.6
325.708	1.71
326.081	1.9
326.454	1.93
326.827	1.61
327.2	1.88
327.573	1.54
327.945	1.87
328.318	0.98
328.691	1.91
329.063	1.76
329.436	1.85
329.809	1.84
330.181	2.22
330.553	1.83
330.926	1.87
331.298	1.31
331.671	1.67
332.043	1.32
332.415	1.87
332.787	2.01
333.159	2.08
333.532	1.92
333.904	2.1
334.276	2.1
334.648	1.02
335.02	1.84
335.391	1.4
335.763	1.47
336.135	1.51
336.507	1.3
336.879	2.39
337.25	1.53
337.622	1.84
337.993	0.89
338.365	1.61
338.736	1.59
339.108	1.46
339.479	1.87
339.851	1.14
340.222	1.45
340.593	1.72
340.964	1.85
341.336	1.34
341.707	1.31
342.078	1.89
342.449	1.45
342.82	1.89
343.191	1.56
343.562	1.88
343.933	1.78
344.303	1.51
344.674	1.49
345.045	2.09
345.416	1.56
345.786	1.9
346.157	1.57
346.527	1.58
346.898	1.78
347.268	1.49
347.639	1.84
348.009	1.89
348.38	1.99
348.75	1
349.12	1.97
349.49	1.95
349.861	2.16
350.231	1.88
350.601	1.97
350.971	1.55
351.341	2.22
351.711	1.76
352.081	1.46
352.45	1.62
352.82	1.47
353.19	1.39
353.56	1.62
353.929	1.46
354.299	1.85
354.669	1.87
355.038	1.6
355.408	1.18
355.777	2.04
356.147	1.82
356.516	1.48
356.885	1.67
357.254	1.88
357.624	1.65
357.993	1.57
358.362	1.93
358.731	2.15
359.1	1.4
359.469	1.78
359.838	1.59
360.207	2.33
360.576	1.61
360.945	1.92
361.314	1.8
361.682	1.68
362.051	1.66
362.42	1.78
362.788	1.82
363.157	1.74
363.525	1.69
363.894	1.76
364.262	1.98
364.631	1.94
364.999	1.47
365.367	1.7
365.735	1.78
366.104	1.68
366.472	1.46
366.84	2.05
367.208	1.8
367.576	1.97
367.944	1.88
368.312	1.95
368.68	2.03
369.048	1.86
369.416	1.75
369.783	1.64
370.151	2.08
370.519	1.78
370.886	2.01
371.254	1.87
371.621	1.77
371.989	2.04
372.356	1.5
372.724	1.91
373.091	2.11
373.458	1.61
373.826	1.88
374.193	1.8
374.56	1.47
374.927	1.53
375.294	1.76
375.661	2
376.028	1.58
376.395	2.21
376.762	1.86
377.129	1.59
377.496	1.58
377.863	1.64
378.229	1.91
378.596	1.77
378.963	1.84
379.329	2.06
379.696	1.7
380.062	1.68
380.429	2.09
380.795	2.08
381.161	1.93
381.528	1.9
381.894	1.83
382.26	1.74
382.626	2.08
382.993	1.72
383.359	1.87
383.725	1.83
384.091	1.95
384.457	1.48
384.823	1.81
385.188	1.87
385.554	1.29
385.92	1.85
386.286	1.84
386.651	1.53
387.017	1.75
387.383	1.84
387.748	2.11
388.114	1.97
388.479	1.72
388.845	2.17
389.21	2.08
389.575	1.99
389.94	2.01
390.306	2.15
390.671	1.89
391.036	2.08
391.401	1.57
391.766	2.03
392.131	1.86
392.496	1.68
392.861	1.62
393.226	1.96
393.591	1.96
393.956	1.86
394.32	2.03
394.685	2.03
395.05	1.61
395.414	1.87
395.779	1.85
396.143	1.89
396.508	1.9
396.872	2.13
397.236	1.86
397.601	2.21
397.965	1.94
398.329	1.92
398.694	1.94
399.058	1.94
399.422	1.92
399.786	1.77
400.15	1.88
400.514	2.29
400.878	1.87
401.242	1.8
401.605	2.15
401.969	2.17
402.333	1.96
402.697	2.01
403.06	1.77
403.424	1.84
403.787	2.14
404.151	1.83
404.514	1.93
404.878	1.84
405.241	1.68
405.604	2.07
405.968	2
406.331	1.88
406.694	1.93
407.057	1.92
407.42	1.96
407.783	1.81
408.146	2.07
408.509	1.94
408.872	2.06
409.235	1.79
409.598	2.07
409.961	1.96
410.323	2.22
410.686	1.92
411.049	1.72
411.411	1.77
411.774	1.82
412.136	1.99
412.499	2.04
412.861	1.93
413.223	1.97
413.586	1.91
413.948	1.77
414.31	2.03
414.672	2.15
415.035	1.94
415.397	1.97
415.759	2.05
416.121	1.96
416.483	2.01
416.845	1.92
417.206	1.89
417.568	2.16
417.93	1.78
418.292	2.14
418.653	1.92
419.015	1.96
419.377	1.96
419.738	1.9
420.1	2.06
420.461	1.9
420.822	1.92
421.184	1.94
421.545	1.89
421.906	1.81
422.267	2.01
422.629	1.95
422.99	1.78
423.351	1.91
423.712	1.91
424.073	2.02
424.434	1.92
424.795	1.94
425.155	1.84
425.516	1.9
425.877	1.84
426.238	2.03
426.598	1.96
426.959	1.97
427.32	2.05
427.68	2.02
428.041	1.99
428.401	1.95
428.761	2.06
429.122	1.92
429.482	1.98
429.842	2.01
430.202	1.94
430.563	1.85
430.923	2.11
431.283	1.94
431.643	1.9
432.003	1.94
432.363	2.08
432.722	2.32
433.082	1.88
433.442	1.84
433.802	1.99
434.161	1.88
434.521	2.03
434.881	1.96
435.24	1.9
435.6	2
435.959	2.15
436.319	2.03
436.678	1.83
437.037	2.01
437.396	2.16
437.756	2.02
438.115	2.15
438.474	1.85
438.833	1.96
439.192	1.96
439.551	2.04
439.91	1.99
440.269	2.02
440.628	2.04
440.987	1.97
441.345	2
441.704	1.91
442.063	2.04
442.421	1.95
442.78	1.86
443.138	2.04
443.497	1.99
443.855	1.97
444.214	2
444.572	2.03
444.93	1.83
445.288	1.78
445.647	2.03
446.005	1.84
446.363	1.82
446.721	2.02
447.079	2.01
447.437	1.91
447.795	1.92
448.153	1.9
448.51	1.97
448.868	1.97
449.226	1.98
449.584	2.03
449.941	2.02
450.299	1.94
450.656	1.93
451.014	2
451.371	1.98
451.729	1.91
452.086	2.07
452.443	1.89
452.801	1.96
453.158	1.97
453.515	2
453.872	1.88
454.229	1.94
454.586	1.95
454.943	1.91
455.3	1.95
455.657	1.86
456.014	1.92
456.371	1.88
456.727	2.03
457.084	1.88
457.441	2.08
457.797	1.96
458.154	2.05
458.51	1.75
458.867	1.95
459.223	2.14
459.58	1.89
459.936	2.09
460.292	1.98
460.648	1.88
461.005	1.86
461.361	1.92
461.717	1.92
462.073	2.16
462.429	2.04
462.785	1.98
463.141	2.14
463.496	2.11
463.852	2
464.208	2.07
464.564	2.08
464.919	2.12
465.275	1.95
465.631	2
465.986	2.01
466.342	1.85
466.697	1.95
467.052	2
467.408	1.94
467.763	2
468.118	2.17
468.473	2.05
468.829	2.03
469.184	1.97
469.539	1.94
469.894	1.93
470.249	2.14
470.603	2.04
470.958	2.04
471.313	1.97
471.668	2.07
472.023	1.93
472.377	2.04
472.732	1.91
473.086	2.08
473.441	2.18
473.795	2.03
474.15	1.98
474.504	1.97
474.859	2.02
475.213	2.15
475.567	2.16
475.921	1.98
476.275	2.22
476.63	2.17
476.984	2.01
477.338	2.08
477.692	1.89
478.045	1.96
478.399	2.15
478.753	1.87
479.107	1.9
479.461	1.99
479.814	2.03
480.168	2.12
480.521	2.07
480.875	2
481.228	1.96
481.582	2.02
481.935	2.08
482.289	1.9
482.642	1.8
482.995	1.97
483.348	2.01
483.701	1.97
484.055	1.92
484.408	1.85
484.761	1.85
485.114	1.74
485.466	1.77
485.819	1.83
486.172	1.96
486.525	2.02
486.878	1.99
487.23	2.04
487.583	1.93
487.936	1.95
488.288	1.89
488.641	1.87
488.993	1.85
489.345	1.83
489.698	1.87
490.05	1.93
490.402	2.05
490.754	2.06
491.107	2.01
491.459	2.09
491.811	1.95
492.163	1.92
492.515	1.87
492.866	1.89
493.218	1.83
493.57	1.93
493.922	1.98
494.274	2.07
494.625	2.06
494.977	2.1
495.328	2
495.68	2
496.031	2.13
496.383	2.05
496.734	2.01
497.086	1.94
497.437	2
497.788	2.03
498.139	1.91
498.49	2
498.842	1.91
499.193	1.96
499.544	2
499.894	2.09
500.245	2.09
500.596	2.03
500.947	2
501.298	2.09
501.648	2.06
501.999	2.06
502.35	2.07
502.7	2.1
503.051	2.07
503.401	1.95
503.752	2.05
504.102	2.03
504.452	2.06
504.803	1.88
505.153	1.94
505.503	2.18
505.853	1.89
506.203	2.05
506.553	2.19
506.903	2
507.253	2.1
507.603	2.17
507.953	1.95
508.303	2.1
508.652	1.9
509.002	2.01
509.352	2
509.701	1.99
510.051	2
510.4	2.02
510.75	1.91
511.099	1.97
511.449	2.07
511.798	1.97
512.147	2.08
512.496	2.11
512.846	2.17
513.195	2.05
513.544	1.94
513.893	2.1
514.242	1.99
514.591	2.17
514.939	1.99
515.288	2.11
515.637	1.98
515.986	2.04
516.334	2.08
516.683	2.03
517.032	1.99
517.38	2.01
517.729	1.99
518.077	2.01
518.426	2.05
518.774	1.98
519.122	2.01
519.47	1.89
519.819	1.94
520.167	1.92
520.515	1.96
520.863	1.96
521.211	1.98
521.559	2.1
521.907	1.96
522.255	1.97
522.602	1.99
522.95	2.01
523.298	1.98
523.645	2.1
523.993	1.93
524.341	2.15
524.688	1.99
525.036	2.06
525.383	2.1
525.73	1.99
526.078	1.99
526.425	2.06
526.772	2
527.119	1.89
527.466	2.04
527.814	2.07
528.161	1.97
528.508	1.93
528.854	1.98
529.201	1.94
529.548	1.89
529.895	1.8
530.242	1.83
530.588	1.89
530.935	1.97
531.282	2.03
531.628	2.03
531.975	2.11
532.321	2.1
532.667	2
533.014	2.1
533.36	1.98
533.706	1.89
534.052	1.91
534.399	1.99
534.745	1.89
535.091	1.95
535.437	2
535.783	1.97
536.129	2.04
536.474	2.08
536.82	1.99
537.166	2.06
537.512	1.98
537.857	1.96
538.203	1.97
538.549	1.98
538.894	2.05
539.239	2.05
539.585	2.14
539.93	2.05
540.276	2.23
540.621	2.06
540.966	2.04
541.311	2.09
541.656	2.08
542.001	1.9
542.346	1.85
542.691	1.84
543.036	1.89
543.381	1.93
543.726	1.98
544.071	1.99
544.415	2.05
544.76	1.93
545.105	2.1
545.449	1.99
545.794	2.15
546.138	2.2
546.483	2.1
546.827	2.06
547.171	2.01
547.516	1.99
547.86	1.99
548.204	1.99
548.548	2.02
548.892	2.08
549.236	2.01
549.58	2.06
549.924	2.11
550.268	2.05
550.612	2.15
550.956	2.08
551.3	2.09
551.643	2.07
551.987	2.33
552.33	2.11
552.674	1.96
553.017	2.16
553.361	2.11
553.704	2.18
554.048	2.08
554.391	2
554.734	2.07
555.077	2.12
555.42	2.19
555.764	2.1
556.107	1.97
556.45	2.05
556.793	1.98
557.135	2.17
557.478	2.14
557.821	1.98
558.164	2.07
558.507	2.08
558.849	2.15
559.192	2.18
559.534	2.26
559.877	2.09
560.219	2.22
560.562	2.17
560.904	2.15
561.246	2.13
561.589	2.25
561.931	2.06
562.273	2.15
562.615	2.09
562.957	1.89
563.299	2.02
563.641	2.19
563.983	2.25
564.325	1.96
564.667	2.04
565.008	2.05
565.35	2.06
565.692	2.16
566.033	1.85
566.375	2.12
566.716	2.09
567.058	2.02
567.399	2.02
567.741	1.98
568.082	2.12
568.423	2.1
568.764	1.98
569.105	1.99
569.447	2.22
569.788	2.18
570.129	2.15
570.47	2.02
570.811	1.81
571.151	1.99
571.492	2
571.833	1.98
572.174	1.86
572.514	2.04
572.855	2.05
573.195	2.06
573.536	1.9
573.876	1.9
574.217	2.03
574.557	2.12
574.898	2.1
575.238	2.23
575.578	2.05
575.918	2.2
576.258	2.04
576.598	2.13
576.938	1.99
577.278	2.06
577.618	2.09
577.958	2.08
578.298	2.03
578.638	1.93
578.977	2.23
579.317	1.91
579.657	1.92
579.996	2.26
580.336	2.36
580.675	2.3
581.014	1.91
581.354	2.14
581.693	2.1
582.032	2.09
582.372	2.01
582.711	1.98
583.05	1.99
583.389	1.88
583.728	2.06
584.067	2.27
584.406	2.23
584.745	2.03
585.083	2.17
585.422	1.97
585.761	2.3
586.1	2.21
586.438	2.42
586.777	2.12
587.115	2.08
587.454	2.32
587.792	1.84
588.13	2.04
588.469	2.4
588.807	2.12
589.145	2.1
589.483	2.04
589.821	2.04
590.159	2.13
590.497	2.24
590.835	2.04
591.173	2.01
591.511	2.21
591.849	2.07
592.187	2.1
592.524	2.06
592.862	2.16
593.2	2.14
593.537	2.01
593.875	2.26
594.212	2.01
594.55	2
594.887	1.94
595.224	2.28
595.561	2.05
595.899	2.42
596.236	2.08
596.573	2.38
596.91	1.97
597.247	2.06
597.584	1.99
597.921	1.91
598.258	1.96
598.594	2.02
598.931	2.13
599.268	2.21
599.604	2.13
599.941	2.31
600.277	2.07
600.614	2.17
600.95	2.23
601.287	2.19
601.623	2.15
601.959	1.99
602.296	1.87
602.632	1.83
602.968	2.25
603.304	1.94
603.64	2.26
603.976	2.11
604.312	2.16
604.648	1.99
604.984	1.86
605.319	2.07
605.655	2.09
605.991	1.96
606.326	2.05
606.662	2.05
606.998	2.29
607.333	2.01
607.668	2.06
608.004	1.98
608.339	2.2
608.674	2.29
609.01	2.25
609.345	2.15
609.68	2
610.015	2.06
610.35	2.1
610.685	2.06
611.02	1.99
611.355	1.93
611.689	2.11
612.024	2.02
612.359	1.83
612.694	2.25
613.028	2.12
613.363	2.02
613.697	1.97
614.032	2.01
614.366	2.18
614.7	2
615.035	1.98
615.369	2.24
615.703	1.96
616.037	2.11
616.371	2.03
616.705	1.91
617.039	2.14
617.373	1.99
617.707	2.32
618.041	2.06
618.375	1.88
618.709	1.89
619.042	2.22
619.376	2.18
619.71	2.25
620.043	2.37
620.377	1.88
620.71	2.07
621.043	2.25
621.377	1.86
621.71	2.1
622.043	2.13
622.376	2.3
622.709	2.45
623.043	2.3
623.376	2.42
623.709	2.4
624.041	2.12
624.374	2.11
624.707	2.08
625.04	2.06
625.373	2.12
625.705	2.13
626.038	2.29
626.37	1.84
626.703	2.13
627.035	2.24
627.368	2.29
627.7	2.13
628.032	2.09
628.365	2.16
628.697	2.17
629.029	2.35
629.361	2.44
629.693	2.24
630.025	2.3
630.357	2.11
630.689	2.11
631.021	2.25
631.353	2.27
631.684	2.2
632.016	1.74
632.348	2.05
632.679	2.16
633.011	2.34
633.342	2.15
633.674	2.02
634.005	2.08
634.336	2.15
634.668	2.25
634.999	2.31
635.33	2.25
635.661	2.16
635.992	2.2
636.323	2.47
636.654	2.32
636.985	1.99
637.316	2.17
637.647	1.94
637.977	2.42
638.308	2.05
638.639	2.07
638.969	2.11
639.3	2.35
639.63	2.55
639.961	1.81
640.291	2
640.622	2.43
640.952	2
641.282	2.09
641.612	2.44
641.943	2.22
642.273	2.04
642.603	2.06
642.933	2.31
643.263	1.97
643.592	2.43
643.922	2.61
644.252	2.11
644.582	1.66
644.911	2.48
645.241	2.21
645.571	2.01
645.9	2.48
646.23	2.1
646.559	2.24
646.888	2.02
647.218	2.16
647.547	1.96
647.876	2.22
648.205	1.99
648.534	2.27
648.863	1.9
649.192	1.99
649.521	2.35
649.85	2.43
650.179	2.29
650.508	2.54
650.837	2.26
651.165	2.2
651.494	2.55
651.822	2.3
652.151	2.02
652.479	1.75
652.808	1.88
653.136	1.81
653.465	2.11
653.793	2.48
654.121	2.41
654.449	2.67
654.777	2.39
655.105	2.52
655.433	1.88
655.761	2
656.089	2.19
656.417	2.53
656.745	2.48
657.073	2.06
657.4	2.22
657.728	2.39
658.056	2.6
658.383	2.46
658.711	2.62
659.038	2.07
659.365	1.86
659.693	2.49
660.02	2.48
660.347	2.58
660.674	2.54
661.001	1.92
661.329	2.27
661.656	1.86
661.982	2.27
662.309	2.26
662.636	2.53
662.963	1.72
663.29	1.86
663.616	2.21
663.943	2.16
664.27	2.82
664.596	2.12
664.923	1.76
665.249	2.17
665.576	2.54
665.902	2.33
666.228	2.42
666.554	2.05
666.881	2.1
667.207	2.83
667.533	2.62
667.859	2.04
668.185	2.82
668.511	2.4
668.837	2.37
669.162	2.64
669.488	2.29
669.814	2.51
670.139	2.5
670.465	2.09
670.791	2.55
671.116	2.65
671.442	2.08
671.767	2.32
672.092	2.38
672.418	2.13
672.743	2.24
673.068	1.71
673.393	1.55
673.718	2.22
674.043	1.87
674.368	2.37
674.693	2.7
675.018	2.81
675.343	2.16
675.667	2.3
675.992	2.16
676.317	2.69
676.641	2.68
676.966	2.14
677.29	2.31
677.615	2.31
677.939	2.23
678.264	2.79
678.588	2.68
678.912	2.48
679.236	2.84
679.56	2.29
679.885	1.61
680.209	2.3
680.532	3.14
680.856	2.59
681.18	2.76
681.504	2.38
681.828	2.72
682.152	2.83
682.475	2.11
682.799	2.79
683.122	2.43
683.446	2.13
683.769	2.12
684.093	2.4
684.416	2.67
684.739	2.71
685.062	2.57
685.386	2.17
685.709	2.45
686.032	2.77
686.355	2.35
686.678	2.63
687.001	2.45
687.324	2.77
687.646	2.28
687.969	2.37
688.292	2.73
688.614	2.48
688.937	2.16
689.26	2.53
689.582	2.41
689.904	2.4
690.227	1.85
690.549	2.83
690.871	2.05
691.194	2.41
691.516	1.96
691.838	2.02
692.16	2.15
692.482	2.77
692.804	2.94
693.126	2.48
693.448	2.08
