Data from 0034_chest_Reflection__0__182.txt Node

Date: Thu Oct 20 22:21:07 CDT 2022
User: ToomeyLab
Spectrometer: FLMS14357
Trigger mode: 0
Integration Time (sec): 1.000000E-2
Scans to average: 100
Electric dark correction enabled: true
Nonlinearity correction enabled: false
Boxcar width: 0
XAxis mode: Wavelengths
Number of Pixels in Spectrum: 2048
>>>>>Begin Spectral Data<<<<<
189.047	-266.24
189.435	-266.24
189.823	-266.24
190.211	290.48
190.599	-213.91
190.987	-285.06
191.375	204.14
191.763	109.35
192.151	28.85
192.538	-21.27
192.926	27.12
193.314	-1770.1
193.702	-323.13
194.089	46.04
194.477	-442.35
194.864	284.73
195.252	84.99
195.639	96.77
196.027	36.49
196.414	117.75
196.801	479.91
197.189	47.91
197.576	9.75
197.963	46.96
198.351	7.48
198.738	-33.08
199.125	30
199.512	-23.14
199.899	-22.56
200.286	-9.84
200.673	29.07
201.06	31.79
201.447	29.42
201.833	-18.63
202.22	12.14
202.607	4.87
202.994	-8.2
203.38	-43.58
203.767	-22.79
204.154	11.76
204.54	-31.04
204.927	-15.19
205.313	24.31
205.699	23
206.086	-13.62
206.472	1.76
206.858	-47.8
207.245	12.15
207.631	-9.89
208.017	-28.51
208.403	-75.18
208.789	-27.04
209.175	-1.77
209.561	27.18
209.947	-25.14
210.333	25.98
210.719	21.18
211.105	-8.85
211.491	-75.05
211.876	-19.05
212.262	-8.22
212.648	28.45
213.034	-7.09
213.419	-40.36
213.805	-42.82
214.19	-61.96
214.576	-57.74
214.961	-14.19
215.346	-85.41
215.732	-1.99
216.117	-0.92
216.502	3.89
216.888	-3.31
217.273	-35.37
217.658	19.69
218.043	13.92
218.428	4.17
218.813	28.27
219.198	-7.45
219.583	-8.93
219.968	37.75
220.353	-15.76
220.738	-5.34
221.122	-9.01
221.507	-5.61
221.892	15.84
222.276	4.91
222.661	11.52
223.046	21.59
223.43	7.97
223.815	-0.84
224.199	-9.87
224.583	-3.6
224.968	1.25
225.352	12.38
225.736	3.73
226.121	-5.04
226.505	4.38
226.889	-4.76
227.273	2
227.657	3.69
228.041	-3.61
228.425	3.79
228.809	5.3
229.193	4.16
229.577	2.1
229.961	4.58
230.344	4.2
230.728	2.92
231.112	2.92
231.495	3.05
231.879	4.04
232.263	4.18
232.646	3.92
233.03	4.16
233.413	1.35
233.797	4.7
234.18	1.79
234.563	6.62
234.946	4.83
235.33	6.04
235.713	3.75
236.096	2.75
236.479	4.28
236.862	5.39
237.245	3.28
237.628	4.21
238.011	3.75
238.394	4.07
238.777	3.42
239.16	1.21
239.543	2.03
239.925	2.4
240.308	2.45
240.691	4.46
241.073	2.19
241.456	3.62
241.838	2.97
242.221	3.1
242.603	3.99
242.986	3.75
243.368	3.54
243.75	4.5
244.133	4.15
244.515	4
244.897	2.98
245.279	2.13
245.661	4.36
246.043	3.84
246.425	3.66
246.807	4.26
247.189	4.16
247.571	4.01
247.953	3.79
248.335	3.83
248.717	3.89
249.098	3.81
249.48	3.66
249.862	3.96
250.243	4.01
250.625	4.22
251.006	4.06
251.388	3.81
251.769	3.29
252.151	2.86
252.532	3.62
252.913	3.85
253.295	4.41
253.676	4.45
254.057	3.32
254.438	3.91
254.819	3.56
255.2	3.06
255.581	3.38
255.962	4.51
256.343	2.92
256.724	3.39
257.105	4.01
257.486	3.17
257.867	3.78
258.247	4.73
258.628	3.46
259.009	3.04
259.389	3.74
259.77	3.68
260.15	3.85
260.531	3.76
260.911	3.49
261.292	3.83
261.672	3.52
262.052	3.59
262.432	3.73
262.813	3.17
263.193	4.12
263.573	4.05
263.953	3.82
264.333	3.21
264.713	3.63
265.093	3.13
265.473	3.69
265.853	4.14
266.233	3.39
266.612	3.68
266.992	3.13
267.372	4.37
267.752	3.8
268.131	4.22
268.511	4.16
268.89	3.5
269.27	3.71
269.649	3.36
270.029	3.04
270.408	3.37
270.787	3.64
271.167	3.81
271.546	2.97
271.925	3.28
272.304	3.38
272.683	3.3
273.062	3.31
273.441	3.38
273.82	3.52
274.199	3.14
274.578	2.86
274.957	3.14
275.336	3.26
275.715	3.42
276.093	3.88
276.472	3.64
276.851	3.7
277.229	3.35
277.608	3.05
277.986	2.92
278.365	2.85
278.743	3.8
279.122	3.3
279.5	3.23
279.878	3.7
280.257	3.59
280.635	3.72
281.013	3.13
281.391	3.85
281.769	3.34
282.147	3.28
282.525	3.35
282.903	2.99
283.281	3.22
283.659	3.06
284.037	2.82
284.415	3.14
284.792	2.77
285.17	3.72
285.548	2.84
285.925	3.22
286.303	3.31
286.68	3.77
287.058	3.51
287.435	3.37
287.813	3.4
288.19	3.55
288.567	3.43
288.945	3.39
289.322	3.37
289.699	2.98
290.076	3
290.453	3.11
290.83	3.56
291.207	3.48
291.584	3.04
291.961	3.4
292.338	3.02
292.715	3.05
293.092	3.75
293.469	3.25
293.845	3.64
294.222	3.6
294.599	3.94
294.975	2.89
295.352	3.8
295.728	3.28
296.105	3.56
296.481	3.42
296.858	3.69
297.234	3.54
297.61	3.42
297.986	3.33
298.363	3.4
298.739	3.42
299.115	3.34
299.491	3.6
299.867	2.97
300.243	3.5
300.619	3.66
300.995	2.71
301.371	3.44
301.746	3.25
302.122	3.43
302.498	3.4
302.874	3.87
303.249	3.92
303.625	3.33
304	3.71
304.376	3.57
304.751	3.96
305.127	3.19
305.502	3.54
305.878	3.66
306.253	2.91
306.628	3.58
307.003	3.69
307.378	3.41
307.754	3.57
308.129	3.3
308.504	3.92
308.879	3.61
309.254	3.38
309.629	3.14
310.003	3.26
310.378	3.3
310.753	3.83
311.128	3.69
311.502	3.53
311.877	3.55
312.252	3.47
312.626	3.48
313.001	3.68
313.375	3.66
313.75	3.35
314.124	3.14
314.498	3.37
314.873	3.27
315.247	2.96
315.621	3.45
315.995	3.2
316.369	3.74
316.743	2.95
317.117	3.46
317.491	3.35
317.865	3.22
318.239	3.75
318.613	3.67
318.987	3.62
319.361	3.81
319.734	2.81
320.108	3.56
320.482	3.64
320.855	3.88
321.229	3.27
321.602	2.99
321.976	3.65
322.349	3.28
322.723	3.76
323.096	3.27
323.469	3.35
323.843	3.93
324.216	3.41
324.589	4.09
324.962	3.23
325.335	3.45
325.708	3.68
326.081	3.87
326.454	3.52
326.827	3.36
327.2	3.87
327.573	3.5
327.945	3.6
328.318	3.45
328.691	3.75
329.063	3.5
329.436	3.91
329.809	3.39
330.181	3.77
330.553	3.44
330.926	3.23
331.298	3.22
331.671	4.01
332.043	4.09
332.415	3.99
332.787	4.04
333.159	3.93
333.532	3.89
333.904	3.7
334.276	3.81
334.648	3.69
335.02	3.86
335.391	3.1
335.763	3.83
336.135	3.41
336.507	3.11
336.879	4.52
337.25	3.04
337.622	3.62
337.993	3.58
338.365	3.79
338.736	3.61
339.108	3.3
339.479	3.18
339.851	3.55
340.222	3.14
340.593	3.76
340.964	3.67
341.336	3.5
341.707	3.24
342.078	3.45
342.449	3.27
342.82	3.65
343.191	3.72
343.562	3.97
343.933	3.8
344.303	3.5
344.674	3.49
345.045	3.71
345.416	3.61
345.786	3.63
346.157	3.83
346.527	3.37
346.898	3.43
347.268	3.33
347.639	3.7
348.009	3.48
348.38	3.74
348.75	3.37
349.12	3.6
349.49	3.78
349.861	3.7
350.231	3.55
350.601	3.72
350.971	3.91
351.341	4.21
351.711	3.62
352.081	3.52
352.45	3.6
352.82	3.53
353.19	3.58
353.56	3.85
353.929	3.46
354.299	3.69
354.669	3.65
355.038	3.49
355.408	3.04
355.777	3.73
356.147	3.79
356.516	3.98
356.885	3.94
357.254	3.74
357.624	3.69
357.993	3.49
358.362	3.86
358.731	3.8
359.1	3.45
359.469	3.84
359.838	3.33
360.207	4.23
360.576	3.54
360.945	4
361.314	3.64
361.682	3.8
362.051	3.67
362.42	3.52
362.788	3.68
363.157	3.72
363.525	3.47
363.894	3.66
364.262	3.86
364.631	3.88
364.999	3.55
365.367	4.01
365.735	3.77
366.104	3.49
366.472	3.76
366.84	4.17
367.208	3.76
367.576	3.83
367.944	3.79
368.312	3.79
368.68	3.8
369.048	3.76
369.416	3.56
369.783	3.6
370.151	4.02
370.519	4.02
370.886	3.8
371.254	3.9
371.621	3.76
371.989	3.68
372.356	3.5
372.724	4.26
373.091	3.84
373.458	3.81
373.826	3.85
374.193	3.79
374.56	3.67
374.927	3.6
375.294	3.56
375.661	4.11
376.028	3.77
376.395	3.87
376.762	3.83
377.129	3.72
377.496	3.62
377.863	3.79
378.229	3.73
378.596	3.79
378.963	3.92
379.329	3.94
379.696	3.79
380.062	3.81
380.429	4.26
380.795	3.59
381.161	4.19
381.528	3.8
381.894	3.84
382.26	3.65
382.626	3.8
382.993	3.66
383.359	3.86
383.725	3.78
384.091	3.72
384.457	3.67
384.823	3.85
385.188	3.7
385.554	3.48
385.92	3.75
386.286	3.71
386.651	3.53
387.017	3.85
387.383	4.01
387.748	3.99
388.114	3.83
388.479	3.7
388.845	3.85
389.21	4.17
389.575	3.76
389.94	4
390.306	3.99
390.671	3.78
391.036	3.99
391.401	3.73
391.766	3.88
392.131	4
392.496	3.77
392.861	3.85
393.226	3.94
393.591	4.04
393.956	4.03
394.32	3.88
394.685	4.16
395.05	3.93
395.414	3.95
395.779	3.81
396.143	3.97
396.508	4.09
396.872	4.14
397.236	4.01
397.601	4.06
397.965	3.96
398.329	3.96
398.694	3.66
399.058	4.09
399.422	3.99
399.786	3.81
400.15	4.13
400.514	4.16
400.878	3.74
401.242	4.17
401.605	4.09
401.969	3.95
402.333	3.96
402.697	4.22
403.06	4.05
403.424	3.99
403.787	4.04
404.151	3.75
404.514	4
404.878	3.91
405.241	3.82
405.604	4.15
405.968	3.84
406.331	4.02
406.694	4
407.057	4.08
407.42	3.91
407.783	3.93
408.146	4.28
408.509	4.01
408.872	4.12
409.235	3.78
409.598	4.12
409.961	4.24
410.323	4.07
410.686	4.04
411.049	3.94
411.411	3.93
411.774	4.05
412.136	4.05
412.499	4.09
412.861	4.09
413.223	3.94
413.586	3.96
413.948	3.81
414.31	3.9
414.672	3.91
415.035	4.05
415.397	4.24
415.759	4.13
416.121	3.99
416.483	3.97
416.845	3.92
417.206	4.02
417.568	4.12
417.93	3.94
418.292	4.23
418.653	4.1
419.015	3.91
419.377	3.96
419.738	4.15
420.1	4.03
420.461	4.14
420.822	4.09
421.184	4.03
421.545	3.96
421.906	4.03
422.267	3.97
422.629	3.93
422.99	3.98
423.351	3.97
423.712	3.96
424.073	4.05
424.434	3.98
424.795	3.95
425.155	4.02
425.516	3.89
425.877	4
426.238	4.08
426.598	3.99
426.959	4
427.32	4.12
427.68	4.13
428.041	3.99
428.401	4.08
428.761	3.97
429.122	4.04
429.482	4.11
429.842	4.08
430.202	4.17
430.563	4.08
430.923	4.29
431.283	4.1
431.643	4.09
432.003	4.2
432.363	4.36
432.722	4.48
433.082	4.1
433.442	4.07
433.802	4.24
434.161	4.25
434.521	4.04
434.881	4.11
435.24	4.01
435.6	4.18
435.959	4.34
436.319	4.23
436.678	4.2
437.037	4.26
437.396	4.4
437.756	4.35
438.115	4.3
438.474	4.12
438.833	4.25
439.192	4.09
439.551	4.04
439.91	4.19
440.269	4.22
440.628	4.31
440.987	4.1
441.345	4.36
441.704	4.17
442.063	4.3
442.421	4.15
442.78	4.21
443.138	4.34
443.497	4.27
443.855	4.21
444.214	4.22
444.572	4.27
444.93	4.2
445.288	4.22
445.647	4.22
446.005	4.13
446.363	4.24
446.721	4.21
447.079	4.17
447.437	4.09
447.795	4.17
448.153	4.13
448.51	4.15
448.868	4.27
449.226	4.28
449.584	4.18
449.941	4.28
450.299	4.38
450.656	4.17
451.014	4.26
451.371	4.19
451.729	4.15
452.086	4.45
452.443	4.18
452.801	4.33
453.158	4.38
453.515	4.28
453.872	4.21
454.229	4.17
454.586	4.2
454.943	4.21
455.3	4.42
455.657	4.32
456.014	4.3
456.371	4.36
456.727	4.28
457.084	4.28
457.441	4.46
457.797	4.3
458.154	4.43
458.51	4.2
458.867	4.38
459.223	4.53
459.58	4.32
459.936	4.44
460.292	4.32
460.648	4.21
461.005	4.18
461.361	4.26
461.717	4.38
462.073	4.52
462.429	4.44
462.785	4.48
463.141	4.48
463.496	4.4
463.852	4.52
464.208	4.46
464.564	4.44
464.919	4.51
465.275	4.53
465.631	4.38
465.986	4.38
466.342	4.31
466.697	4.45
467.052	4.38
467.408	4.55
467.763	4.5
468.118	4.54
468.473	4.73
468.829	4.54
469.184	4.5
469.539	4.34
469.894	4.5
470.249	4.58
470.603	4.38
470.958	4.65
471.313	4.32
471.668	4.54
472.023	4.52
472.377	4.46
472.732	4.54
473.086	4.45
473.441	4.65
473.795	4.73
474.15	4.57
474.504	4.56
474.859	4.54
475.213	4.59
475.567	4.76
475.921	4.51
476.275	4.81
476.63	4.73
476.984	4.51
477.338	4.71
477.692	4.65
478.045	4.53
478.399	4.69
478.753	4.49
479.107	4.54
479.461	4.74
479.814	4.58
480.168	4.79
480.521	4.62
480.875	4.7
481.228	4.67
481.582	4.64
481.935	4.59
482.289	4.57
482.642	4.51
482.995	4.57
483.348	4.67
483.701	4.55
484.055	4.61
484.408	4.43
484.761	4.41
485.114	4.33
485.466	4.29
485.819	4.36
486.172	4.46
486.525	4.5
486.878	4.58
487.23	4.63
487.583	4.52
487.936	4.57
488.288	4.49
488.641	4.44
488.993	4.43
489.345	4.48
489.698	4.5
490.05	4.54
490.402	4.65
490.754	4.63
491.107	4.58
491.459	4.7
491.811	4.64
492.163	4.65
492.515	4.63
492.866	4.51
493.218	4.48
493.57	4.54
493.922	4.63
494.274	4.63
494.625	4.71
494.977	4.88
495.328	4.81
495.68	4.85
496.031	4.83
496.383	4.87
496.734	4.77
497.086	4.69
497.437	4.88
497.788	4.96
498.139	4.8
498.49	4.83
498.842	4.71
499.193	4.74
499.544	4.88
499.894	4.88
500.245	4.89
500.596	4.91
500.947	4.93
501.298	4.96
501.648	4.79
501.999	4.99
502.35	5
502.7	4.87
503.051	5.1
503.401	4.98
503.752	4.97
504.102	5.01
504.452	5
504.803	4.83
505.153	4.9
505.503	5.04
505.853	4.93
506.203	4.88
506.553	5.09
506.903	4.99
507.253	5.11
507.603	5.1
507.953	5.16
508.303	5.19
508.652	5.02
509.002	5.02
509.352	4.97
509.701	5.03
510.051	4.93
510.4	4.93
510.75	4.99
511.099	4.98
511.449	5.02
511.798	5.01
512.147	5.21
512.496	5.19
512.846	5.19
513.195	5.2
513.544	5.14
513.893	5.06
514.242	5.08
514.591	5.18
514.939	5.08
515.288	5.33
515.637	5.23
515.986	5.21
516.334	5.16
516.683	5.2
517.032	5.14
517.38	5.26
517.729	5.24
518.077	5.33
518.426	5.28
518.774	5.29
519.122	5.18
519.47	5.16
519.819	5.15
520.167	5.18
520.515	5.19
520.863	5.25
521.211	5.21
521.559	5.3
521.907	5.28
522.255	5.22
522.602	5.23
522.95	5.42
523.298	5.43
523.645	5.57
523.993	5.35
524.341	5.45
524.688	5.42
525.036	5.48
525.383	5.47
525.73	5.44
526.078	5.42
526.425	5.49
526.772	5.31
527.119	5.26
527.466	5.42
527.814	5.41
528.161	5.46
528.508	5.42
528.854	5.5
529.201	5.4
529.548	5.28
529.895	5.23
530.242	5.2
530.588	5.24
530.935	5.33
531.282	5.4
531.628	5.42
531.975	5.52
532.321	5.54
532.667	5.54
533.014	5.64
533.36	5.62
533.706	5.54
534.052	5.56
534.399	5.56
534.745	5.47
535.091	5.51
535.437	5.59
535.783	5.59
536.129	5.58
536.474	5.78
536.82	5.72
537.166	5.7
537.512	5.7
537.857	5.74
538.203	5.65
538.549	5.71
538.894	5.76
539.239	5.78
539.585	5.9
539.93	5.91
540.276	6
540.621	5.95
540.966	6.01
541.311	5.87
541.656	5.91
542.001	5.95
542.346	5.83
542.691	5.72
543.036	5.68
543.381	5.77
543.726	5.81
544.071	5.88
544.415	5.97
544.76	5.93
545.105	6.03
545.449	6.06
545.794	6.18
546.138	6.22
546.483	6.11
546.827	6.19
547.171	6.18
547.516	6.14
547.86	6.08
548.204	6.13
548.548	6.11
548.892	6.15
549.236	6.32
549.58	6.23
549.924	6.38
550.268	6.36
550.612	6.47
550.956	6.36
551.3	6.64
551.643	6.46
551.987	6.49
552.33	6.35
552.674	6.44
553.017	6.45
553.361	6.65
553.704	6.64
554.048	6.55
554.391	6.54
554.734	6.63
555.077	6.58
555.42	6.66
555.764	6.67
556.107	6.54
556.45	6.54
556.793	6.67
557.135	6.64
557.478	6.66
557.821	6.78
558.164	6.82
558.507	6.78
558.849	7.02
559.192	6.9
559.534	6.94
559.877	7
560.219	7.06
560.562	6.95
560.904	7.06
561.246	7.03
561.589	6.94
561.931	6.94
562.273	6.97
562.615	7.05
562.957	7.09
563.299	7.16
563.641	7.05
563.983	7.1
564.325	7.07
564.667	7.15
565.008	7.26
565.35	7.11
565.692	7.18
566.033	7.09
566.375	7.04
566.716	7.27
567.058	7.35
567.399	7.42
567.741	7.22
568.082	7.23
568.423	7.4
568.764	7.21
569.105	7.2
569.447	7.37
569.788	7.48
570.129	7.44
570.47	7.44
570.811	7.42
571.151	7.43
571.492	7.5
571.833	7.44
572.174	7.68
572.514	7.57
572.855	7.52
573.195	7.6
573.536	7.58
573.876	7.51
574.217	7.68
574.557	7.68
574.898	7.79
575.238	7.98
575.578	7.85
575.918	7.78
576.258	7.93
576.598	7.86
576.938	7.83
577.278	7.92
577.618	8.16
577.958	8
578.298	8.04
578.638	7.99
578.977	8.12
579.317	8.01
579.657	8.06
579.996	8.29
580.336	8.24
580.675	8.61
581.014	8.16
581.354	8.48
581.693	8.31
582.032	8.33
582.372	8.51
582.711	8.31
583.05	8.56
583.389	8.27
583.728	8.48
584.067	8.47
584.406	8.46
584.745	8.49
585.083	8.43
585.422	8.58
585.761	8.88
586.1	8.8
586.438	8.93
586.777	8.54
587.115	8.67
587.454	8.97
587.792	8.71
588.13	8.86
588.469	9.07
588.807	8.62
589.145	8.91
589.483	8.82
589.821	8.58
590.159	8.78
590.497	9
590.835	8.76
591.173	9.01
591.511	9.19
591.849	9.11
592.187	8.83
592.524	9.22
592.862	9.16
593.2	9.31
593.537	9.31
593.875	9.32
594.212	9.15
594.55	9.41
594.887	9.05
595.224	9.39
595.561	9.35
595.899	9.71
596.236	9.65
596.573	9.67
596.91	9.54
597.247	9.55
597.584	9.47
597.921	9.4
598.258	9.51
598.594	9.49
598.931	9.63
599.268	9.41
599.604	9.6
599.941	9.63
600.277	9.74
600.614	9.95
600.95	10.02
601.287	9.86
601.623	9.83
601.959	9.91
602.296	9.72
602.632	9.8
602.968	10.02
603.304	9.98
603.64	10.38
603.976	9.93
604.312	10.07
604.648	10.2
604.984	9.97
605.319	9.87
605.655	10.14
605.991	10.03
606.326	10.11
606.662	10.1
606.998	10.4
607.333	10.14
607.668	10.2
608.004	10.45
608.339	10.36
608.674	10.69
609.01	10.61
609.345	10.55
609.68	10.51
610.015	10.8
610.35	10.66
610.685	10.42
611.02	10.4
611.355	10.4
611.689	10.63
612.024	10.6
612.359	10.79
612.694	10.58
613.028	10.73
613.363	10.92
613.697	10.9
614.032	11.16
614.366	10.89
614.7	10.93
615.035	11.04
615.369	10.94
615.703	11.21
616.037	11.3
616.371	11.22
616.705	11.05
617.039	11.01
617.373	11.06
617.707	11.28
618.041	11.24
618.375	11.32
618.709	11.37
619.042	11.31
619.376	11.42
619.71	11.7
620.043	11.54
620.377	11.33
620.71	11.53
621.043	11.8
621.377	11.46
621.71	11.46
622.043	11.53
622.376	11.76
622.709	12.12
623.043	11.93
623.376	12.07
623.709	11.7
624.041	11.9
624.374	11.72
624.707	11.63
625.04	12.24
625.373	12.19
625.705	12.04
626.038	12.49
626.37	12.1
626.703	12.43
627.035	12.3
627.368	12.17
627.7	12.26
628.032	12.58
628.365	12.11
628.697	12.32
629.029	12.17
629.361	12.39
629.693	12.44
630.025	12.37
630.357	12.52
630.689	12.69
631.021	12.69
631.353	12.55
631.684	12.61
632.016	12.58
632.348	12.59
632.679	12.52
633.011	12.92
633.342	12.97
633.674	12.72
634.005	12.9
634.336	12.95
634.668	12.89
634.999	12.89
635.33	13.16
635.661	12.79
635.992	12.92
636.323	13.35
636.654	13.17
636.985	13.14
637.316	13.26
637.647	13.18
637.977	13.73
638.308	13.29
638.639	13.78
638.969	13.37
639.3	13.34
639.63	13.33
639.961	13.39
640.291	13.1
640.622	13.5
640.952	13.42
641.282	13.57
641.612	13.85
641.943	13.4
642.273	13.77
642.603	13.8
642.933	13.75
643.263	13.86
643.592	13.69
643.922	13.48
644.252	14.08
644.582	13.99
644.911	14.03
645.241	14.05
645.571	14
645.9	14.38
646.23	13.96
646.559	14.09
646.888	14.44
647.218	14.24
647.547	14.45
647.876	14.05
648.205	14.37
648.534	14.09
648.863	14.13
649.192	14.52
649.521	14.66
649.85	14.59
650.179	14.44
650.508	14.7
650.837	14.64
651.165	14.67
651.494	14.79
651.822	14.87
652.151	15
652.479	14.54
652.808	15
653.136	14.45
653.465	14.9
653.793	15
654.121	15.04
654.449	15.02
654.777	14.89
655.105	15.22
655.433	15.11
655.761	15.02
656.089	14.47
656.417	15.44
656.745	15.62
657.073	15.34
657.4	15.18
657.728	15.23
658.056	15
658.383	15.21
658.711	15.97
659.038	15.54
659.365	15.29
659.693	15.45
660.02	15.48
660.347	15.74
660.674	15.82
661.001	15.53
661.329	15.43
661.656	15.27
661.982	15.86
662.309	15.61
662.636	15.84
662.963	16.04
663.29	15.85
663.616	15.91
663.943	16.41
664.27	16.22
664.596	15.91
664.923	16.17
665.249	16.23
665.576	16.63
665.902	15.78
666.228	16.02
666.554	15.78
666.881	16.34
667.207	16.62
667.533	16.02
667.859	16.26
668.185	16.89
668.511	16.16
668.837	16.2
669.162	15.81
669.488	16.01
669.814	16.84
670.139	16.55
670.465	16.25
670.791	16.69
671.116	16.29
671.442	16.41
671.767	16.53
672.092	16.86
672.418	16.58
672.743	16.52
673.068	16.37
673.393	16.86
673.718	17.18
674.043	17.18
674.368	16.66
674.693	17.32
675.018	16.73
675.343	16.94
675.667	17.01
675.992	17
676.317	17.01
676.641	17.85
676.966	17.17
677.29	17.5
677.615	17.88
677.939	17.27
678.264	16.89
678.588	17.1
678.912	17.44
679.236	17.49
679.56	18.01
679.885	16.55
680.209	17.47
680.532	17.62
680.856	18.04
681.18	17.47
681.504	17.09
681.828	18.07
682.152	18.52
682.475	18.07
682.799	18.32
683.122	18.11
683.446	17.51
683.769	18.01
684.093	17.9
684.416	17.91
684.739	18.09
685.062	18.14
685.386	18.47
685.709	17.74
686.032	18.09
686.355	18.19
686.678	18.52
687.001	18.2
687.324	18.5
