Data from 0034_crown_Reflection__2__189.txt Node

Date: Thu Oct 20 22:23:33 CDT 2022
User: ToomeyLab
Spectrometer: FLMS14357
Trigger mode: 0
Integration Time (sec): 1.000000E-2
Scans to average: 100
Electric dark correction enabled: true
Nonlinearity correction enabled: false
Boxcar width: 0
XAxis mode: Wavelengths
Number of Pixels in Spectrum: 2048
>>>>>Begin Spectral Data<<<<<
189.047	883.12
189.435	883.12
189.823	883.12
190.211	843.21
190.599	-412.13
190.987	-547.81
191.375	82.5
191.763	144.92
192.151	49.5
192.538	-166.85
192.926	95.63
193.314	-2208.04
193.702	-6.45
194.089	103.29
194.477	-856.26
194.864	-268.55
195.252	55.95
195.639	298.62
196.027	92.57
196.414	232.38
196.801	262.12
197.189	707.35
197.576	54
197.963	215.24
198.351	2.52
198.738	-7.82
199.125	13.98
199.512	-22.23
199.899	-81.95
200.286	-26.81
200.673	5.55
201.06	21.96
201.447	-24.45
201.833	-0.27
202.22	-11.21
202.607	-38.23
202.994	-15.74
203.38	-94.46
203.767	-13.44
204.154	-35.08
204.54	-1.88
204.927	-5.75
205.313	5.69
205.699	-19.39
206.086	-46.24
206.472	-3.61
206.858	-21.77
207.245	26.48
207.631	-62.81
208.017	-21.77
208.403	18.26
208.789	15.02
209.175	12.33
209.561	41.06
209.947	59.93
210.333	-6.61
210.719	4.21
211.105	14.86
211.491	-92.82
211.876	-66.04
212.262	23.99
212.648	-13.98
213.034	20.78
213.419	-27.02
213.805	-2.4
214.19	-24.63
214.576	-36.44
214.961	-33.24
215.346	-71.79
215.732	-12.23
216.117	-17.08
216.502	3.35
216.888	-31.07
217.273	0.95
217.658	36.36
218.043	3.67
218.428	19.38
218.813	33.79
219.198	1.75
219.583	-19.44
219.968	12.93
220.353	-10.06
220.738	7.52
221.122	-11.54
221.507	-9.54
221.892	-17.4
222.276	-2.02
222.661	13.31
223.046	18.85
223.43	0.18
223.815	9.45
224.199	6.84
224.583	-2.76
224.968	-1.17
225.352	13.85
225.736	4.43
226.121	2.07
226.505	12.7
226.889	-0.23
227.273	5.85
227.657	6.42
228.041	4.88
228.425	8.19
228.809	11.31
229.193	13.64
229.577	11.05
229.961	11.8
230.344	11.95
230.728	12.1
231.112	12.24
231.495	13.15
231.879	12.13
232.263	11.74
232.646	11.26
233.03	12.08
233.413	7.41
233.797	10.57
234.18	9.6
234.563	9.55
234.946	10.78
235.33	12.22
235.713	10.33
236.096	9.69
236.479	11.21
236.862	12.08
237.245	10.82
237.628	10.61
238.011	11.39
238.394	11.01
238.777	10.73
239.16	8.99
239.543	11.24
239.925	9.87
240.308	12.19
240.691	13.54
241.073	8.8
241.456	11.04
241.838	10.85
242.221	10.06
242.603	11.89
242.986	11.4
243.368	11.95
243.75	11.71
244.133	11.57
244.515	10.79
244.897	10.91
245.279	9.49
245.661	11.99
246.043	10.1
246.425	11.77
246.807	12.13
247.189	11.64
247.571	12.03
247.953	11.48
248.335	11.42
248.717	10.8
249.098	10.54
249.48	10.6
249.862	11.12
250.243	10.28
250.625	10.93
251.006	10.55
251.388	11.15
251.769	11.38
252.151	10.09
252.532	9.96
252.913	10.71
253.295	11.05
253.676	11.12
254.057	9.86
254.438	10.99
254.819	10.26
255.2	10.9
255.581	9.71
255.962	11.67
256.343	9.68
256.724	10.25
257.105	10.2
257.486	10.92
257.867	10.35
258.247	10.82
258.628	10.3
259.009	9.68
259.389	10.31
259.77	10.63
260.15	10.72
260.531	10.4
260.911	10.58
261.292	10.35
261.672	9.86
262.052	9.63
262.432	9.87
262.813	9.12
263.193	10.22
263.573	9.91
263.953	9.37
264.333	9.54
264.713	9.28
265.093	9.56
265.473	9.69
265.853	10.53
266.233	10.42
266.612	9.87
266.992	8.99
267.372	10.08
267.752	9.98
268.131	9.87
268.511	9.7
268.89	9.06
269.27	9.39
269.649	8.84
270.029	9.62
270.408	9.31
270.787	9.32
271.167	8.95
271.546	8.99
271.925	10.26
272.304	9.83
272.683	9.65
273.062	9.04
273.441	9.21
273.82	9.54
274.199	8.95
274.578	8.74
274.957	8.85
275.336	9.01
275.715	9.22
276.093	9.38
276.472	9.67
276.851	9.41
277.229	8.89
277.608	8.93
277.986	8.62
278.365	8.57
278.743	9.06
279.122	9.09
279.5	8.61
279.878	9.47
280.257	8.36
280.635	8.81
281.013	8.55
281.391	8.96
281.769	9.16
282.147	8.39
282.525	8.3
282.903	8.82
283.281	8.47
283.659	8.43
284.037	8.22
284.415	8.2
284.792	7.89
285.17	9.4
285.548	8.62
285.925	8.54
286.303	8.37
286.68	8.86
287.058	8.53
287.435	8.34
287.813	8.29
288.19	8.22
288.567	7.88
288.945	8.03
289.322	8.18
289.699	7.81
290.076	7.82
290.453	7.66
290.83	8.52
291.207	8.59
291.584	8.11
291.961	8.04
292.338	7.86
292.715	7.72
293.092	8.31
293.469	8.01
293.845	8.26
294.222	8.32
294.599	8.54
294.975	7.48
295.352	8.38
295.728	7.66
296.105	8.15
296.481	7.51
296.858	7.65
297.234	7.77
297.61	7.84
297.986	7.62
298.363	7.75
298.739	7.63
299.115	7.44
299.491	7.49
299.867	6.77
300.243	7.49
300.619	7.31
300.995	6.89
301.371	7.67
301.746	6.63
302.122	7.15
302.498	6.84
302.874	7.63
303.249	7.84
303.625	7.22
304	7.26
304.376	7.2
304.751	7.58
305.127	7.09
305.502	7.14
305.878	7.04
306.253	6.67
306.628	6.88
307.003	6.92
307.378	6.73
307.754	7.01
308.129	6.77
308.504	7.3
308.879	7.36
309.254	7.17
309.629	6.53
310.003	6.87
310.378	6.83
310.753	7.27
311.128	7.01
311.502	6.99
311.877	7.08
312.252	6.92
312.626	6.81
313.001	6.97
313.375	6.81
313.75	6.59
314.124	6.66
314.498	6.68
314.873	6.59
315.247	6.32
315.621	6.58
315.995	6.33
316.369	6.96
316.743	5.81
317.117	6.7
317.491	6.74
317.865	6.36
318.239	6.57
318.613	7.17
318.987	6.89
319.361	6.65
319.734	6.56
320.108	6.59
320.482	5.97
320.855	6.48
321.229	6.64
321.602	6.05
321.976	6.06
322.349	6.07
322.723	6.43
323.096	6.54
323.469	6.54
323.843	6.25
324.216	6.67
324.589	6.95
324.962	6.45
325.335	6.82
325.708	6.64
326.081	6.46
326.454	6.5
326.827	6.33
327.2	7.08
327.573	6.12
327.945	6.75
328.318	6.28
328.691	6.89
329.063	6.69
329.436	6.45
329.809	6.75
330.181	6.87
330.553	6.44
330.926	6.41
331.298	6.18
331.671	6.74
332.043	6.84
332.415	6.76
332.787	6.59
333.159	6.57
333.532	6.49
333.904	6.5
334.276	6.39
334.648	6.19
335.02	6.21
335.391	6.2
335.763	6.71
336.135	6.54
336.507	5.85
336.879	6.94
337.25	5.9
337.622	6.6
337.993	5.9
338.365	6.54
338.736	6.13
339.108	6.37
339.479	6.48
339.851	6.12
340.222	6.1
340.593	6.42
340.964	6.46
341.336	6.24
341.707	5.9
342.078	6.35
342.449	6.11
342.82	6.44
343.191	6.43
343.562	6.82
343.933	6.37
344.303	6.31
344.674	6.52
345.045	6.43
345.416	6.34
345.786	6.51
346.157	6.75
346.527	6.39
346.898	6.28
347.268	6.7
347.639	6.54
348.009	6.7
348.38	6.74
348.75	6.32
349.12	6.43
349.49	6.57
349.861	7.17
350.231	6.48
350.601	6.77
350.971	6.57
351.341	7.09
351.711	6.85
352.081	6.22
352.45	6.35
352.82	6.7
353.19	6.49
353.56	6.57
353.929	6.54
354.299	6.65
354.669	7
355.038	6.65
355.408	6.17
355.777	7.09
356.147	6.93
356.516	6.74
356.885	6.65
357.254	6.74
357.624	6.68
357.993	6.46
358.362	6.69
358.731	7.03
359.1	6.57
359.469	6.82
359.838	6.61
360.207	7.48
360.576	6.58
360.945	6.9
361.314	6.78
361.682	7.02
362.051	6.8
362.42	7.05
362.788	7.01
363.157	6.93
363.525	6.96
363.894	6.68
364.262	6.87
364.631	6.64
364.999	6.96
365.367	7.12
365.735	7.01
366.104	6.84
366.472	6.73
366.84	7
367.208	7.14
367.576	6.93
367.944	7.4
368.312	6.98
368.68	7.2
369.048	6.89
369.416	6.65
369.783	7.09
370.151	7.62
370.519	6.98
370.886	7.08
371.254	7.1
371.621	6.87
371.989	7.11
372.356	6.95
372.724	7.32
373.091	7.27
373.458	6.78
373.826	6.92
374.193	7.28
374.56	7.12
374.927	7.17
375.294	7.09
375.661	7.38
376.028	6.98
376.395	7.42
376.762	7.72
377.129	7.27
377.496	7.38
377.863	7.07
378.229	7.27
378.596	7.24
378.963	7.48
379.329	7.39
379.696	7.2
380.062	7.19
380.429	7.55
380.795	7.27
381.161	7.39
381.528	7.36
381.894	7.34
382.26	7.54
382.626	7.58
382.993	7.29
383.359	7.2
383.725	7.35
384.091	7.36
384.457	7.42
384.823	7.27
385.188	7.53
385.554	7.05
385.92	7.72
386.286	7.3
386.651	7.41
387.017	7.6
387.383	7.34
387.748	7.75
388.114	7.4
388.479	7.6
388.845	7.54
389.21	7.78
389.575	7.35
389.94	7.81
390.306	7.67
390.671	7.75
391.036	7.47
391.401	7.32
391.766	7.75
392.131	7.56
392.496	7.63
392.861	7.64
393.226	7.61
393.591	7.77
393.956	7.62
394.32	7.54
394.685	7.77
395.05	7.63
395.414	7.81
395.779	7.82
396.143	7.85
396.508	7.6
396.872	7.62
397.236	7.55
397.601	7.95
397.965	7.96
398.329	7.61
398.694	7.98
399.058	7.62
399.422	8
399.786	8.06
400.15	7.87
400.514	7.8
400.878	7.49
401.242	7.88
401.605	7.94
401.969	8.14
402.333	8.02
402.697	8.22
403.06	7.99
403.424	7.99
403.787	7.95
404.151	8.22
404.514	7.72
404.878	7.84
405.241	7.99
405.604	7.9
405.968	8.19
406.331	7.91
406.694	8.02
407.057	7.83
407.42	8.04
407.783	7.83
408.146	8.13
408.509	8.01
408.872	8.04
409.235	7.85
409.598	8.15
409.961	8.12
410.323	8.22
410.686	8.15
411.049	8.09
411.411	7.96
411.774	7.88
412.136	8.21
412.499	8.09
412.861	8.01
413.223	8.07
413.586	8.09
413.948	8.13
414.31	8.22
414.672	8.31
415.035	8.42
415.397	8.15
415.759	8.27
416.121	8.13
416.483	8.08
416.845	8.39
417.206	7.99
417.568	8.31
417.93	8.08
418.292	8.36
418.653	8.28
419.015	8.24
419.377	8.4
419.738	8.35
420.1	8.26
420.461	8.22
420.822	8.2
421.184	8.18
421.545	8.17
421.906	8.23
422.267	8.28
422.629	8.19
422.99	8.1
423.351	7.99
423.712	7.99
424.073	8.13
424.434	8.18
424.795	8.22
425.155	8.36
425.516	8.31
425.877	8.09
426.238	8.22
426.598	8.18
426.959	8.18
427.32	8.14
427.68	8.15
428.041	8.16
428.401	8.1
428.761	8.19
429.122	8.07
429.482	8.26
429.842	8.27
430.202	8.3
430.563	8.39
430.923	8.58
431.283	8.33
431.643	8.33
432.003	8.31
432.363	8.39
432.722	8.59
433.082	8.33
433.442	8.31
433.802	8.44
434.161	8.57
434.521	8.45
434.881	8.39
435.24	8.41
435.6	8.4
435.959	8.52
436.319	8.38
436.678	8.22
437.037	8.45
437.396	8.61
437.756	8.41
438.115	8.52
438.474	8.31
438.833	8.36
439.192	8.43
439.551	8.47
439.91	8.43
440.269	8.58
440.628	8.56
440.987	8.47
441.345	8.57
441.704	8.52
442.063	8.52
442.421	8.39
442.78	8.52
443.138	8.39
443.497	8.29
443.855	8.33
444.214	8.37
444.572	8.6
444.93	8.35
445.288	8.51
445.647	8.71
446.005	8.55
446.363	8.7
446.721	8.61
447.079	8.61
447.437	8.45
447.795	8.47
448.153	8.35
448.51	8.35
448.868	8.31
449.226	8.39
449.584	8.31
449.941	8.39
450.299	8.39
450.656	8.51
451.014	8.55
451.371	8.52
451.729	8.38
452.086	8.62
452.443	8.35
452.801	8.49
453.158	8.62
453.515	8.81
453.872	8.57
454.229	8.62
454.586	8.57
454.943	8.29
455.3	8.43
455.657	8.73
456.014	8.5
456.371	8.55
456.727	8.62
457.084	8.42
457.441	8.61
457.797	8.53
458.154	8.57
458.51	8.6
458.867	8.71
459.223	8.92
459.58	8.61
459.936	8.84
460.292	8.72
460.648	8.73
461.005	8.66
461.361	8.69
461.717	8.55
462.073	8.47
462.429	8.3
462.785	8.39
463.141	8.43
463.496	8.43
463.852	8.52
464.208	8.74
464.564	8.56
464.919	8.63
465.275	8.72
465.631	8.41
465.986	8.7
466.342	8.66
466.697	8.69
467.052	8.63
467.408	8.67
467.763	8.67
468.118	8.84
468.473	8.82
468.829	8.78
469.184	8.66
469.539	8.54
469.894	8.53
470.249	8.72
470.603	8.53
470.958	8.77
471.313	8.59
471.668	8.59
472.023	8.56
472.377	8.63
472.732	8.91
473.086	8.65
473.441	8.63
473.795	8.52
474.15	8.7
474.504	8.7
474.859	8.74
475.213	8.69
475.567	8.68
475.921	8.59
476.275	8.86
476.63	8.91
476.984	8.86
477.338	8.78
477.692	8.8
478.045	8.83
478.399	8.75
478.753	8.64
479.107	8.72
479.461	8.75
479.814	8.68
480.168	8.77
480.521	8.54
480.875	8.62
481.228	8.76
481.582	8.66
481.935	8.72
482.289	8.71
482.642	8.64
482.995	8.83
483.348	8.76
483.701	8.78
484.055	8.8
484.408	8.78
484.761	8.92
485.114	8.86
485.466	8.69
485.819	8.35
486.172	8.06
486.525	7.94
486.878	8
487.23	8.19
487.583	8.33
487.936	8.6
488.288	8.75
488.641	8.74
488.993	8.6
489.345	8.54
489.698	8.37
490.05	8.35
490.402	8.35
490.754	8.17
491.107	8.26
491.459	8.47
491.811	8.51
492.163	8.62
492.515	8.9
492.866	8.93
493.218	8.75
493.57	8.47
493.922	8.25
494.274	8.18
494.625	8.14
494.977	8.44
495.328	8.35
495.68	8.59
496.031	8.71
496.383	8.8
496.734	8.77
497.086	8.74
497.437	8.91
497.788	8.99
498.139	8.82
498.49	8.87
498.842	8.63
499.193	8.64
499.544	8.73
499.894	8.77
500.245	8.69
500.596	8.62
500.947	8.71
501.298	8.73
501.648	8.71
501.999	8.67
502.35	8.71
502.7	8.79
503.051	8.8
503.401	8.83
503.752	8.77
504.102	8.74
504.452	8.98
504.803	8.69
505.153	8.82
505.503	8.97
505.853	8.85
506.203	8.85
506.553	8.85
506.903	8.68
507.253	8.82
507.603	8.79
507.953	8.86
508.303	8.91
508.652	8.81
509.002	8.83
509.352	8.82
509.701	8.85
510.051	8.69
510.4	8.75
510.75	8.7
511.099	8.7
511.449	8.74
511.798	8.75
512.147	8.77
512.496	8.88
512.846	8.89
513.195	8.79
513.544	8.64
513.893	8.87
514.242	8.77
514.591	8.77
514.939	8.74
515.288	8.79
515.637	8.83
515.986	8.84
516.334	8.72
516.683	8.72
517.032	8.77
517.38	8.75
517.729	8.9
518.077	8.79
518.426	8.83
518.774	8.94
519.122	8.84
519.47	8.73
519.819	8.85
520.167	8.74
520.515	8.75
520.863	8.59
521.211	8.56
521.559	8.51
521.907	8.61
522.255	8.55
522.602	8.6
522.95	8.74
523.298	8.75
523.645	8.82
523.993	8.72
524.341	8.74
524.688	8.73
525.036	8.86
525.383	8.89
525.73	8.77
526.078	8.86
526.425	8.93
526.772	8.92
527.119	8.89
527.466	8.87
527.814	8.65
528.161	8.66
528.508	8.58
528.854	8.75
529.201	8.79
529.548	8.84
529.895	8.91
530.242	8.77
530.588	8.52
530.935	8.29
531.282	8.11
531.628	8.12
531.975	8.24
532.321	8.41
532.667	8.42
533.014	8.59
533.36	8.62
533.706	8.71
534.052	8.78
534.399	8.89
534.745	8.83
535.091	8.73
535.437	8.53
535.783	8.29
536.129	8.26
536.474	8.38
536.82	8.47
537.166	8.56
537.512	8.73
537.857	8.78
538.203	8.94
538.549	8.67
538.894	8.59
539.239	8.47
539.585	8.42
539.93	8.59
540.276	8.76
540.621	8.66
540.966	8.73
541.311	8.81
541.656	8.88
542.001	8.94
542.346	8.89
542.691	8.87
543.036	8.65
543.381	8.47
543.726	8.28
544.071	8.24
544.415	8.39
544.76	8.43
545.105	8.5
545.449	8.44
545.794	8.5
546.138	8.58
546.483	8.61
546.827	8.65
547.171	8.64
547.516	8.63
547.86	8.69
548.204	8.74
548.548	8.59
548.892	8.63
549.236	8.53
549.58	8.44
549.924	8.45
550.268	8.41
550.612	8.66
550.956	8.49
551.3	8.67
551.643	8.67
551.987	8.69
552.33	8.72
552.674	8.46
553.017	8.63
553.361	8.82
553.704	8.79
554.048	8.75
554.391	8.75
554.734	8.65
555.077	8.45
555.42	8.57
555.764	8.45
556.107	8.45
556.45	8.54
556.793	8.52
557.135	8.58
557.478	8.57
557.821	8.63
558.164	8.5
558.507	8.54
558.849	8.74
559.192	8.73
559.534	8.8
559.877	8.63
560.219	8.75
560.562	8.73
560.904	8.62
561.246	8.53
561.589	8.73
561.931	8.49
562.273	8.64
562.615	8.71
562.957	8.44
563.299	8.6
563.641	8.44
563.983	8.7
564.325	8.61
564.667	8.53
565.008	8.61
565.35	8.68
565.692	8.62
566.033	8.45
566.375	8.63
566.716	8.72
567.058	8.59
567.399	8.83
567.741	8.72
568.082	8.5
568.423	8.69
568.764	8.38
569.105	8.36
569.447	8.62
569.788	8.44
570.129	8.57
570.47	8.42
570.811	8.29
571.151	8.42
571.492	8.4
571.833	8.3
572.174	8.38
572.514	8.51
572.855	8.5
573.195	8.64
573.536	8.38
573.876	8.27
574.217	8.34
574.557	8.28
574.898	8.23
575.238	8.5
575.578	8.3
575.918	8.3
576.258	8.25
576.598	8.42
576.938	8.54
577.278	8.36
577.618	8.48
577.958	8.26
578.298	8.35
578.638	8.08
578.977	8.39
579.317	8.42
579.657	8.16
579.996	8.52
580.336	8.45
580.675	8.55
581.014	8.45
581.354	8.4
581.693	8.49
582.032	8.5
582.372	8.55
582.711	8.17
583.05	8.39
583.389	8.12
583.728	8.24
584.067	8.46
584.406	8.41
584.745	8.17
585.083	8.22
585.422	8.17
585.761	8.38
586.1	8.44
586.438	8.45
586.777	8.13
587.115	8.09
587.454	8.17
587.792	8.16
588.13	8.32
588.469	8.55
588.807	8.09
589.145	8.14
589.483	8.37
589.821	7.97
590.159	8.31
590.497	8.33
590.835	8.07
591.173	8.29
591.511	8.21
591.849	8.21
592.187	7.87
592.524	8.19
592.862	8.06
593.2	8.25
593.537	8.35
593.875	8.06
594.212	8.08
594.55	8.08
594.887	8.02
595.224	8.21
595.561	8.28
595.899	8.39
596.236	8.09
596.573	8.41
596.91	8
597.247	8.21
597.584	7.91
597.921	8.19
598.258	8.25
598.594	8.19
598.931	8.15
599.268	7.97
599.604	7.85
599.941	8.08
600.277	7.47
600.614	7.84
600.95	8.02
601.287	8.06
601.623	7.8
601.959	7.99
602.296	7.81
602.632	7.66
602.968	8.09
603.304	8.25
603.64	8.24
603.976	8.12
604.312	8.13
604.648	8.02
604.984	7.98
605.319	7.91
605.655	8.1
605.991	7.96
606.326	8.11
606.662	7.99
606.998	7.97
607.333	7.66
607.668	7.76
608.004	7.69
608.339	7.86
608.674	7.84
609.01	7.89
609.345	7.65
609.68	7.71
610.015	7.91
610.35	7.83
610.685	7.85
611.02	7.82
611.355	7.86
611.689	7.86
612.024	7.65
612.359	7.73
612.694	7.67
613.028	7.58
613.363	7.68
613.697	7.83
614.032	7.82
614.366	7.76
614.7	7.43
615.035	7.65
615.369	7.63
615.703	7.54
616.037	8.01
616.371	7.92
616.705	7.85
617.039	7.58
617.373	7.71
617.707	7.82
618.041	7.87
618.375	7.44
618.709	7.67
619.042	7.6
619.376	7.44
619.71	7.95
620.043	7.74
620.377	7.55
620.71	7.81
621.043	7.74
621.377	7.11
621.71	7.57
622.043	7.24
622.376	7.51
622.709	7.75
623.043	7.79
623.376	7.84
623.709	7.57
624.041	7.52
624.374	7.71
624.707	7.6
625.04	7.48
625.373	8.07
625.705	7.62
626.038	7.69
626.37	7.19
626.703	7.65
627.035	7.99
627.368	7.66
627.7	7.71
628.032	7.93
628.365	7.59
628.697	7.73
629.029	7.58
629.361	7.78
629.693	7.63
630.025	7.58
630.357	7.7
630.689	7.42
631.021	7.68
631.353	7.46
631.684	7.69
632.016	7.36
632.348	7.62
632.679	7.31
633.011	7.51
633.342	7.72
633.674	7.32
634.005	7.48
634.336	7.57
634.668	7.41
634.999	7.46
635.33	7.46
635.661	7.78
635.992	7.27
636.323	7.82
636.654	7.72
636.985	7.38
637.316	7.31
637.647	7.48
637.977	7.97
638.308	7.19
638.639	7.75
638.969	7.57
639.3	7.4
639.63	7.52
639.961	7.18
640.291	7.16
640.622	7.83
640.952	7.12
641.282	7.44
641.612	7.71
641.943	7.57
642.273	7.54
642.603	7.21
642.933	7.54
643.263	7.49
643.592	7.51
643.922	7.75
644.252	7.37
644.582	7.32
644.911	7.5
645.241	7.61
645.571	7.26
645.9	7.52
646.23	7.41
646.559	7.13
646.888	7.58
647.218	6.92
647.547	7.65
647.876	7.1
648.205	7
648.534	6.99
648.863	7.45
649.192	7.45
649.521	6.85
649.85	7.28
650.179	6.96
650.508	7.65
650.837	7.17
651.165	7.15
651.494	7.51
651.822	7.42
652.151	7.49
652.479	7.02
652.808	7.34
653.136	6.97
653.465	7.52
653.793	7.62
654.121	7.65
654.449	7.36
654.777	7.16
655.105	7.67
655.433	7.18
655.761	6.92
656.089	7.08
656.417	7.29
656.745	7.75
657.073	7.3
657.4	7.3
657.728	7.29
658.056	7.27
658.383	7.48
658.711	7.25
659.038	7.67
659.365	7.21
659.693	7.75
660.02	7.64
660.347	7.16
660.674	7.65
661.001	7.3
661.329	7.05
661.656	6.91
661.982	7.01
662.309	7.11
662.636	7.52
662.963	6.79
663.29	7.22
663.616	7.39
663.943	7.12
664.27	7.5
664.596	7.55
664.923	6.91
665.249	7.39
665.576	7.54
665.902	7
666.228	7.13
666.554	7.02
666.881	7.07
667.207	7.62
667.533	7.34
667.859	6.92
668.185	7.96
668.511	7.33
668.837	6.81
669.162	7.18
669.488	7.02
669.814	7.62
670.139	7.73
670.465	6.95
670.791	7.92
671.116	7.38
671.442	7.14
671.767	7.38
672.092	7.32
672.418	7.27
672.743	7.41
673.068	6.66
673.393	7.06
673.718	7.13
674.043	6.97
674.368	6.84
674.693	7.38
675.018	7.32
675.343	6.93
675.667	7.27
675.992	7.2
676.317	6.96
676.641	7.47
676.966	7.14
677.29	7.35
677.615	7.55
677.939	7.19
678.264	6.8
678.588	7.02
678.912	7.06
679.236	7.27
679.56	6.79
679.885	7.14
680.209	6.55
680.532	7.26
680.856	7.78
681.18	7.66
681.504	7.06
681.828	7.11
682.152	7.43
682.475	7.17
682.799	7.05
683.122	7.7
683.446	6.7
683.769	7.29
684.093	7.15
684.416	6.92
684.739	7.12
685.062	7.01
685.386	7.09
685.709	6.51
686.032	7.17
686.355	7.16
686.678	6.66
687.001	7.1
687.324	7.16
687.646	7.3
687.969	6.94
688.292	7.91
688.614	7.11
688.937	7.1
689.26	6.57
689.582	6.98
