Data from 0034_forehead_Reflection__3__195.txt Node

Date: Thu Oct 20 22:25:11 CDT 2022
User: ToomeyLab
Spectrometer: FLMS14357
Trigger mode: 0
Integration Time (sec): 1.000000E-2
Scans to average: 100
Electric dark correction enabled: true
Nonlinearity correction enabled: false
Boxcar width: 0
XAxis mode: Wavelengths
Number of Pixels in Spectrum: 2048
>>>>>Begin Spectral Data<<<<<
189.047	-1102.56
189.435	-1102.56
189.823	-1102.56
190.211	628.04
190.599	-372.1
190.987	-629.35
191.375	106.91
191.763	340.12
192.151	88.5
192.538	-106.22
192.926	16.75
193.314	-1458.2
193.702	-19.53
194.089	35.87
194.477	-475.35
194.864	-112.94
195.252	101.29
195.639	47.55
196.027	10.66
196.414	115.67
196.801	154.81
197.189	490.32
197.576	4.45
197.963	169.04
198.351	59.22
198.738	-28.37
199.125	23.58
199.512	27.25
199.899	-14.43
200.286	40.34
200.673	20.5
201.06	68.08
201.447	73.69
201.833	24.69
202.22	4.26
202.607	48.15
202.994	5.06
203.38	4.25
203.767	49.51
204.154	-10.76
204.54	54.19
204.927	11.84
205.313	50.55
205.699	32.33
206.086	39.72
206.472	17.4
206.858	10.71
207.245	2.49
207.631	18.39
208.017	5.15
208.403	4.48
208.789	22.38
209.175	21.38
209.561	48.48
209.947	18.49
210.333	36.92
210.719	32.67
211.105	35.36
211.491	-63.05
211.876	2.89
212.262	30.01
212.648	-7.16
213.034	23.5
213.419	-8.44
213.805	14.46
214.19	-6.89
214.576	-2.02
214.961	43.45
215.346	-2.93
215.732	56.96
216.117	-9.84
216.502	38.8
216.888	-1.74
217.273	-12.43
217.658	40.93
218.043	36.61
218.428	13.16
218.813	28.16
219.198	12.38
219.583	36.94
219.968	34.92
220.353	10.64
220.738	15.76
221.122	20.83
221.507	-3.23
221.892	-9.74
222.276	12.77
222.661	10.97
223.046	16.93
223.43	9.47
223.815	10.72
224.199	-11.77
224.583	0.86
224.968	16.36
225.352	15.57
225.736	3.62
226.121	-1.37
226.505	6.59
226.889	5.71
227.273	-4.84
227.657	6.74
228.041	-0.86
228.425	4.38
228.809	5.49
229.193	6.43
229.577	1.84
229.961	4.19
230.344	4.8
230.728	4.33
231.112	5.41
231.495	6.34
231.879	5.01
232.263	5.65
232.646	4.97
233.03	4.22
233.413	2.76
233.797	3.27
234.18	3.71
234.563	5.54
234.946	4.43
235.33	6.88
235.713	5.42
236.096	4.13
236.479	6.5
236.862	4.53
237.245	4.7
237.628	4.15
238.011	6.32
238.394	4.96
238.777	6
239.16	4.95
239.543	3.79
239.925	4.21
240.308	3.14
240.691	5.67
241.073	4.76
241.456	4.92
241.838	5.09
242.221	4.7
242.603	4.33
242.986	4.25
243.368	4.14
243.75	4.66
244.133	4.37
244.515	3.82
244.897	4.39
245.279	2.87
245.661	5.38
246.043	4.38
246.425	6.13
246.807	5.56
247.189	4.82
247.571	4.38
247.953	3.99
248.335	4.15
248.717	4.33
249.098	4.27
249.48	4.49
249.862	4.39
250.243	4.43
250.625	4.96
251.006	4.56
251.388	4.58
251.769	4.55
252.151	5.15
252.532	3.76
252.913	3.88
253.295	4.71
253.676	4.49
254.057	4.16
254.438	4.29
254.819	4.28
255.2	5.11
255.581	4.28
255.962	6.04
256.343	3.98
256.724	4.04
257.105	4.12
257.486	4.79
257.867	5.52
258.247	4.76
258.628	4.85
259.009	4.16
259.389	4.4
259.77	3.92
260.15	4.7
260.531	4.32
260.911	4.11
261.292	4.4
261.672	4.16
262.052	4.52
262.432	4.85
262.813	4.1
263.193	5
263.573	4.54
263.953	4.59
264.333	5.09
264.713	4.92
265.093	4.13
265.473	4.76
265.853	5.46
266.233	5.14
266.612	5.01
266.992	4.12
267.372	4.95
267.752	4.37
268.131	4.84
268.511	4.76
268.89	4.21
269.27	4.37
269.649	3.78
270.029	4.15
270.408	4.14
270.787	4.58
271.167	4.27
271.546	4.04
271.925	4.83
272.304	4.81
272.683	4.23
273.062	4.29
273.441	4.63
273.82	4.54
274.199	3.87
274.578	3.94
274.957	4.49
275.336	4.25
275.715	4.12
276.093	5.16
276.472	4.01
276.851	4.69
277.229	4.36
277.608	4.92
277.986	4.94
278.365	4.63
278.743	4.07
279.122	4.71
279.5	4.17
279.878	4.97
280.257	4.18
280.635	4.58
281.013	4.32
281.391	4.32
281.769	4.49
282.147	3.55
282.525	4.35
282.903	4.02
283.281	4.11
283.659	4.41
284.037	3.8
284.415	4.3
284.792	4.2
285.17	4.36
285.548	4.19
285.925	4.09
286.303	4.22
286.68	4.69
287.058	4.7
287.435	4.17
287.813	4.22
288.19	4.16
288.567	4.6
288.945	4.61
289.322	4.66
289.699	4.35
290.076	4.47
290.453	4.38
290.83	4.93
291.207	5.06
291.584	4.8
291.961	4.19
292.338	4.13
292.715	4.93
293.092	5.07
293.469	4.76
293.845	4.85
294.222	5.2
294.599	5.94
294.975	4.75
295.352	5.35
295.728	4.71
296.105	5.16
296.481	4.85
296.858	4.98
297.234	5.15
297.61	5.04
297.986	4.96
298.363	4.71
298.739	5
299.115	4.83
299.491	5.26
299.867	5.34
300.243	5.37
300.619	5.55
300.995	5.03
301.371	5.18
301.746	5.62
302.122	5.9
302.498	5.61
302.874	6.37
303.249	5.95
303.625	5.77
304	6.4
304.376	5.74
304.751	6.16
305.127	5.45
305.502	5.84
305.878	6.34
306.253	5.79
306.628	6.37
307.003	5.94
307.378	5.56
307.754	6.65
308.129	6.41
308.504	6.38
308.879	6.43
309.254	6.29
309.629	6.28
310.003	6.36
310.378	6.68
310.753	6.53
311.128	6.25
311.502	6.41
311.877	7.3
312.252	6.59
312.626	6.59
313.001	7.01
313.375	6.78
313.75	6.8
314.124	6.8
314.498	7.01
314.873	6.78
315.247	6.97
315.621	7.1
315.995	7.06
316.369	7.03
316.743	7
317.117	7.62
317.491	7.9
317.865	7.21
318.239	7.96
318.613	8.01
318.987	7.39
319.361	7.81
319.734	7.52
320.108	7.6
320.482	7.46
320.855	8.37
321.229	8.02
321.602	7.16
321.976	8.16
322.349	7.89
322.723	8.83
323.096	8.27
323.469	8.27
323.843	8.71
324.216	8.37
324.589	8.74
324.962	8.11
325.335	8.25
325.708	8.17
326.081	8.7
326.454	8.36
326.827	8.58
327.2	9.06
327.573	8.79
327.945	8.83
328.318	8.82
328.691	9.17
329.063	8.93
329.436	9.28
329.809	9.3
330.181	9.16
330.553	8.65
330.926	9.15
331.298	8.9
331.671	9.71
332.043	9.33
332.415	9.38
332.787	9.5
333.159	9.5
333.532	9.4
333.904	9.57
334.276	9.99
334.648	9.19
335.02	10
335.391	9.57
335.763	9.68
336.135	9.62
336.507	9.09
336.879	10.94
337.25	9.12
337.622	9.98
337.993	9.72
338.365	9.73
338.736	9.71
339.108	9.56
339.479	9.77
339.851	9.93
340.222	9.85
340.593	10.21
340.964	10.64
341.336	10.38
341.707	10.45
342.078	10.23
342.449	10.4
342.82	10.65
343.191	10.27
343.562	10.66
343.933	10.75
344.303	10.46
344.674	11
345.045	11.14
345.416	10.62
345.786	10.43
346.157	10.43
346.527	10.61
346.898	10.78
347.268	10.85
347.639	10.93
348.009	11.11
348.38	11.51
348.75	10.83
349.12	11.39
349.49	11.51
349.861	11.55
350.231	11.4
350.601	11.62
350.971	11.54
351.341	11.78
351.711	11.51
352.081	11.46
352.45	11.63
352.82	11.38
353.19	11.72
353.56	12.08
353.929	12.06
354.299	12.17
354.669	11.85
355.038	12.11
355.408	11.68
355.777	11.98
356.147	11.89
356.516	11.84
356.885	12.13
357.254	12.3
357.624	12.22
357.993	12.08
358.362	12.6
358.731	12.5
359.1	12.28
359.469	12.4
359.838	12.52
360.207	13.3
360.576	12.4
360.945	12.9
361.314	12.52
361.682	12.94
362.051	12.54
362.42	12.78
362.788	12.75
363.157	12.47
363.525	12.99
363.894	12.92
364.262	13.2
364.631	13.04
364.999	13.28
365.367	13.52
365.735	13.28
366.104	13.04
366.472	13.38
366.84	13.7
367.208	13.41
367.576	13.44
367.944	13.41
368.312	13.63
368.68	13.87
369.048	13.66
369.416	13.83
369.783	14.19
370.151	14.11
370.519	13.78
370.886	13.88
371.254	14.26
371.621	13.78
371.989	14.14
372.356	13.87
372.724	14.13
373.091	14.3
373.458	14.17
373.826	14.33
374.193	14.71
374.56	14.43
374.927	14.27
375.294	14.84
375.661	14.96
376.028	14.71
376.395	14.69
376.762	14.82
377.129	14.69
377.496	14.72
377.863	14.81
378.229	14.85
378.596	14.77
378.963	14.98
379.329	15.32
379.696	15.26
380.062	14.99
380.429	15.53
380.795	15.17
381.161	15.32
381.528	15.28
381.894	15.53
382.26	15.33
382.626	15.63
382.993	15.35
383.359	15.77
383.725	15.96
384.091	15.66
384.457	15.7
384.823	15.96
385.188	15.82
385.554	15.68
385.92	15.82
386.286	15.94
386.651	15.6
387.017	16.15
387.383	16.15
387.748	16.38
388.114	16.4
388.479	16.18
388.845	16.46
389.21	16.44
389.575	16.25
389.94	16.83
390.306	16.68
390.671	16.55
391.036	16.51
391.401	16.81
391.766	16.79
392.131	16.89
392.496	16.48
392.861	16.79
393.226	16.84
393.591	16.95
393.956	17.09
394.32	16.96
394.685	17.19
395.05	17.18
395.414	17.19
395.779	17.1
396.143	17.37
396.508	17.26
396.872	17.57
397.236	17.31
397.601	17.59
397.965	17.55
398.329	17.69
398.694	17.47
399.058	17.81
399.422	17.97
399.786	17.76
400.15	17.89
400.514	18.17
400.878	17.89
401.242	18.02
401.605	18.3
401.969	18.12
402.333	18
402.697	18.35
403.06	18.4
403.424	18.29
403.787	18.29
404.151	18.27
404.514	18.55
404.878	18.49
405.241	18.65
405.604	18.77
405.968	18.54
406.331	18.48
406.694	18.59
407.057	18.81
407.42	18.95
407.783	18.93
408.146	19.19
408.509	18.79
408.872	19.13
409.235	19.1
409.598	19.25
409.961	19.15
410.323	19.42
410.686	19.28
411.049	19.27
411.411	19.27
411.774	19.2
412.136	19.65
412.499	19.67
412.861	19.65
413.223	19.47
413.586	19.59
413.948	19.72
414.31	19.68
414.672	19.8
415.035	20.11
415.397	19.95
415.759	20.13
416.121	20.01
416.483	20.19
416.845	20.16
417.206	19.94
417.568	19.92
417.93	19.89
418.292	20
418.653	20.15
419.015	20.18
419.377	20.19
419.738	20.17
420.1	20.15
420.461	20.12
420.822	20.33
421.184	20.18
421.545	20.25
421.906	20.24
422.267	20.09
422.629	20.19
422.99	20.36
423.351	20.3
423.712	20.53
424.073	20.5
424.434	20.63
424.795	20.77
425.155	20.65
425.516	20.61
425.877	20.52
426.238	20.79
426.598	20.87
426.959	20.89
427.32	21.08
427.68	21.25
428.041	21.33
428.401	21.42
428.761	21.51
429.122	21.57
429.482	21.55
429.842	21.67
430.202	21.94
430.563	21.73
430.923	21.83
431.283	21.73
431.643	21.68
432.003	21.91
432.363	22.04
432.722	22.23
433.082	21.96
433.442	22.13
433.802	22.01
434.161	22.24
434.521	21.91
434.881	22.12
435.24	22.03
435.6	22.24
435.959	22.39
436.319	22.42
436.678	22.41
437.037	22.66
437.396	22.86
437.756	22.67
438.115	22.63
438.474	22.85
438.833	22.72
439.192	22.66
439.551	22.51
439.91	22.76
440.269	22.77
440.628	22.94
440.987	22.73
441.345	22.82
441.704	22.78
442.063	22.83
442.421	22.87
442.78	23.18
443.138	23.29
443.497	23.23
443.855	23.37
444.214	23.5
444.572	23.47
444.93	23.3
445.288	23.64
445.647	23.4
446.005	23.5
446.363	23.55
446.721	23.44
447.079	23.45
447.437	23.33
447.795	23.34
448.153	23.43
448.51	23.59
448.868	23.72
449.226	23.86
449.584	23.94
449.941	24.14
450.299	24.14
450.656	24.41
451.014	24.38
451.371	24.44
451.729	24.26
452.086	24.72
452.443	24.49
452.801	24.63
453.158	24.74
453.515	24.74
453.872	24.58
454.229	24.63
454.586	24.73
454.943	24.91
455.3	25.01
455.657	25.12
456.014	25.18
456.371	25.17
456.727	25.29
457.084	25.05
457.441	25.21
457.797	25.3
458.154	25.43
458.51	25.32
458.867	25.47
459.223	25.47
459.58	25.34
459.936	25.53
460.292	25.19
460.648	25.3
461.005	25.19
461.361	25.18
461.717	25.36
462.073	25.58
462.429	25.63
462.785	25.89
463.141	25.92
463.496	26.04
463.852	26.07
464.208	26.3
464.564	26.37
464.919	26.42
465.275	26.55
465.631	26.33
465.986	26.34
466.342	26.4
466.697	26.58
467.052	26.5
467.408	26.66
467.763	26.64
468.118	26.62
468.473	26.94
468.829	26.98
469.184	26.78
469.539	26.83
469.894	26.85
470.249	26.94
470.603	26.83
470.958	27.16
471.313	27.1
471.668	27.01
472.023	27.33
472.377	27.36
472.732	27.55
473.086	27.45
473.441	27.41
473.795	27.44
474.15	27.55
474.504	27.58
474.859	27.64
475.213	27.79
475.567	27.85
475.921	27.62
476.275	28.03
476.63	28.09
476.984	27.93
477.338	27.93
477.692	28.05
478.045	27.86
478.399	28.15
478.753	28.11
479.107	27.97
479.461	28.05
479.814	28.17
480.168	28.37
480.521	28.28
480.875	28.35
481.228	28.63
481.582	28.4
481.935	28.51
482.289	28.29
482.642	28.11
482.995	28.42
483.348	28.4
483.701	28.27
484.055	28.19
484.408	27.84
484.761	27.57
485.114	27.36
485.466	27.44
485.819	27.67
486.172	27.83
486.525	28.16
486.878	28.28
487.23	28.49
487.583	28.43
487.936	28.46
488.288	28.27
488.641	28.3
488.993	28.14
489.345	28.29
489.698	28.33
490.05	28.53
490.402	28.78
490.754	29
491.107	29.16
491.459	29.32
491.811	29.25
492.163	29.23
492.515	29.01
492.866	28.86
493.218	28.76
493.57	29.03
493.922	29.28
494.274	29.48
494.625	29.69
494.977	29.82
495.328	29.99
495.68	30.19
496.031	30.39
496.383	30.29
496.734	30.44
497.086	30.23
497.437	30.54
497.788	30.57
498.139	30.24
498.49	30.27
498.842	30.44
499.193	30.56
499.544	30.61
499.894	30.64
500.245	30.78
500.596	30.96
500.947	30.85
501.298	31.18
501.648	30.99
501.999	31.12
502.35	31.18
502.7	31.37
503.051	31.46
503.401	31.51
503.752	31.53
504.102	31.49
504.452	31.68
504.803	31.47
505.153	31.47
505.503	31.8
505.853	31.64
506.203	31.72
506.553	31.87
506.903	31.82
507.253	32.01
507.603	32.04
507.953	32.24
508.303	32.22
508.652	31.98
509.002	32.09
509.352	31.95
509.701	32.07
510.051	32.1
510.4	32.05
510.75	32.02
511.099	32.16
511.449	32.22
511.798	32.3
512.147	32.46
512.496	32.51
512.846	32.7
513.195	32.51
513.544	32.62
513.893	32.5
514.242	32.67
514.591	32.82
514.939	32.87
515.288	33.04
515.637	33.02
515.986	33.03
516.334	33.11
516.683	33.03
517.032	33.11
517.38	33.47
517.729	33.42
518.077	33.52
518.426	33.27
518.774	33.18
519.122	33.16
519.47	32.95
519.819	32.93
520.167	32.89
520.515	33.07
520.863	33.24
521.211	33.32
521.559	33.38
521.907	33.44
522.255	33.93
522.602	33.93
522.95	34.01
523.298	34.02
523.645	34.2
523.993	34.07
524.341	34.27
524.688	34.16
525.036	34.2
525.383	34.32
525.73	34.31
526.078	34.33
526.425	34.22
526.772	34.03
527.119	33.79
527.466	33.94
527.814	34.16
528.161	34.13
528.508	34.14
528.854	34.29
529.201	34.1
529.548	33.72
529.895	33.54
530.242	33.7
530.588	33.88
530.935	34.08
531.282	34.12
531.628	34.12
531.975	34.36
532.321	34.7
532.667	34.71
533.014	34.87
533.36	34.87
533.706	34.8
534.052	34.8
534.399	34.69
534.745	34.4
535.091	34.65
535.437	34.86
535.783	35.09
536.129	35.1
536.474	35.24
536.82	35.43
537.166	35.46
537.512	35.5
537.857	35.42
538.203	35.36
538.549	35.54
538.894	35.68
539.239	35.79
539.585	36.02
539.93	36.38
540.276	36.32
540.621	36.29
540.966	36.44
541.311	36.47
541.656	36.22
542.001	36.04
542.346	35.7
542.691	35.5
543.036	35.49
543.381	35.79
543.726	35.9
544.071	36.04
544.415	36.2
544.76	36.17
545.105	36.51
545.449	36.67
545.794	36.77
546.138	37.03
546.483	36.83
546.827	36.86
547.171	37.09
547.516	37.02
547.86	36.99
548.204	36.99
548.548	37
548.892	37.25
549.236	37.46
549.58	37.35
549.924	37.63
550.268	37.89
550.612	38.03
550.956	37.99
551.3	38.21
551.643	37.99
551.987	38.34
552.33	38.13
552.674	38.2
553.017	38.32
553.361	38.36
553.704	38.34
554.048	38.39
554.391	38.32
554.734	38.22
555.077	38.34
555.42	38.5
555.764	38.55
556.107	38.58
556.45	38.55
556.793	38.72
557.135	38.96
557.478	39.06
557.821	39.11
558.164	39.14
558.507	39.29
558.849	39.37
559.192	39.07
559.534	39.27
559.877	39.16
560.219	39.48
560.562	39.44
560.904	39.16
561.246	39.57
561.589	39.52
561.931	39.24
562.273	39.48
562.615	39.71
562.957	39.61
563.299	39.73
563.641	39.92
563.983	40.16
564.325	39.82
564.667	40.27
565.008	39.96
565.35	39.96
565.692	39.99
566.033	40.24
566.375	40.18
566.716	40.18
567.058	40.13
567.399	40.07
567.741	39.88
568.082	40.14
568.423	40.11
568.764	40.17
569.105	40.33
569.447	40.74
569.788	40.57
570.129	40.61
570.47	40.72
570.811	40.63
571.151	40.46
571.492	40.57
571.833	40.89
572.174	40.86
572.514	40.99
572.855	40.95
573.195	40.68
573.536	40.64
573.876	40.7
574.217	40.71
574.557	40.94
574.898	40.92
575.238	41.21
575.578	41.29
575.918	41.3
576.258	41.1
576.598	41.23
576.938	41.31
577.278	41.34
577.618	41.63
577.958	41.73
578.298	41.54
578.638	41.41
578.977	41.83
579.317	41.76
579.657	41.8
579.996	42.07
580.336	41.99
580.675	42.42
581.014	42.09
581.354	42.52
581.693	42.42
582.032	42.34
582.372	42.46
582.711	42.24
583.05	42.27
583.389	42.63
583.728	42.45
584.067	42.59
584.406	42.77
584.745	42.65
585.083	42.73
585.422	42.62
585.761	42.69
586.1	42.96
586.438	42.91
586.777	42.98
587.115	43.17
587.454	43.25
587.792	43.1
588.13	43.22
588.469	43.11
588.807	43.37
589.145	43.3
589.483	43.48
589.821	42.92
590.159	43.57
590.497	43.28
590.835	43.27
591.173	43.3
591.511	43.51
591.849	43.5
592.187	43.48
592.524	43.72
592.862	43.7
593.2	43.31
593.537	43.62
593.875	43.91
594.212	44.38
594.55	44.14
594.887	43.57
595.224	44.16
595.561	43.98
595.899	44.09
596.236	43.94
596.573	44.04
596.91	44.15
597.247	43.9
597.584	44.01
597.921	44.11
598.258	44.03
598.594	44.03
598.931	44.2
599.268	44.11
599.604	43.88
599.941	44.16
600.277	44.46
600.614	44.58
600.95	44.79
601.287	44.74
601.623	44.7
601.959	44.61
602.296	44.81
602.632	44.87
602.968	44.92
603.304	45.09
603.64	44.93
603.976	44.98
604.312	44.84
604.648	45.02
604.984	44.92
605.319	44.89
605.655	44.9
605.991	44.79
606.326	45.06
606.662	45.13
606.998	45.05
607.333	44.88
607.668	45.23
608.004	45.35
608.339	45.44
608.674	45.7
609.01	45.66
609.345	46.08
609.68	45.52
610.015	45.98
610.35	45.38
610.685	45.47
611.02	45.69
611.355	45.64
611.689	45.9
612.024	45.97
612.359	45.94
612.694	45.82
613.028	46.14
613.363	46.26
613.697	46.29
614.032	46.16
614.366	46.41
614.7	46.55
615.035	46.63
615.369	46.87
615.703	46.5
616.037	46.34
616.371	46.26
616.705	46.54
617.039	46.66
617.373	46.73
617.707	46.81
618.041	47.1
618.375	46.66
618.709	46.64
619.042	46.99
619.376	47.45
619.71	47.61
620.043	47.22
620.377	46.82
620.71	47.18
621.043	47.46
621.377	46.84
621.71	46.89
622.043	47.16
622.376	47.29
622.709	47.53
623.043	47.29
623.376	47.39
623.709	47.55
624.041	47.4
624.374	47.73
624.707	47.59
625.04	47.9
625.373	47.89
625.705	48
626.038	48
626.37	47.43
626.703	47.74
627.035	48.15
627.368	47.67
627.7	47.9
628.032	48.11
628.365	47.65
628.697	48.03
629.029	47.85
629.361	48.02
629.693	48.06
630.025	48
630.357	48.27
630.689	48.18
631.021	48.54
631.353	48.37
631.684	48.28
632.016	48.24
632.348	48.23
632.679	48.4
633.011	48.48
633.342	48.38
633.674	48.62
634.005	48.49
634.336	49.12
634.668	48.38
634.999	48.26
635.33	48.73
635.661	48.83
635.992	48.63
636.323	49.19
636.654	48.72
636.985	48.78
637.316	48.76
637.647	49.21
637.977	49.79
638.308	48.74
638.639	49.47
638.969	48.89
639.3	48.94
639.63	49.68
639.961	48.93
640.291	48.9
640.622	49.49
640.952	48.92
641.282	49.89
641.612	49.48
641.943	48.87
642.273	49.6
642.603	49.31
642.933	49.59
643.263	49.55
643.592	49.65
643.922	50.15
644.252	49.21
644.582	49.39
644.911	49.74
645.241	49.64
645.571	49.69
645.9	49.51
646.23	49.71
646.559	50.4
646.888	50.13
647.218	49.46
647.547	50.08
647.876	49.83
648.205	50.33
648.534	50.1
648.863	50.02
649.192	49.85
649.521	50.2
649.85	49.97
650.179	50.29
650.508	50.26
650.837	50.25
651.165	50.21
651.494	50.65
651.822	50.32
652.151	50.27
652.479	51.29
652.808	50.73
653.136	50.27
653.465	50.7
653.793	50.61
654.121	50.64
654.449	50.71
654.777	50.73
655.105	50.79
655.433	50.3
655.761	51.36
656.089	50.62
656.417	51.16
656.745	50.6
657.073	51.03
657.4	51.4
657.728	51.1
658.056	51.18
658.383	50.98
658.711	51.21
659.038	51.63
659.365	51.46
659.693	51.64
660.02	51.44
660.347	51.75
660.674	51.41
661.001	51.05
661.329	51.02
661.656	51.14
661.982	51.39
662.309	51.34
662.636	51.47
662.963	51.54
663.29	51.27
663.616	51.44
663.943	51.91
664.27	51.88
664.596	51.45
664.923	51.99
665.249	52.41
665.576	52.34
665.902	52.17
666.228	51.68
666.554	51.3
666.881	51.33
667.207	51.97
667.533	52.25
667.859	51.54
668.185	52.43
668.511	52.22
668.837	52.52
669.162	51.98
669.488	52.18
669.814	52
670.139	51.85
670.465	51.71
