Data from 0034_crown_Reflection__3__190.txt Node

Date: Thu Oct 20 22:23:46 CDT 2022
User: ToomeyLab
Spectrometer: FLMS14357
Trigger mode: 0
Integration Time (sec): 1.000000E-2
Scans to average: 100
Electric dark correction enabled: true
Nonlinearity correction enabled: false
Boxcar width: 0
XAxis mode: Wavelengths
Number of Pixels in Spectrum: 2048
>>>>>Begin Spectral Data<<<<<
189.047	-345.52
189.435	-345.52
189.823	-345.52
190.211	-88.71
190.599	-159.52
190.987	-253.68
191.375	132.18
191.763	185.54
192.151	92.16
192.538	-156.86
192.926	39.81
193.314	-1298.71
193.702	254.07
194.089	35.19
194.477	-481.71
194.864	68.19
195.252	96.75
195.639	329.74
196.027	23.75
196.414	-14.63
196.801	669.01
197.189	289.98
197.576	130.58
197.963	415.11
198.351	23.81
198.738	-0.15
199.125	-0.87
199.512	1.86
199.899	-2.54
200.286	18.93
200.673	-27.47
201.06	13.07
201.447	-1.74
201.833	24.03
202.22	-23.9
202.607	-0.57
202.994	-28.08
203.38	6.44
203.767	-52.63
204.154	11.05
204.54	12.74
204.927	9.36
205.313	21.17
205.699	0.89
206.086	35.05
206.472	37.21
206.858	5.06
207.245	28.58
207.631	9.78
208.017	-2.96
208.403	-45.11
208.789	-23.81
209.175	10.18
209.561	26.43
209.947	34.29
210.333	18.54
210.719	6.82
211.105	17.29
211.491	-77.32
211.876	-41.92
212.262	-5.74
212.648	-2.82
213.034	-3.93
213.419	-19.63
213.805	16.37
214.19	-25.54
214.576	-57.56
214.961	-7.04
215.346	-26.22
215.732	-10.95
216.117	-19.03
216.502	-16.05
216.888	-31.31
217.273	-4.6
217.658	3.54
218.043	2.42
218.428	-6.41
218.813	23.15
219.198	7.79
219.583	6.72
219.968	29.07
220.353	-3.23
220.738	19.75
221.122	-1.04
221.507	-1.41
221.892	0.03
222.276	11.19
222.661	20.39
223.046	19.94
223.43	3.08
223.815	6.57
224.199	4.31
224.583	5.8
224.968	11.99
225.352	12.56
225.736	9.13
226.121	7.93
226.505	14.02
226.889	5.89
227.273	5.01
227.657	7.37
228.041	5.59
228.425	8.39
228.809	10.08
229.193	11.17
229.577	9.73
229.961	10.81
230.344	11.69
230.728	10.27
231.112	10.44
231.495	10.76
231.879	12.63
232.263	10.35
232.646	11.09
233.03	10.05
233.413	6.59
233.797	8.12
234.18	10.3
234.563	8.53
234.946	10.37
235.33	9.75
235.713	11.14
236.096	9.32
236.479	12.51
236.862	9.72
237.245	9.51
237.628	9.43
238.011	11.75
238.394	9.08
238.777	12.06
239.16	8.52
239.543	8.63
239.925	9.15
240.308	8.97
240.691	10.89
241.073	9.07
241.456	10.66
241.838	9.47
242.221	10.02
242.603	10.24
242.986	10.33
243.368	10.8
243.75	10.67
244.133	11.23
244.515	10.23
244.897	9.51
245.279	9.56
245.661	9.91
246.043	10.47
246.425	10.56
246.807	10.91
247.189	10.79
247.571	10.29
247.953	10.26
248.335	10.32
248.717	10.08
249.098	9.72
249.48	9.84
249.862	10.21
250.243	9.77
250.625	9.78
251.006	10.75
251.388	9.66
251.769	9.72
252.151	9.32
252.532	8.57
252.913	10.18
253.295	10.2
253.676	9.72
254.057	8.42
254.438	9.75
254.819	10.1
255.2	10.52
255.581	9.52
255.962	9.6
256.343	8.57
256.724	9.92
257.105	9.4
257.486	9.15
257.867	9.39
258.247	9.93
258.628	9.51
259.009	8.82
259.389	9.66
259.77	9.12
260.15	9.14
260.531	9.57
260.911	9.19
261.292	9.55
261.672	9.02
262.052	8.98
262.432	9.7
262.813	9.22
263.193	9.58
263.573	9.23
263.953	9.16
264.333	8.92
264.713	8.89
265.093	8.63
265.473	9.26
265.853	10.15
266.233	9.01
266.612	9.35
266.992	8.5
267.372	9.79
267.752	9.15
268.131	9.25
268.511	9.47
268.89	8.25
269.27	8.69
269.649	8.4
270.029	7.9
270.408	8.47
270.787	9.33
271.167	8.72
271.546	8.5
271.925	8.89
272.304	9.15
272.683	8.67
273.062	8.22
273.441	8.29
273.82	9.26
274.199	8.44
274.578	8.25
274.957	8.4
275.336	8.65
275.715	9.05
276.093	8.93
276.472	8.64
276.851	9.08
277.229	8.6
277.608	8.07
277.986	8.11
278.365	8.48
278.743	8.65
279.122	8.62
279.5	7.52
279.878	8.46
280.257	7.89
280.635	8.33
281.013	7.94
281.391	8.59
281.769	8.27
282.147	7.75
282.525	7.71
282.903	8.39
283.281	8.21
283.659	7.42
284.037	7.39
284.415	7.88
284.792	7.91
285.17	8.18
285.548	7.84
285.925	8.19
286.303	7.71
286.68	8.33
287.058	7.89
287.435	7.85
287.813	7.81
288.19	7.7
288.567	7.92
288.945	8.22
289.322	8.03
289.699	7.51
290.076	7.4
290.453	7.36
290.83	7.67
291.207	7.84
291.584	7.31
291.961	7.51
292.338	7.1
292.715	7.12
293.092	7.82
293.469	7.43
293.845	7.55
294.222	7.76
294.599	7.89
294.975	7.3
295.352	7.84
295.728	7.48
296.105	7.64
296.481	7.04
296.858	7.37
297.234	7.35
297.61	7.1
297.986	6.94
298.363	7.12
298.739	7.25
299.115	7.02
299.491	6.88
299.867	6.98
300.243	7.24
300.619	7.27
300.995	6.69
301.371	7.24
301.746	7.05
302.122	7.23
302.498	6.93
302.874	7.4
303.249	7.19
303.625	6.53
304	7.15
304.376	6.64
304.751	7.26
305.127	6.9
305.502	7.36
305.878	6.97
306.253	6.62
306.628	6.62
307.003	6.37
307.378	6.43
307.754	6.9
308.129	6.77
308.504	6.61
308.879	6.76
309.254	6.81
309.629	6.19
310.003	6.54
310.378	6.91
310.753	6.77
311.128	6.6
311.502	6.59
311.877	7.07
312.252	6.46
312.626	6.62
313.001	6.45
313.375	6.73
313.75	6.32
314.124	6.36
314.498	6.16
314.873	6.04
315.247	6.33
315.621	6.21
315.995	6.19
316.369	6.64
316.743	6.01
317.117	6.56
317.491	6.6
317.865	6.4
318.239	6.39
318.613	6.66
318.987	6.08
319.361	6.19
319.734	5.96
320.108	6.42
320.482	6.33
320.855	6.97
321.229	6.87
321.602	5.77
321.976	6.03
322.349	6.29
322.723	6.21
323.096	6.02
323.469	6.4
323.843	6.32
324.216	6.24
324.589	6.39
324.962	6.09
325.335	6.08
325.708	6.47
326.081	6.67
326.454	6.19
326.827	6.15
327.2	6.71
327.573	6.3
327.945	5.96
328.318	5.63
328.691	6.64
329.063	6.29
329.436	6.21
329.809	6.17
330.181	6.4
330.553	6.06
330.926	6.18
331.298	5.67
331.671	7.05
332.043	6.3
332.415	5.71
332.787	6.86
333.159	6.45
333.532	6.47
333.904	6.23
334.276	6.18
334.648	6.03
335.02	6.07
335.391	6.36
335.763	5.86
336.135	6.21
336.507	5.6
336.879	6.51
337.25	5.39
337.622	6.08
337.993	5.62
338.365	6.3
338.736	6.01
339.108	6.1
339.479	5.88
339.851	6.24
340.222	5.89
340.593	6.41
340.964	6.6
341.336	6.19
341.707	5.92
342.078	6.12
342.449	6.26
342.82	6.03
343.191	6.2
343.562	6.03
343.933	6.52
344.303	6.39
344.674	5.76
345.045	6.37
345.416	6.48
345.786	6.02
346.157	5.97
346.527	5.86
346.898	6.29
347.268	6.2
347.639	6.66
348.009	6.08
348.38	6.44
348.75	6.04
349.12	6.62
349.49	6.14
349.861	6.61
350.231	6.16
350.601	7.03
350.971	6.38
351.341	6.52
351.711	6.25
352.081	5.93
352.45	6.17
352.82	6.27
353.19	5.91
353.56	6.72
353.929	6.17
354.299	6.61
354.669	6.36
355.038	6.35
355.408	6.35
355.777	6.3
356.147	6.48
356.516	6.78
356.885	6.28
357.254	6.53
357.624	6.43
357.993	6.28
358.362	6.75
358.731	6.31
359.1	6.05
359.469	6.3
359.838	6.33
360.207	6.8
360.576	6.16
360.945	6.56
361.314	6.46
361.682	6.57
362.051	6.16
362.42	6.3
362.788	6.67
363.157	6.36
363.525	6.47
363.894	6.31
364.262	6.6
364.631	6.42
364.999	6.47
365.367	6.67
365.735	6.37
366.104	6.27
366.472	6.33
366.84	7.07
367.208	6.31
367.576	6.51
367.944	6.77
368.312	6.67
368.68	6.99
369.048	6.42
369.416	6.63
369.783	6.73
370.151	7.21
370.519	6.87
370.886	6.64
371.254	6.8
371.621	6.62
371.989	6.88
372.356	6.42
372.724	6.86
373.091	7.03
373.458	6.65
373.826	6.75
374.193	6.7
374.56	6.4
374.927	6.49
375.294	6.73
375.661	7.41
376.028	6.87
376.395	6.89
376.762	6.86
377.129	6.87
377.496	6.81
377.863	6.58
378.229	6.65
378.596	7.06
378.963	6.98
379.329	7.01
379.696	6.67
380.062	6.67
380.429	6.98
380.795	6.75
381.161	7.15
381.528	7
381.894	6.76
382.26	6.91
382.626	7.17
382.993	7.03
383.359	6.9
383.725	6.91
384.091	7.04
384.457	7.03
384.823	6.93
385.188	7.22
385.554	6.77
385.92	6.93
386.286	7.09
386.651	6.64
387.017	7.08
387.383	7.15
387.748	7.3
388.114	7.2
388.479	7.05
388.845	7.42
389.21	7.46
389.575	6.94
389.94	7.41
390.306	7.18
390.671	7.25
391.036	7.53
391.401	7
391.766	7.24
392.131	7.26
392.496	7
392.861	7.09
393.226	7.22
393.591	7.34
393.956	7.12
394.32	7.31
394.685	7.54
395.05	6.87
395.414	7.21
395.779	7.19
396.143	7.5
396.508	7.24
396.872	7.31
397.236	7.25
397.601	7.66
397.965	7.36
398.329	7.52
398.694	7.24
399.058	7.26
399.422	7.45
399.786	7.15
400.15	7.28
400.514	7.64
400.878	7.17
401.242	7.51
401.605	7.3
401.969	7.38
402.333	7.35
402.697	7.7
403.06	7.34
403.424	7.57
403.787	7.3
404.151	7.5
404.514	7.36
404.878	7.5
405.241	7.5
405.604	7.35
405.968	7.47
406.331	7.51
406.694	7.47
407.057	7.54
407.42	7.43
407.783	7.58
408.146	7.42
408.509	7.49
408.872	7.34
409.235	7.19
409.598	7.51
409.961	7.48
410.323	7.64
410.686	7.68
411.049	7.7
411.411	7.57
411.774	7.46
412.136	7.5
412.499	7.68
412.861	7.44
413.223	7.58
413.586	7.47
413.948	7.62
414.31	7.64
414.672	7.69
415.035	7.63
415.397	7.83
415.759	7.63
416.121	7.51
416.483	7.67
416.845	7.77
417.206	7.78
417.568	7.78
417.93	7.54
418.292	7.7
418.653	7.72
419.015	7.84
419.377	7.77
419.738	7.76
420.1	7.71
420.461	7.85
420.822	7.66
421.184	7.66
421.545	7.67
421.906	7.62
422.267	7.65
422.629	7.75
422.99	7.64
423.351	7.6
423.712	7.62
424.073	7.62
424.434	7.64
424.795	7.59
425.155	7.72
425.516	7.72
425.877	7.61
426.238	7.71
426.598	7.61
426.959	7.6
427.32	7.76
427.68	7.74
428.041	7.91
428.401	7.69
428.761	7.62
429.122	7.65
429.482	7.79
429.842	7.88
430.202	7.9
430.563	7.8
430.923	8.15
431.283	7.9
431.643	8.01
432.003	7.94
432.363	8.07
432.722	8.16
433.082	7.91
433.442	7.77
433.802	8.03
434.161	7.97
434.521	7.89
434.881	7.81
435.24	7.72
435.6	7.94
435.959	8.02
436.319	7.7
436.678	7.86
437.037	8
437.396	8.09
437.756	8.02
438.115	8.08
438.474	7.91
438.833	7.99
439.192	7.87
439.551	8.01
439.91	8.06
440.269	7.95
440.628	8.09
440.987	8.03
441.345	8.24
441.704	8
442.063	8.14
442.421	7.82
442.78	7.93
443.138	8.07
443.497	7.86
443.855	7.97
444.214	7.99
444.572	8.2
444.93	7.94
445.288	8
445.647	8.06
446.005	8.03
446.363	7.99
446.721	7.95
447.079	7.96
447.437	7.99
447.795	7.98
448.153	7.96
448.51	7.97
448.868	7.93
449.226	7.86
449.584	7.99
449.941	7.92
450.299	8.09
450.656	8.05
451.014	8.11
451.371	8.11
451.729	8.01
452.086	8.18
452.443	8.01
452.801	8.17
453.158	8.21
453.515	8.27
453.872	8.15
454.229	8.13
454.586	8.11
454.943	7.99
455.3	8.11
455.657	8.09
456.014	8.3
456.371	8.27
456.727	8.09
457.084	8.08
457.441	8.17
457.797	8.25
458.154	8.18
458.51	8.05
458.867	8.28
459.223	8.42
459.58	8.22
459.936	8.31
460.292	8.24
460.648	8.19
461.005	8.14
461.361	8.24
461.717	8.12
462.073	8.14
462.429	8.11
462.785	8.22
463.141	8.21
463.496	8.22
463.852	8.23
464.208	8.32
464.564	8.52
464.919	8.22
465.275	8.16
465.631	8.19
465.986	8.33
466.342	8.35
466.697	8.25
467.052	8.19
467.408	8.21
467.763	8.24
468.118	8.41
468.473	8.42
468.829	8.36
469.184	8.3
469.539	8.27
469.894	8.17
470.249	8.37
470.603	8.17
470.958	8.43
471.313	8.23
471.668	8.31
472.023	8.29
472.377	8.28
472.732	8.52
473.086	8.42
473.441	8.41
473.795	8.63
474.15	8.45
474.504	8.51
474.859	8.46
475.213	8.43
475.567	8.44
475.921	8.4
476.275	8.65
476.63	8.63
476.984	8.5
477.338	8.6
477.692	8.36
478.045	8.42
478.399	8.39
478.753	8.38
479.107	8.34
479.461	8.42
479.814	8.41
480.168	8.51
480.521	8.42
480.875	8.48
481.228	8.42
481.582	8.26
481.935	8.45
482.289	8.32
482.642	8.3
482.995	8.42
483.348	8.52
483.701	8.34
484.055	8.44
484.408	8.32
484.761	8.32
485.114	8.24
485.466	8.2
485.819	8.06
486.172	7.93
486.525	7.91
486.878	7.97
487.23	8.08
487.583	8.13
487.936	8.34
488.288	8.35
488.641	8.33
488.993	8.3
489.345	8.16
489.698	8.13
490.05	8.11
490.402	8.21
490.754	8.15
491.107	8.24
491.459	8.35
491.811	8.37
492.163	8.45
492.515	8.45
492.866	8.43
493.218	8.36
493.57	8.23
493.922	8.21
494.274	8.19
494.625	8.23
494.977	8.33
495.328	8.26
495.68	8.52
496.031	8.48
496.383	8.52
496.734	8.56
497.086	8.48
497.437	8.67
497.788	8.56
498.139	8.5
498.49	8.66
498.842	8.4
499.193	8.42
499.544	8.45
499.894	8.56
500.245	8.44
500.596	8.46
500.947	8.63
501.298	8.66
501.648	8.56
501.999	8.51
502.35	8.58
502.7	8.64
503.051	8.56
503.401	8.7
503.752	8.58
504.102	8.51
504.452	8.71
504.803	8.54
505.153	8.67
505.503	8.87
505.853	8.66
506.203	8.69
506.553	8.58
506.903	8.68
507.253	8.71
507.603	8.7
507.953	8.69
508.303	8.72
508.652	8.58
509.002	8.58
509.352	8.65
509.701	8.72
510.051	8.66
510.4	8.6
510.75	8.56
511.099	8.57
511.449	8.65
511.798	8.68
512.147	8.57
512.496	8.8
512.846	8.58
513.195	8.67
513.544	8.64
513.893	8.71
514.242	8.51
514.591	8.66
514.939	8.69
515.288	8.72
515.637	8.75
515.986	8.73
516.334	8.65
516.683	8.71
517.032	8.58
517.38	8.77
517.729	8.77
518.077	8.73
518.426	8.7
518.774	8.79
519.122	8.77
519.47	8.62
519.819	8.67
520.167	8.58
520.515	8.56
520.863	8.53
521.211	8.51
521.559	8.6
521.907	8.53
522.255	8.61
522.602	8.5
522.95	8.6
523.298	8.61
523.645	8.7
523.993	8.59
524.341	8.72
524.688	8.81
525.036	8.77
525.383	8.8
525.73	8.64
526.078	8.65
526.425	8.73
526.772	8.76
527.119	8.61
527.466	8.76
527.814	8.56
528.161	8.57
528.508	8.55
528.854	8.63
529.201	8.62
529.548	8.6
529.895	8.53
530.242	8.47
530.588	8.37
530.935	8.27
531.282	8.18
531.628	8.2
531.975	8.43
532.321	8.41
532.667	8.5
533.014	8.61
533.36	8.53
533.706	8.5
534.052	8.64
534.399	8.64
534.745	8.58
535.091	8.55
535.437	8.41
535.783	8.38
536.129	8.38
536.474	8.47
536.82	8.48
537.166	8.62
537.512	8.58
537.857	8.66
538.203	8.67
538.549	8.63
538.894	8.56
539.239	8.55
539.585	8.6
539.93	8.61
540.276	8.68
540.621	8.59
540.966	8.66
541.311	8.76
541.656	8.77
542.001	8.83
542.346	8.68
542.691	8.55
543.036	8.45
543.381	8.42
543.726	8.3
544.071	8.36
544.415	8.42
544.76	8.47
545.105	8.52
545.449	8.56
545.794	8.52
546.138	8.64
546.483	8.58
546.827	8.6
547.171	8.73
547.516	8.65
547.86	8.6
548.204	8.71
548.548	8.64
548.892	8.73
549.236	8.69
549.58	8.68
549.924	8.74
550.268	8.67
550.612	8.76
550.956	8.7
551.3	8.6
551.643	8.68
551.987	8.84
552.33	8.75
552.674	8.76
553.017	8.74
553.361	8.74
553.704	8.77
554.048	8.79
554.391	8.69
554.734	8.56
555.077	8.63
555.42	8.69
555.764	8.57
556.107	8.62
556.45	8.67
556.793	8.63
557.135	8.92
557.478	8.67
557.821	8.7
558.164	8.63
558.507	8.58
558.849	8.82
559.192	8.68
559.534	8.63
559.877	8.72
560.219	8.76
560.562	8.69
560.904	8.64
561.246	8.69
561.589	8.9
561.931	8.6
562.273	8.72
562.615	8.68
562.957	8.51
563.299	8.49
563.641	8.5
563.983	8.93
564.325	8.63
564.667	8.81
565.008	8.68
565.35	8.68
565.692	8.69
566.033	8.6
566.375	8.74
566.716	8.73
567.058	8.66
567.399	8.7
567.741	8.53
568.082	8.75
568.423	8.71
568.764	8.46
569.105	8.62
569.447	8.52
569.788	8.62
570.129	8.68
570.47	8.62
570.811	8.42
571.151	8.54
571.492	8.54
571.833	8.58
572.174	8.71
572.514	8.75
572.855	8.85
573.195	8.7
573.536	8.68
573.876	8.51
574.217	8.59
574.557	8.61
574.898	8.64
575.238	8.81
575.578	8.56
575.918	8.72
576.258	8.48
576.598	8.67
576.938	8.65
577.278	8.55
577.618	8.74
577.958	8.41
578.298	8.57
578.638	8.5
578.977	8.74
579.317	8.67
579.657	8.53
579.996	8.51
580.336	8.81
580.675	8.84
581.014	8.65
581.354	8.59
581.693	8.41
582.032	8.87
582.372	8.61
582.711	8.3
583.05	8.6
583.389	8.63
583.728	8.75
584.067	8.69
584.406	8.39
584.745	8.42
585.083	8.42
585.422	8.46
585.761	8.56
586.1	8.78
586.438	8.64
586.777	8.67
587.115	8.65
587.454	8.68
587.792	8.62
588.13	8.49
588.469	8.72
588.807	8.2
589.145	8.61
589.483	8.54
589.821	8.34
590.159	8.52
590.497	8.62
590.835	8.5
591.173	8.56
591.511	8.59
591.849	8.53
592.187	8.31
592.524	8.63
592.862	8.58
593.2	8.54
593.537	8.63
593.875	8.52
594.212	8.35
594.55	8.39
594.887	8.35
595.224	8.48
595.561	8.59
595.899	8.77
596.236	8.57
596.573	8.65
596.91	8.52
597.247	8.4
597.584	8.47
597.921	8.47
598.258	8.34
598.594	8.47
598.931	8.58
599.268	8.29
599.604	8.27
599.941	8.41
600.277	8.3
600.614	8.23
600.95	8.4
601.287	8.31
601.623	8.38
601.959	8.42
602.296	8.45
602.632	8.32
602.968	8.5
603.304	8.36
603.64	8.45
603.976	8.4
604.312	8.46
604.648	8.49
604.984	8.33
605.319	8.25
605.655	8.47
605.991	8.21
606.326	8.47
606.662	8.32
606.998	8.36
607.333	8.04
607.668	8.04
608.004	8.22
608.339	8.36
608.674	8.45
609.01	8.23
609.345	8.42
609.68	8.39
610.015	8.38
610.35	8.38
610.685	8.16
611.02	8.04
611.355	8.15
611.689	8.29
612.024	8.38
612.359	8.14
612.694	8.09
613.028	8.16
613.363	8.05
613.697	8.28
614.032	8.52
614.366	8.62
614.7	8.11
615.035	8.45
615.369	8.12
615.703	8.27
616.037	8.51
616.371	7.99
616.705	8.23
617.039	8.27
617.373	8.09
617.707	8.47
618.041	8.06
618.375	8.28
618.709	8.4
619.042	8.03
619.376	8.44
619.71	8.35
620.043	8.02
620.377	8.21
620.71	8.39
621.043	8.65
621.377	7.89
621.71	8.22
622.043	8.14
622.376	8.42
622.709	8.18
623.043	8.34
623.376	8.17
623.709	8.08
624.041	8.11
624.374	8.67
624.707	8.01
625.04	8.52
625.373	8.27
625.705	8.19
626.038	8.25
626.37	8.1
626.703	8.12
627.035	8.17
627.368	7.92
627.7	8.05
628.032	8.37
628.365	8.23
628.697	8.41
629.029	8.25
629.361	8.38
629.693	8.38
630.025	8.3
630.357	7.97
630.689	8.34
631.021	8.22
631.353	8.16
631.684	8.1
632.016	7.85
632.348	8.13
632.679	7.92
633.011	8.4
633.342	8.24
633.674	8.47
634.005	7.95
634.336	8.29
634.668	8.33
634.999	8.08
635.33	8.42
635.661	8.14
635.992	8.01
636.323	8.24
636.654	8.36
636.985	8.08
637.316	7.95
637.647	8.32
637.977	8.55
638.308	8.22
638.639	8.35
638.969	8.14
639.3	7.94
639.63	8.33
639.961	7.82
640.291	7.62
640.622	8.57
640.952	8.31
641.282	8.29
641.612	8.56
641.943	7.99
642.273	8.03
642.603	8.09
642.933	8.11
643.263	8.33
643.592	8.14
643.922	8.4
644.252	8.03
644.582	7.77
644.911	8.22
645.241	8.41
645.571	7.79
645.9	8.31
646.23	8.24
646.559	8.29
646.888	7.74
647.218	7.77
647.547	8.3
647.876	8.03
648.205	7.8
648.534	7.94
648.863	8.18
649.192	7.8
649.521	7.65
649.85	8.39
650.179	7.89
650.508	8.34
650.837	8.04
651.165	8.24
651.494	8.19
651.822	8.6
652.151	7.99
652.479	7.57
652.808	8.09
653.136	7.93
653.465	8.24
653.793	8.39
654.121	7.74
654.449	8.26
654.777	7.7
655.105	8.45
655.433	8.1
655.761	8.27
656.089	8.31
656.417	8.17
656.745	8.44
657.073	7.84
657.4	8.48
657.728	8.01
658.056	8.1
658.383	7.91
658.711	8.15
659.038	8.18
659.365	8.2
659.693	8.09
660.02	8.14
660.347	8.37
660.674	8.57
661.001	8.08
661.329	7.85
661.656	7.91
661.982	8.23
662.309	7.84
662.636	8.34
662.963	7.88
663.29	7.66
663.616	8.11
663.943	8.23
664.27	8.22
664.596	7.92
664.923	7.99
665.249	8.03
665.576	8.39
665.902	8.09
666.228	7.94
666.554	8.3
666.881	7.59
667.207	8.73
667.533	8.33
667.859	7.84
668.185	8.21
668.511	7.8
668.837	8.19
669.162	8.33
669.488	7.92
669.814	8.27
670.139	8.18
670.465	7.92
670.791	8.79
671.116	8.38
671.442	8.12
671.767	8.18
672.092	8.09
672.418	8.22
672.743	7.97
673.068	7.86
673.393	7.95
673.718	7.22
674.043	7.61
674.368	8.03
674.693	7.73
675.018	8.38
675.343	7.69
675.667	8.33
675.992	8.13
676.317	8.23
676.641	8
676.966	8.15
677.29	7.67
677.615	8.68
677.939	8.2
678.264	8.18
678.588	8.36
678.912	8.07
679.236	8.28
679.56	8.01
679.885	8.25
680.209	8.58
680.532	8.22
680.856	8.44
681.18	8.55
681.504	7.62
681.828	8.64
682.152	8.75
682.475	8.14
682.799	8.39
683.122	8.35
683.446	7.43
683.769	8.47
684.093	8.34
684.416	8.12
684.739	7.81
685.062	8
685.386	7.85
685.709	8
686.032	8.07
686.355	7.9
686.678	8.23
687.001	8.04
687.324	8.18
687.646	8.22
687.969	8.03
688.292	8.87
688.614	8.48
688.937	8.44
689.26	7.99
689.582	7.67
689.904	8.42
690.227	8.06
690.549	8.37
690.871	7.65
691.194	8.3
691.516	8.43
