Data from 0034_chest_Reflection__4__186.txt Node

Date: Thu Oct 20 22:22:16 CDT 2022
User: ToomeyLab
Spectrometer: FLMS14357
Trigger mode: 0
Integration Time (sec): 1.000000E-2
Scans to average: 100
Electric dark correction enabled: true
Nonlinearity correction enabled: false
Boxcar width: 0
XAxis mode: Wavelengths
Number of Pixels in Spectrum: 2048
>>>>>Begin Spectral Data<<<<<
189.047	-134.27
189.435	-134.27
189.823	-134.27
190.211	260.14
190.599	93.27
190.987	-577.48
191.375	206.36
191.763	-123.26
192.151	144.04
192.538	-54.36
192.926	1.14
193.314	829.26
193.702	-0.25
194.089	66.03
194.477	-711.93
194.864	208.18
195.252	-8.02
195.639	4.78
196.027	-126.92
196.414	60.57
196.801	444.91
197.189	77.96
197.576	191.54
197.963	95.35
198.351	27.71
198.738	-80.36
199.125	30.14
199.512	-18.7
199.899	-16.99
200.286	-21.1
200.673	-24.72
201.06	21.09
201.447	10.32
201.833	30.37
202.22	9.56
202.607	16.92
202.994	14.77
203.38	-62.4
203.767	27.36
204.154	-8.69
204.54	-16.16
204.927	36.51
205.313	2.34
205.699	12.01
206.086	25.97
206.472	3.18
206.858	-61.45
207.245	8.86
207.631	8.57
208.017	14.01
208.403	-95.53
208.789	-18.33
209.175	-18.89
209.561	25.22
209.947	-22.41
210.333	4.26
210.719	33.57
211.105	28.94
211.491	-62.59
211.876	-47.28
212.262	-9.77
212.648	14.85
213.034	26.66
213.419	-20.72
213.805	-23.09
214.19	7.4
214.576	-45.71
214.961	-58.53
215.346	-70.58
215.732	27.49
216.117	-12.24
216.502	-15.9
216.888	-114.6
217.273	-31.17
217.658	16.41
218.043	-0.89
218.428	-8.56
218.813	9.48
219.198	-8.14
219.583	-11.96
219.968	7.34
220.353	-10.09
220.738	3.9
221.122	-2.48
221.507	-25.19
221.892	-12.64
222.276	-3.68
222.661	2.26
223.046	6.87
223.43	-0.49
223.815	0.71
224.199	-6.04
224.583	10.09
224.968	0.31
225.352	6.28
225.736	4.96
226.121	-0.91
226.505	7.8
226.889	0.66
227.273	2.44
227.657	0.38
228.041	-2.32
228.425	1.84
228.809	5.43
229.193	2.41
229.577	2.62
229.961	3.3
230.344	3.18
230.728	3.05
231.112	2.67
231.495	3.24
231.879	4.46
232.263	2.94
232.646	3.31
233.03	3.24
233.413	2.34
233.797	3.06
234.18	3.04
234.563	4.15
234.946	3.83
235.33	3.73
235.713	2.88
236.096	2.49
236.479	5.05
236.862	3.42
237.245	2.91
237.628	2.41
238.011	3.93
238.394	3.1
238.777	2.32
239.16	0.79
239.543	1.67
239.925	3.59
240.308	4.56
240.691	4.3
241.073	2.77
241.456	3.47
241.838	3.31
242.221	2.19
242.603	3.76
242.986	4.16
243.368	3.3
243.75	3.5
244.133	3.33
244.515	3.29
244.897	3.46
245.279	3.01
245.661	4.2
246.043	2.71
246.425	3.28
246.807	3.45
247.189	2.81
247.571	3.63
247.953	3.47
248.335	3.56
248.717	3.17
249.098	3.35
249.48	3.18
249.862	3.44
250.243	3.15
250.625	4.29
251.006	3.12
251.388	2.83
251.769	2.54
252.151	3.14
252.532	3.15
252.913	3.43
253.295	3.02
253.676	3.77
254.057	2.45
254.438	2.97
254.819	3.66
255.2	3.33
255.581	2.4
255.962	3.56
256.343	3.24
256.724	2.26
257.105	2.3
257.486	2.76
257.867	3.69
258.247	3.62
258.628	3.16
259.009	2.39
259.389	2.78
259.77	3.08
260.15	3.09
260.531	3.08
260.911	2.94
261.292	3.26
261.672	3.19
262.052	3.24
262.432	3.37
262.813	2.7
263.193	3.42
263.573	3.39
263.953	3.29
264.333	3.22
264.713	3.36
265.093	2.93
265.473	2.41
265.853	3.63
266.233	2.44
266.612	3.37
266.992	2.47
267.372	4.03
267.752	3.26
268.131	3.24
268.511	3.82
268.89	3.24
269.27	3.02
269.649	3.05
270.029	2.72
270.408	2.68
270.787	3.22
271.167	3.02
271.546	2.78
271.925	3.44
272.304	3.04
272.683	2.94
273.062	2.6
273.441	3.21
273.82	3.61
274.199	2.72
274.578	2.67
274.957	2.66
275.336	2.74
275.715	3.08
276.093	3.46
276.472	3.26
276.851	3.31
277.229	2.6
277.608	2.37
277.986	3.36
278.365	3.05
278.743	2.89
279.122	2.74
279.5	2.69
279.878	2.72
280.257	2.73
280.635	3.21
281.013	2.94
281.391	3.42
281.769	3.2
282.147	2.43
282.525	2.63
282.903	3.38
283.281	2.35
283.659	2.69
284.037	2.27
284.415	2.95
284.792	2.69
285.17	3.25
285.548	2.77
285.925	2.69
286.303	2.6
286.68	3.49
287.058	2.82
287.435	2.78
287.813	2.81
288.19	2.54
288.567	2.78
288.945	2.84
289.322	2.78
289.699	2.17
290.076	3.03
290.453	2.55
290.83	2.99
291.207	3.11
291.584	2.76
291.961	3.08
292.338	2.73
292.715	2.66
293.092	3.48
293.469	3.14
293.845	3.21
294.222	2.91
294.599	3.44
294.975	2.39
295.352	3.56
295.728	3.39
296.105	3.09
296.481	2.73
296.858	3.04
297.234	3.2
297.61	3.08
297.986	2.99
298.363	2.85
298.739	3.27
299.115	2.94
299.491	2.82
299.867	2.81
300.243	3.27
300.619	3.17
300.995	2.48
301.371	3.25
301.746	2.72
302.122	3.35
302.498	2.68
302.874	3.54
303.249	3.21
303.625	2.92
304	3.46
304.376	2.71
304.751	3.76
305.127	2.4
305.502	3.18
305.878	3.12
306.253	3.16
306.628	3.01
307.003	2.92
307.378	2.6
307.754	2.79
308.129	3.04
308.504	2.97
308.879	3.3
309.254	2.54
309.629	3.21
310.003	2.96
310.378	2.75
310.753	3.12
311.128	3.12
311.502	2.96
311.877	3.01
312.252	2.73
312.626	2.94
313.001	2.99
313.375	3.14
313.75	2.48
314.124	2.63
314.498	2.91
314.873	2.83
315.247	2.52
315.621	3.22
315.995	2.64
316.369	2.64
316.743	2.78
317.117	2.88
317.491	3.39
317.865	3.28
318.239	2.59
318.613	3.67
318.987	3.14
319.361	3.15
319.734	2.58
320.108	3.65
320.482	3.11
320.855	3.38
321.229	3.53
321.602	2.64
321.976	2.9
322.349	2.37
322.723	3.55
323.096	3.16
323.469	2.49
323.843	3.02
324.216	2.64
324.589	3.61
324.962	2.95
325.335	3.15
325.708	3.08
326.081	2.98
326.454	2.91
326.827	2.91
327.2	3.34
327.573	3
327.945	3.16
328.318	3
328.691	3.19
329.063	2.97
329.436	2.66
329.809	3.38
330.181	2.86
330.553	3.29
330.926	2.78
331.298	2.54
331.671	3.57
332.043	2.93
332.415	2.94
332.787	2.85
333.159	3.07
333.532	3.59
333.904	3.25
334.276	3.18
334.648	2.43
335.02	3.17
335.391	2.73
335.763	2.88
336.135	3.05
336.507	2.88
336.879	3.68
337.25	2.46
337.622	3.06
337.993	2.48
338.365	3.56
338.736	3.05
339.108	2.93
339.479	2.88
339.851	2.83
340.222	3.03
340.593	3.22
340.964	3.41
341.336	2.51
341.707	2.7
342.078	2.74
342.449	2.74
342.82	3.06
343.191	3.12
343.562	3.19
343.933	2.87
344.303	2.64
344.674	3.28
345.045	3.12
345.416	3.17
345.786	2.89
346.157	3.22
346.527	2.67
346.898	3.18
347.268	2.96
347.639	2.98
348.009	2.91
348.38	3.18
348.75	2.97
349.12	3.11
349.49	3.29
349.861	3.18
350.231	3.14
350.601	3.51
350.971	3.17
351.341	3.42
351.711	3.25
352.081	2.77
352.45	3.18
352.82	2.69
353.19	3.06
353.56	3.08
353.929	2.94
354.299	3.22
354.669	2.82
355.038	2.91
355.408	2.75
355.777	3.4
356.147	3.27
356.516	3.32
356.885	3.18
357.254	3.16
357.624	3.09
357.993	3.07
358.362	3.33
358.731	3.03
359.1	2.84
359.469	3.09
359.838	2.99
360.207	3.44
360.576	2.8
360.945	3.41
361.314	3.29
361.682	3.31
362.051	2.8
362.42	2.93
362.788	3.09
363.157	3.17
363.525	3.21
363.894	3.08
364.262	3.3
364.631	2.82
364.999	3
365.367	3.05
365.735	3.09
366.104	2.98
366.472	3.08
366.84	3.15
367.208	2.88
367.576	2.96
367.944	3.46
368.312	3.14
368.68	3.37
369.048	3.09
369.416	3.15
369.783	3.16
370.151	3.4
370.519	3.13
370.886	2.88
371.254	3.2
371.621	3.21
371.989	3.42
372.356	2.98
372.724	3.2
373.091	3.26
373.458	3.08
373.826	2.99
374.193	3.16
374.56	3.15
374.927	2.81
375.294	3.12
375.661	3.35
376.028	2.87
376.395	3.01
376.762	3.13
377.129	3.06
377.496	3.05
377.863	2.88
378.229	3.04
378.596	3.02
378.963	3.22
379.329	3.28
379.696	3.03
380.062	3.12
380.429	3.32
380.795	3.21
381.161	3.45
381.528	3.03
381.894	3.21
382.26	3.21
382.626	3.15
382.993	2.85
383.359	3.17
383.725	3.3
384.091	3.39
384.457	3.13
384.823	3.13
385.188	3.33
385.554	3.07
385.92	2.96
386.286	3.08
386.651	2.93
387.017	3.21
387.383	3.32
387.748	3.42
388.114	3.34
388.479	3.38
388.845	3.2
389.21	3.48
389.575	3.21
389.94	3.51
390.306	3.3
390.671	3.23
391.036	3.28
391.401	3.17
391.766	3.43
392.131	3.38
392.496	3.44
392.861	2.99
393.226	3.28
393.591	3.29
393.956	3.31
394.32	3.38
394.685	3.39
395.05	3.26
395.414	3.3
395.779	3.21
396.143	3.56
396.508	3.4
396.872	3.26
397.236	2.89
397.601	3.57
397.965	3.14
398.329	3.17
398.694	2.97
399.058	3.18
399.422	3.27
399.786	3.13
400.15	3.29
400.514	3.43
400.878	3.14
401.242	3.24
401.605	3.48
401.969	3.44
402.333	3.26
402.697	3.64
403.06	3.19
403.424	3.31
403.787	3.38
404.151	3.17
404.514	3.38
404.878	3.21
405.241	3.22
405.604	3.37
405.968	3.36
406.331	3.27
406.694	3.34
407.057	3.34
407.42	3.49
407.783	3.28
408.146	3.27
408.509	3.44
408.872	3.43
409.235	3.02
409.598	3.64
409.961	3.62
410.323	3.67
410.686	3.43
411.049	3.41
411.411	3.31
411.774	3.25
412.136	3.46
412.499	3.56
412.861	3.42
413.223	3.5
413.586	3.37
413.948	3.23
414.31	3.04
414.672	3.48
415.035	3.52
415.397	3.37
415.759	3.51
416.121	3.49
416.483	3.25
416.845	3.5
417.206	3.41
417.568	3.61
417.93	3.34
418.292	3.46
418.653	3.43
419.015	3.58
419.377	3.44
419.738	3.42
420.1	3.31
420.461	3.46
420.822	3.34
421.184	3.33
421.545	3.44
421.906	3.39
422.267	3.42
422.629	3.34
422.99	3.32
423.351	3.28
423.712	3.33
424.073	3.44
424.434	3.33
424.795	3.28
425.155	3.32
425.516	3.42
425.877	3.31
426.238	3.51
426.598	3.47
426.959	3.43
427.32	3.49
427.68	3.41
428.041	3.45
428.401	3.38
428.761	3.5
429.122	3.39
429.482	3.38
429.842	3.46
430.202	3.51
430.563	3.37
430.923	3.59
431.283	3.42
431.643	3.4
432.003	3.77
432.363	3.63
432.722	3.7
433.082	3.59
433.442	3.49
433.802	3.58
434.161	3.53
434.521	3.41
434.881	3.42
435.24	3.36
435.6	3.54
435.959	3.72
436.319	3.63
436.678	3.6
437.037	3.64
437.396	3.64
437.756	3.42
438.115	3.55
438.474	3.36
438.833	3.64
439.192	3.48
439.551	3.55
439.91	3.59
440.269	3.52
440.628	3.54
440.987	3.48
441.345	3.66
441.704	3.67
442.063	3.63
442.421	3.43
442.78	3.56
443.138	3.62
443.497	3.47
443.855	3.43
444.214	3.63
444.572	3.7
444.93	3.48
445.288	3.46
445.647	3.59
446.005	3.45
446.363	3.65
446.721	3.58
447.079	3.58
447.437	3.49
447.795	3.48
448.153	3.52
448.51	3.55
448.868	3.52
449.226	3.56
449.584	3.6
449.941	3.62
450.299	3.59
450.656	3.61
451.014	3.68
451.371	3.57
451.729	3.57
452.086	3.84
452.443	3.48
452.801	3.56
453.158	3.64
453.515	3.67
453.872	3.65
454.229	3.69
454.586	3.56
454.943	3.59
455.3	3.74
455.657	3.53
456.014	3.72
456.371	3.71
456.727	3.63
457.084	3.62
457.441	3.74
457.797	3.62
458.154	3.74
458.51	3.63
458.867	3.71
459.223	3.87
459.58	3.64
459.936	3.62
460.292	3.64
460.648	3.56
461.005	3.58
461.361	3.67
461.717	3.63
462.073	3.81
462.429	3.76
462.785	3.7
463.141	3.84
463.496	3.92
463.852	3.75
464.208	3.78
464.564	3.83
464.919	3.8
465.275	3.86
465.631	3.68
465.986	3.86
466.342	3.56
466.697	3.59
467.052	3.8
467.408	3.75
467.763	3.69
468.118	3.93
468.473	4.06
468.829	3.83
469.184	3.8
469.539	3.8
469.894	3.71
470.249	3.86
470.603	3.84
470.958	3.76
471.313	3.75
471.668	3.76
472.023	3.94
472.377	3.8
472.732	3.87
473.086	3.92
473.441	3.97
473.795	3.83
474.15	3.93
474.504	3.81
474.859	3.99
475.213	4.04
475.567	3.94
475.921	3.76
476.275	3.93
476.63	4.09
476.984	3.94
477.338	3.9
477.692	3.87
478.045	3.91
478.399	4.01
478.753	3.85
479.107	3.8
479.461	3.9
479.814	3.9
480.168	3.98
480.521	3.81
480.875	4.01
481.228	4.06
481.582	3.96
481.935	3.93
482.289	3.83
482.642	3.79
482.995	3.91
483.348	4.06
483.701	3.81
484.055	3.85
484.408	3.84
484.761	3.73
485.114	3.66
485.466	3.67
485.819	3.69
486.172	3.73
486.525	3.81
486.878	3.89
487.23	3.86
487.583	3.83
487.936	3.92
488.288	3.82
488.641	3.8
488.993	3.82
489.345	3.79
489.698	3.78
490.05	3.81
490.402	3.9
490.754	3.91
491.107	3.87
491.459	4.09
491.811	3.94
492.163	3.91
492.515	3.88
492.866	3.91
493.218	3.84
493.57	3.88
493.922	3.93
494.274	3.95
494.625	4.05
494.977	4.03
495.328	3.99
495.68	4.06
496.031	4.16
496.383	4.1
496.734	4.07
497.086	4.07
497.437	4.19
497.788	4.1
498.139	3.94
498.49	4.15
498.842	4
499.193	4.01
499.544	4.23
499.894	4.11
500.245	4.17
500.596	4.2
500.947	4.16
501.298	4.19
501.648	4.23
501.999	4.21
502.35	4.25
502.7	4.24
503.051	4.3
503.401	4.29
503.752	4.27
504.102	4.16
504.452	4.24
504.803	4.14
505.153	4.18
505.503	4.43
505.853	4.16
506.203	4.3
506.553	4.43
506.903	4.25
507.253	4.32
507.603	4.28
507.953	4.36
508.303	4.24
508.652	4.26
509.002	4.27
509.352	4.39
509.701	4.38
510.051	4.27
510.4	4.28
510.75	4.23
511.099	4.2
511.449	4.41
511.798	4.3
512.147	4.48
512.496	4.42
512.846	4.54
513.195	4.54
513.544	4.27
513.893	4.4
514.242	4.34
514.591	4.5
514.939	4.36
515.288	4.55
515.637	4.43
515.986	4.52
516.334	4.43
516.683	4.49
517.032	4.54
517.38	4.55
517.729	4.52
518.077	4.53
518.426	4.56
518.774	4.52
519.122	4.56
519.47	4.53
519.819	4.42
520.167	4.43
520.515	4.47
520.863	4.41
521.211	4.51
521.559	4.6
521.907	4.51
522.255	4.59
522.602	4.67
522.95	4.63
523.298	4.49
523.645	4.65
523.993	4.68
524.341	4.72
524.688	4.62
525.036	4.7
525.383	4.74
525.73	4.63
526.078	4.62
526.425	4.69
526.772	4.65
527.119	4.59
527.466	4.75
527.814	4.69
528.161	4.7
528.508	4.63
528.854	4.77
529.201	4.68
529.548	4.6
529.895	4.58
530.242	4.57
530.588	4.57
530.935	4.62
531.282	4.65
531.628	4.68
531.975	4.79
532.321	4.83
532.667	4.8
533.014	4.82
533.36	4.82
533.706	4.71
534.052	4.86
534.399	4.88
534.745	4.77
535.091	4.82
535.437	4.79
535.783	4.91
536.129	4.86
536.474	4.98
536.82	4.99
537.166	4.96
537.512	5.02
537.857	4.99
538.203	5.01
538.549	5.03
538.894	5.08
539.239	5.03
539.585	5.07
539.93	5.3
540.276	5.36
540.621	5.09
540.966	5.18
541.311	5.24
541.656	5.11
542.001	5.14
542.346	5.11
542.691	4.99
543.036	5
543.381	5.07
543.726	5.06
544.071	5.08
544.415	5.27
544.76	5.09
545.105	5.34
545.449	5.25
545.794	5.33
546.138	5.47
546.483	5.32
546.827	5.41
547.171	5.4
547.516	5.39
547.86	5.29
548.204	5.45
548.548	5.37
548.892	5.52
549.236	5.46
549.58	5.49
549.924	5.47
550.268	5.58
550.612	5.79
550.956	5.55
551.3	5.74
551.643	5.72
551.987	5.96
552.33	5.72
552.674	5.55
553.017	5.75
553.361	5.92
553.704	5.88
554.048	5.77
554.391	5.69
554.734	5.79
555.077	5.74
555.42	5.82
555.764	5.75
556.107	5.86
556.45	5.84
556.793	5.87
557.135	5.99
557.478	6.02
557.821	5.99
558.164	5.96
558.507	5.98
558.849	6.15
559.192	6.26
559.534	6.18
559.877	6.3
560.219	6.3
560.562	6.38
560.904	6.13
561.246	6.23
561.589	6.39
561.931	6.16
562.273	6.51
562.615	6.21
562.957	6.16
563.299	6.19
563.641	6.09
563.983	6.63
564.325	6.3
564.667	6.47
565.008	6.5
565.35	6.44
565.692	6.24
566.033	6.37
566.375	6.49
566.716	6.56
567.058	6.63
567.399	6.59
567.741	6.61
568.082	6.58
568.423	6.53
568.764	6.47
569.105	6.67
569.447	6.59
569.788	6.72
570.129	6.82
570.47	6.75
570.811	6.63
571.151	6.68
571.492	6.72
571.833	6.79
572.174	6.89
572.514	6.93
572.855	6.83
573.195	6.93
573.536	6.85
573.876	6.76
574.217	6.84
574.557	6.95
574.898	7.03
575.238	7.17
575.578	7.14
575.918	7.22
576.258	7
576.598	7.2
576.938	7.21
577.278	7.13
577.618	7.46
577.958	7.29
578.298	7.3
578.638	7.15
578.977	7.55
579.317	7.34
579.657	7.24
579.996	7.68
580.336	7.53
580.675	7.79
581.014	7.41
581.354	7.7
581.693	7.55
582.032	7.57
582.372	7.62
582.711	7.59
583.05	7.77
583.389	7.67
583.728	7.64
584.067	7.96
584.406	7.85
584.745	7.85
585.083	7.77
585.422	7.98
585.761	7.88
586.1	8.2
586.438	8.09
586.777	7.99
587.115	7.93
587.454	8.17
587.792	8
588.13	8.06
588.469	8.26
588.807	7.98
589.145	8.16
589.483	8.16
589.821	8.21
590.159	8.52
590.497	8.31
590.835	8.24
591.173	8.2
591.511	8.39
591.849	8.36
592.187	8.26
592.524	8.55
592.862	8.44
593.2	8.5
593.537	8.47
593.875	8.58
594.212	8.55
594.55	8.68
594.887	8.43
595.224	8.71
595.561	8.62
595.899	8.98
596.236	8.77
596.573	8.89
596.91	8.64
597.247	8.79
597.584	8.79
597.921	8.82
598.258	8.89
598.594	8.89
598.931	8.87
599.268	8.72
599.604	8.78
599.941	9.13
600.277	9.15
600.614	9.14
600.95	9.22
601.287	9.12
601.623	9.14
601.959	9.19
602.296	9.31
602.632	9.01
602.968	9.54
603.304	9.35
603.64	9.71
603.976	9.48
604.312	9.37
604.648	9.5
604.984	9.54
605.319	9.42
605.655	9.46
605.991	9.23
606.326	9.59
606.662	9.55
606.998	9.82
607.333	9.66
607.668	9.63
608.004	9.66
608.339	9.83
608.674	9.93
609.01	10.25
609.345	10.04
609.68	9.64
610.015	10.1
610.35	9.99
610.685	9.93
611.02	9.88
611.355	9.79
611.689	10.18
612.024	10.03
612.359	10.11
612.694	10.06
613.028	9.95
613.363	10.27
613.697	10.47
614.032	10.6
614.366	10.15
614.7	10.42
615.035	10.33
615.369	10.34
615.703	10.58
616.037	10.45
616.371	10.5
616.705	10.47
617.039	10.58
617.373	10.57
617.707	10.66
618.041	10.56
618.375	10.43
618.709	10.55
619.042	10.79
619.376	10.72
619.71	10.75
620.043	10.83
620.377	10.88
620.71	10.98
621.043	11.24
621.377	10.92
621.71	10.76
622.043	11.05
622.376	11.34
622.709	11.28
623.043	11.35
623.376	11.54
623.709	11.39
624.041	11.34
624.374	11.29
624.707	11.4
625.04	11.91
625.373	11.7
625.705	11.31
626.038	11.4
626.37	11.26
626.703	11.51
627.035	11.43
627.368	11.64
627.7	11.68
628.032	11.69
628.365	11.75
628.697	11.9
629.029	11.93
629.361	11.83
629.693	12.12
630.025	12.05
630.357	11.86
630.689	11.8
631.021	12.36
631.353	11.87
631.684	12.14
632.016	11.95
632.348	12.26
632.679	11.9
633.011	12.61
633.342	12.24
633.674	12.32
634.005	12.65
634.336	12.25
634.668	12.25
634.999	12.31
635.33	12.45
635.661	12.75
635.992	12.36
636.323	12.72
636.654	12.49
636.985	12.63
637.316	12.64
637.647	12.87
637.977	13.29
638.308	12.32
638.639	12.94
638.969	12.75
639.3	12.76
639.63	12.68
639.961	12.98
640.291	12.74
640.622	13.2
640.952	13.3
641.282	13.08
641.612	13.45
641.943	13.18
642.273	13.13
642.603	13.25
642.933	13.22
643.263	13.03
643.592	13.37
643.922	13.23
644.252	13.47
644.582	12.82
644.911	13.67
645.241	13.62
645.571	13.49
645.9	13.63
646.23	13.33
646.559	13.99
646.888	13.91
647.218	13.11
647.547	13.55
647.876	13.46
648.205	13.53
648.534	13.55
648.863	13.66
649.192	13.47
649.521	13.69
649.85	14.55
650.179	14.34
650.508	14.34
650.837	14.01
651.165	14.39
651.494	14.06
651.822	14.13
652.151	14.4
652.479	14.08
652.808	14.64
653.136	14.09
653.465	14.88
653.793	14.28
654.121	14.41
654.449	14.51
654.777	14.17
655.105	15.22
655.433	14.39
655.761	14.78
656.089	14.37
656.417	14.86
656.745	14.48
657.073	14.57
657.4	15.01
657.728	14.9
658.056	14.41
658.383	14.58
658.711	15.09
659.038	15.15
659.365	14.6
659.693	14.78
660.02	15.21
660.347	15.07
660.674	15.45
661.001	14.95
661.329	15.33
661.656	14.91
661.982	15.13
662.309	14.83
662.636	15.53
662.963	15.17
663.29	15.4
663.616	15.42
663.943	15.69
664.27	15.72
664.596	15.77
664.923	15.59
665.249	15.55
665.576	16.11
665.902	15.72
666.228	15.26
666.554	15.29
666.881	15.89
667.207	16.48
667.533	16.33
667.859	15.78
668.185	16.04
668.511	16.6
668.837	15.72
669.162	15.75
669.488	16.15
669.814	16.24
670.139	16.27
670.465	16.02
670.791	16.64
671.116	16.18
671.442	16.32
671.767	16.35
672.092	16.35
672.418	16.35
672.743	16.46
673.068	15.97
673.393	16.8
673.718	16.2
674.043	15.99
674.368	16.09
674.693	16.8
675.018	16.82
675.343	16.38
675.667	16.98
675.992	16.95
676.317	16.61
676.641	16.75
676.966	16.73
677.29	17.25
677.615	16.9
677.939	17.01
678.264	17.16
678.588	17.11
678.912	16.86
679.236	17.28
679.56	17.24
679.885	16.94
680.209	16.82
680.532	17.75
680.856	17.99
681.18	17.89
681.504	17.11
681.828	17.43
682.152	17.58
682.475	17.14
682.799	17.9
683.122	17.97
683.446	17.27
683.769	17.38
684.093	17.62
684.416	17.75
684.739	17.76
685.062	17.59
685.386	18.14
685.709	17.84
686.032	18.12
686.355	17.22
