Data from 0034_forehead_Reflection__4__196.txt Node

Date: Thu Oct 20 22:25:27 CDT 2022
User: ToomeyLab
Spectrometer: FLMS14357
Trigger mode: 0
Integration Time (sec): 1.000000E-2
Scans to average: 100
Electric dark correction enabled: true
Nonlinearity correction enabled: false
Boxcar width: 0
XAxis mode: Wavelengths
Number of Pixels in Spectrum: 2048
>>>>>Begin Spectral Data<<<<<
189.047	117.65
189.435	117.65
189.823	117.65
190.211	236.33
190.599	-62
190.987	-26.89
191.375	260.01
191.763	-210.46
192.151	35.8
192.538	81.07
192.926	79.24
193.314	672.67
193.702	-3.69
194.089	36.6
194.477	-191.65
194.864	398.56
195.252	58.71
195.639	138.1
196.027	94.72
196.414	125.02
196.801	783.36
197.189	712.52
197.576	80.55
197.963	307.04
198.351	7.13
198.738	-124.74
199.125	54.29
199.512	21.25
199.899	78.51
200.286	51.86
200.673	31.28
201.06	59.97
201.447	64.13
201.833	-60.13
202.22	25.35
202.607	-1.21
202.994	37.04
203.38	-38.18
203.767	13.95
204.154	-9.09
204.54	-52.34
204.927	27.13
205.313	34.25
205.699	22.66
206.086	-7.67
206.472	7.46
206.858	-15.34
207.245	18.24
207.631	30.62
208.017	3.74
208.403	-78.13
208.789	-44.62
209.175	33.39
209.561	38
209.947	12.94
210.333	3.02
210.719	17.14
211.105	28.63
211.491	-64.65
211.876	-36.67
212.262	26.33
212.648	16.21
213.034	-5.35
213.419	-14.24
213.805	-9.91
214.19	5.57
214.576	1.59
214.961	17.65
215.346	-49.13
215.732	17.92
216.117	-21.14
216.502	0.03
216.888	-13.09
217.273	-40.92
217.658	28
218.043	18.79
218.428	-7.57
218.813	29.96
219.198	3.93
219.583	29.08
219.968	31.84
220.353	11.01
220.738	21.34
221.122	15.57
221.507	-3.01
221.892	8.08
222.276	6.95
222.661	12.22
223.046	22.68
223.43	-0.21
223.815	9.58
224.199	-7.58
224.583	2.15
224.968	8.43
225.352	15.08
225.736	0.86
226.121	5.63
226.505	6.37
226.889	1.04
227.273	-3.84
227.657	2.48
228.041	-3
228.425	2.46
228.809	6.02
229.193	3.93
229.577	1.87
229.961	3.72
230.344	3.22
230.728	3.01
231.112	3.22
231.495	4.05
231.879	4.18
232.263	1.53
232.646	2.87
233.03	2.26
233.413	1.77
233.797	1.68
234.18	4.38
234.563	5.77
234.946	5.1
235.33	4.31
235.713	3.43
236.096	1.57
236.479	3.87
236.862	4.13
237.245	3.41
237.628	3.42
238.011	3.98
238.394	3.22
238.777	4.31
239.16	1.85
239.543	2.34
239.925	2.65
240.308	4.59
240.691	4.75
241.073	2.91
241.456	2.5
241.838	3.33
242.221	2.66
242.603	4.01
242.986	2.94
243.368	3.35
243.75	3.17
244.133	3.57
244.515	2.78
244.897	3.06
245.279	2.04
245.661	4.61
246.043	3.71
246.425	4.23
246.807	3.06
247.189	4.05
247.571	3.24
247.953	3.37
248.335	3.33
248.717	3.17
249.098	3.1
249.48	3.48
249.862	3.36
250.243	3.4
250.625	3.69
251.006	4.02
251.388	3.99
251.769	3.46
252.151	3.8
252.532	2.65
252.913	2.93
253.295	3.52
253.676	3.62
254.057	2.72
254.438	3.12
254.819	3.1
255.2	3.85
255.581	3.93
255.962	4.3
256.343	2.64
256.724	3.41
257.105	3.65
257.486	3.28
257.867	4.09
258.247	4.52
258.628	4.35
259.009	2.37
259.389	3.83
259.77	3.45
260.15	3.39
260.531	3.52
260.911	3.05
261.292	3.47
261.672	3.38
262.052	3.55
262.432	3.6
262.813	3.17
263.193	3.84
263.573	3.57
263.953	3.45
264.333	3.64
264.713	4.23
265.093	3.96
265.473	4.56
265.853	4.88
266.233	3.28
266.612	3.88
266.992	2.71
267.372	3.73
267.752	3.66
268.131	3.76
268.511	3.64
268.89	3.17
269.27	3.31
269.649	3.62
270.029	3.28
270.408	2.89
270.787	3.29
271.167	2.84
271.546	3.81
271.925	4.21
272.304	3.59
272.683	3.29
273.062	2.81
273.441	3.46
273.82	3.61
274.199	3.4
274.578	3.14
274.957	3.07
275.336	3.24
275.715	2.79
276.093	3.94
276.472	3.86
276.851	3.3
277.229	3.35
277.608	2.93
277.986	3.81
278.365	3.22
278.743	3.66
279.122	3.79
279.5	3.93
279.878	3.87
280.257	3.88
280.635	3.91
281.013	3.72
281.391	3.72
281.769	3.86
282.147	2.82
282.525	2.7
282.903	3.56
283.281	3.19
283.659	2.88
284.037	2.81
284.415	3.3
284.792	3.16
285.17	4.42
285.548	2.83
285.925	3.28
286.303	3.62
286.68	3.63
287.058	3.03
287.435	3.44
287.813	3.39
288.19	3.28
288.567	3.1
288.945	3.2
289.322	3.48
289.699	2.81
290.076	3.68
290.453	3.23
290.83	3.49
291.207	3.5
291.584	3.71
291.961	3.45
292.338	3.14
292.715	3.85
293.092	4.77
293.469	3.47
293.845	3.68
294.222	3.99
294.599	4.8
294.975	3.8
295.352	4.44
295.728	3.86
296.105	4.21
296.481	3.73
296.858	4.61
297.234	4.23
297.61	4.05
297.986	4.07
298.363	4.04
298.739	4.1
299.115	4.32
299.491	4.22
299.867	4.29
300.243	4.34
300.619	4.08
300.995	3.95
301.371	4.58
301.746	4.7
302.122	5.31
302.498	4.3
302.874	4.68
303.249	4.83
303.625	4.68
304	5.13
304.376	4.79
304.751	4.48
305.127	4.69
305.502	5.04
305.878	5.11
306.253	4.86
306.628	5.42
307.003	5.13
307.378	4.61
307.754	5.36
308.129	5.17
308.504	4.82
308.879	5.65
309.254	5.52
309.629	5.34
310.003	5.04
310.378	5.21
310.753	5.99
311.128	5.36
311.502	5.68
311.877	5.51
312.252	5.31
312.626	5.44
313.001	5.7
313.375	6.05
313.75	5.25
314.124	5.7
314.498	5.75
314.873	6.14
315.247	6.5
315.621	6.17
315.995	6.35
316.369	6.44
316.743	6.3
317.117	6.51
317.491	6.37
317.865	6.13
318.239	6.42
318.613	7.1
318.987	6.3
319.361	7.2
319.734	6.34
320.108	6.75
320.482	6.55
320.855	7.51
321.229	7.24
321.602	6.32
321.976	7.35
322.349	7.31
322.723	7.84
323.096	6.92
323.469	7.67
323.843	7.65
324.216	7.44
324.589	7.51
324.962	7.17
325.335	7.87
325.708	7.7
326.081	7.7
326.454	7.69
326.827	7.78
327.2	8.42
327.573	7.95
327.945	7.74
328.318	7.68
328.691	8.29
329.063	8.44
329.436	7.84
329.809	8.91
330.181	8.13
330.553	7.86
330.926	8.59
331.298	8.33
331.671	8.89
332.043	8.31
332.415	8.39
332.787	9.11
333.159	8.88
333.532	9.12
333.904	8.68
334.276	8.6
334.648	8.3
335.02	9.24
335.391	8.7
335.763	9.07
336.135	9.12
336.507	8.77
336.879	9.41
337.25	8.93
337.622	9.42
337.993	9.14
338.365	9.61
338.736	9.07
339.108	9.48
339.479	9.62
339.851	9.26
340.222	9.3
340.593	9.4
340.964	10.23
341.336	9.55
341.707	9.74
342.078	9.76
342.449	9.53
342.82	10.32
343.191	9.7
343.562	9.95
343.933	9.88
344.303	9.58
344.674	9.76
345.045	10.44
345.416	9.94
345.786	10.21
346.157	10.44
346.527	10.36
346.898	10.41
347.268	10.25
347.639	10.84
348.009	10.78
348.38	10.78
348.75	10.28
349.12	10.83
349.49	10.62
349.861	10.96
350.231	10.59
350.601	11.22
350.971	11.24
351.341	11.28
351.711	11.14
352.081	10.7
352.45	10.85
352.82	10.97
353.19	11.04
353.56	11.34
353.929	11.29
354.299	11.28
354.669	11.3
355.038	11.55
355.408	11.55
355.777	11.83
356.147	11.98
356.516	11.71
356.885	11.77
357.254	12.07
357.624	11.76
357.993	11.93
358.362	12.14
358.731	11.96
359.1	11.59
359.469	12.12
359.838	11.89
360.207	12.88
360.576	12.07
360.945	12.42
361.314	12.15
361.682	12.05
362.051	12.28
362.42	12.2
362.788	12.36
363.157	12.37
363.525	12.42
363.894	12.38
364.262	12.73
364.631	12.7
364.999	12.75
365.367	12.95
365.735	13.1
366.104	12.88
366.472	12.83
366.84	13.52
367.208	13.04
367.576	12.96
367.944	13.44
368.312	13.15
368.68	13.42
369.048	13.04
369.416	13.26
369.783	13.45
370.151	13.59
370.519	13.57
370.886	13.58
371.254	13.92
371.621	13.83
371.989	14.16
372.356	13.57
372.724	14.12
373.091	13.87
373.458	13.9
373.826	14.05
374.193	14.43
374.56	13.84
374.927	13.81
375.294	14.13
375.661	14.49
376.028	14.26
376.395	14.97
376.762	14.64
377.129	14.39
377.496	14.54
377.863	14.59
378.229	14.55
378.596	14.7
378.963	14.45
379.329	14.71
379.696	14.76
380.062	14.62
380.429	15.48
380.795	14.73
381.161	15.02
381.528	15
381.894	15.18
382.26	15.25
382.626	15.44
382.993	15.27
383.359	15.48
383.725	15.22
384.091	15.45
384.457	15.47
384.823	15.6
385.188	15.41
385.554	15.47
385.92	15.72
386.286	15.77
386.651	15.76
387.017	15.87
387.383	15.98
387.748	16.08
388.114	16.05
388.479	16.21
388.845	16.43
389.21	16.1
389.575	16.13
389.94	16.37
390.306	16.5
390.671	16.37
391.036	16.44
391.401	16.14
391.766	16.59
392.131	16.57
392.496	16.36
392.861	16.47
393.226	16.74
393.591	16.82
393.956	16.87
394.32	16.82
394.685	17.24
395.05	16.98
395.414	16.88
395.779	16.95
396.143	17.16
396.508	17.14
396.872	17.28
397.236	17.39
397.601	17.7
397.965	17.38
398.329	17.44
398.694	17.24
399.058	17.65
399.422	17.68
399.786	17.77
400.15	17.6
400.514	17.92
400.878	17.81
401.242	18.06
401.605	18.05
401.969	17.76
402.333	18.06
402.697	18.24
403.06	18.35
403.424	18.09
403.787	18.36
404.151	18.46
404.514	18.36
404.878	18.3
405.241	18.13
405.604	18.35
405.968	18.5
406.331	18.5
406.694	18.59
407.057	18.65
407.42	18.79
407.783	18.64
408.146	18.85
408.509	18.98
408.872	19.15
409.235	18.8
409.598	19.13
409.961	19.28
410.323	19.5
410.686	19.4
411.049	19.22
411.411	19.26
411.774	19.25
412.136	19.48
412.499	19.54
412.861	19.67
413.223	19.41
413.586	19.68
413.948	19.67
414.31	19.66
414.672	19.81
415.035	19.91
415.397	19.93
415.759	19.71
416.121	20.08
416.483	19.95
416.845	19.92
417.206	20.07
417.568	19.93
417.93	19.8
418.292	20.15
418.653	20.17
419.015	20.15
419.377	20.23
419.738	20.16
420.1	20.02
420.461	20.08
420.822	20.16
421.184	20.06
421.545	20.11
421.906	20.09
422.267	20.21
422.629	20.08
422.99	20.16
423.351	20.26
423.712	20.42
424.073	20.65
424.434	20.56
424.795	20.48
425.155	20.41
425.516	20.52
425.877	20.52
426.238	20.78
426.598	20.75
426.959	20.79
427.32	20.96
427.68	21.03
428.041	21.11
428.401	21.5
428.761	21.54
429.122	21.49
429.482	21.65
429.842	21.57
430.202	21.88
430.563	21.75
430.923	22
431.283	21.82
431.643	21.87
432.003	21.86
432.363	22.18
432.722	22.33
433.082	22.19
433.442	21.98
433.802	22.01
434.161	22.25
434.521	22.01
434.881	21.99
435.24	22.08
435.6	22.23
435.959	22.31
436.319	22.6
436.678	22.41
437.037	22.65
437.396	22.62
437.756	22.92
438.115	22.83
438.474	22.58
438.833	23.01
439.192	22.58
439.551	22.81
439.91	22.84
440.269	22.87
440.628	22.88
440.987	22.68
441.345	22.87
441.704	22.93
442.063	23.02
442.421	22.96
442.78	23.04
443.138	23.12
443.497	23.21
443.855	23.23
444.214	23.43
444.572	23.57
444.93	23.43
445.288	23.45
445.647	23.39
446.005	23.49
446.363	23.53
446.721	23.41
447.079	23.44
447.437	23.3
447.795	23.25
448.153	23.32
448.51	23.49
448.868	23.77
449.226	23.75
449.584	23.89
449.941	24.04
450.299	24.09
450.656	24.26
451.014	24.23
451.371	24.51
451.729	24.46
452.086	24.68
452.443	24.44
452.801	24.58
453.158	24.72
453.515	24.65
453.872	24.69
454.229	24.76
454.586	24.79
454.943	24.77
455.3	25
455.657	25.11
456.014	25.08
456.371	25.02
456.727	25.24
457.084	25.1
457.441	25.32
457.797	25.29
458.154	25.27
458.51	25.19
458.867	25.55
459.223	25.57
459.58	25.45
459.936	25.61
460.292	25.22
460.648	25.27
461.005	24.94
461.361	25.01
461.717	25.08
462.073	25.43
462.429	25.55
462.785	25.8
463.141	25.9
463.496	25.93
463.852	25.99
464.208	26.33
464.564	26.44
464.919	26.25
465.275	26.26
465.631	26.17
465.986	26.43
466.342	26.51
466.697	26.43
467.052	26.4
467.408	26.5
467.763	26.68
468.118	26.81
468.473	26.79
468.829	26.68
469.184	26.89
469.539	26.99
469.894	26.92
470.249	26.95
470.603	27.08
470.958	27.18
471.313	26.9
471.668	27.2
472.023	27.37
472.377	27.33
472.732	27.47
473.086	27.51
473.441	27.33
473.795	27.69
474.15	27.51
474.504	27.42
474.859	27.74
475.213	27.65
475.567	27.8
475.921	27.9
476.275	28.04
476.63	28.12
476.984	28.03
477.338	27.96
477.692	27.82
478.045	27.97
478.399	28.07
478.753	28
479.107	28.07
479.461	28.05
479.814	28.03
480.168	28.23
480.521	28.22
480.875	28.36
481.228	28.47
481.582	28.51
481.935	28.26
482.289	28.08
482.642	28.17
482.995	28.16
483.348	28.22
483.701	28.19
484.055	27.96
484.408	27.77
484.761	27.51
485.114	27.27
485.466	27.37
485.819	27.51
486.172	27.71
486.525	28.07
486.878	28.27
487.23	28.47
487.583	28.39
487.936	28.37
488.288	28.22
488.641	28.08
488.993	28.08
489.345	28.04
489.698	28.12
490.05	28.29
490.402	28.67
490.754	28.84
491.107	29.11
491.459	29.31
491.811	29.23
492.163	29.17
492.515	28.74
492.866	28.6
493.218	28.65
493.57	28.79
493.922	29.12
494.274	29.38
494.625	29.66
494.977	29.85
495.328	29.91
495.68	30.17
496.031	30.29
496.383	30.27
496.734	30.36
497.086	30.35
497.437	30.4
497.788	30.25
498.139	30.02
498.49	30.06
498.842	30.14
499.193	30.39
499.544	30.4
499.894	30.53
500.245	30.7
500.596	30.8
500.947	30.88
501.298	30.8
501.648	30.9
501.999	31.03
502.35	31.17
502.7	31.3
503.051	31.4
503.401	31.07
503.752	31.36
504.102	31.53
504.452	31.49
504.803	31.54
505.153	31.5
505.503	31.61
505.853	31.47
506.203	31.58
506.553	31.69
506.903	31.63
507.253	31.59
507.603	31.78
507.953	32.09
508.303	31.85
508.652	32
509.002	31.78
509.352	31.91
509.701	31.73
510.051	31.67
510.4	31.82
510.75	31.81
511.099	31.93
511.449	31.86
511.798	32.1
512.147	32.15
512.496	32.16
512.846	32.32
513.195	32.23
513.544	32.17
513.893	32.27
514.242	32.37
514.591	32.51
514.939	32.59
515.288	32.74
515.637	32.75
515.986	32.84
516.334	32.82
516.683	33.11
517.032	32.8
517.38	33.04
517.729	33.19
518.077	33.11
518.426	32.87
518.774	32.91
519.122	32.77
519.47	32.64
519.819	32.52
520.167	32.42
520.515	32.72
520.863	32.85
521.211	33.15
521.559	33.02
521.907	33.31
522.255	33.57
522.602	33.42
522.95	33.75
523.298	33.63
523.645	33.79
523.993	33.73
524.341	33.84
524.688	33.99
525.036	33.97
525.383	34.13
525.73	33.84
526.078	33.92
526.425	33.75
526.772	33.45
527.119	33.37
527.466	33.55
527.814	33.74
528.161	33.67
528.508	33.78
528.854	33.74
529.201	33.42
529.548	33.16
529.895	32.9
530.242	33.06
530.588	33.21
530.935	33.43
531.282	33.54
531.628	33.7
531.975	33.84
532.321	34.21
532.667	34.26
533.014	34.23
533.36	34.31
533.706	34.2
534.052	34.17
534.399	33.96
534.745	33.85
535.091	34.01
535.437	34.21
535.783	34.44
536.129	34.78
536.474	34.89
536.82	34.95
537.166	34.99
537.512	34.87
537.857	34.79
538.203	34.64
538.549	34.66
538.894	35.04
539.239	35.31
539.585	35.47
539.93	35.75
540.276	35.85
540.621	35.76
540.966	35.95
541.311	35.74
541.656	35.54
542.001	35.27
542.346	35.01
542.691	34.55
543.036	34.66
543.381	34.96
543.726	35.1
544.071	35.42
544.415	35.62
544.76	35.45
545.105	35.79
545.449	35.84
545.794	35.98
546.138	36.29
546.483	36.17
546.827	36.13
547.171	36.26
547.516	36.27
547.86	36.18
548.204	36.33
548.548	36.22
548.892	36.41
549.236	36.53
549.58	36.63
549.924	37.25
550.268	37.02
550.612	37.28
550.956	37.18
551.3	37.28
551.643	37.18
551.987	37.31
552.33	37.57
552.674	37.52
553.017	37.46
553.361	37.35
553.704	37.51
554.048	37.62
554.391	37.4
554.734	37.61
555.077	37.71
555.42	37.61
555.764	37.72
556.107	37.78
556.45	37.81
556.793	38.02
557.135	38.23
557.478	38.04
557.821	38.26
558.164	38.11
558.507	38.22
558.849	38.47
559.192	38.29
559.534	38.56
559.877	38.45
560.219	38.47
560.562	38.6
560.904	38.38
561.246	38.75
561.589	38.69
561.931	38.53
562.273	38.7
562.615	38.65
562.957	38.67
563.299	38.89
563.641	38.78
563.983	39.37
564.325	38.95
564.667	39.31
565.008	38.88
565.35	39.14
565.692	39.09
566.033	39.21
566.375	39.33
566.716	39.2
567.058	39.1
567.399	38.92
567.741	38.86
568.082	38.8
568.423	39.24
568.764	39.27
569.105	39.47
569.447	39.56
569.788	39.49
570.129	39.55
570.47	39.58
570.811	39.73
571.151	39.67
571.492	39.76
571.833	39.88
572.174	40.08
572.514	39.68
572.855	39.89
573.195	39.64
573.536	39.51
573.876	39.34
574.217	39.4
574.557	39.75
574.898	39.76
575.238	40.13
575.578	40.06
575.918	40.16
576.258	40.1
576.598	40.03
576.938	40.15
577.278	40.25
577.618	40.3
577.958	40.33
578.298	40.5
578.638	40.34
578.977	40.63
579.317	40.82
579.657	40.92
579.996	40.99
580.336	40.89
580.675	41.09
581.014	40.87
581.354	41.31
581.693	41.09
582.032	40.94
582.372	41.41
582.711	41.31
583.05	41.4
583.389	41.48
583.728	41.37
584.067	41.73
584.406	41.52
584.745	41.6
585.083	41.57
585.422	41.39
585.761	41.79
586.1	41.77
586.438	41.69
586.777	41.91
587.115	41.93
587.454	42.23
587.792	41.89
588.13	42.33
588.469	42.04
588.807	42.08
589.145	42.16
589.483	42.17
589.821	41.72
590.159	42.19
590.497	42
590.835	41.86
591.173	42.04
591.511	41.95
591.849	42.07
592.187	42.04
592.524	42.1
592.862	42.3
593.2	42.04
593.537	42.54
593.875	42.64
594.212	42.32
594.55	42.74
594.887	42.47
595.224	42.62
595.561	42.18
595.899	42.5
596.236	42.32
596.573	43
596.91	42.86
597.247	42.57
597.584	42.76
597.921	42.54
598.258	42.58
598.594	42.36
598.931	42.42
599.268	42.38
599.604	42.86
599.941	42.89
600.277	43.18
600.614	43.11
600.95	43.27
601.287	43.16
601.623	43.45
601.959	43.13
602.296	43.41
602.632	43.15
602.968	43.47
603.304	43.61
603.64	43.16
603.976	43.38
604.312	42.98
604.648	43.14
604.984	42.87
605.319	43.23
605.655	43.26
605.991	42.97
606.326	43.22
606.662	43.19
606.998	43.36
607.333	43.33
607.668	43.62
608.004	43.99
608.339	43.81
608.674	44.32
609.01	43.86
609.345	43.9
609.68	43.95
610.015	44.4
610.35	44.01
610.685	43.24
611.02	43.72
611.355	43.74
611.689	43.94
612.024	44.06
612.359	44.46
612.694	44.44
613.028	44.45
613.363	44.54
613.697	44.43
614.032	44.77
614.366	44.67
614.7	44.66
615.035	44.74
615.369	44.46
615.703	44.74
616.037	45.15
616.371	44.85
616.705	44.77
617.039	44.64
617.373	44.92
617.707	44.99
618.041	44.99
618.375	44.91
618.709	44.8
619.042	45.1
619.376	45.29
619.71	45.44
620.043	45.27
620.377	44.97
620.71	45.34
621.043	45.6
621.377	44.95
621.71	45.47
622.043	45.61
622.376	45.53
622.709	45.66
623.043	45.64
623.376	45.74
623.709	45.69
624.041	45.83
624.374	46.07
624.707	45.57
625.04	46.19
625.373	46.16
625.705	45.71
626.038	45.92
626.37	45.42
626.703	45.84
627.035	45.66
627.368	45.45
627.7	45.57
628.032	45.82
628.365	45.86
628.697	46.12
629.029	46.18
629.361	45.89
629.693	45.7
630.025	46.4
630.357	46.24
630.689	46.17
631.021	46.22
631.353	46.29
631.684	46.1
632.016	46.04
632.348	46.52
632.679	46.38
633.011	46.66
633.342	46.64
633.674	46.57
634.005	46.27
634.336	46.97
634.668	46.33
634.999	46.46
635.33	46.56
635.661	46.88
635.992	46.55
636.323	46.83
636.654	46.18
636.985	46.91
637.316	46.42
637.647	46.99
637.977	47.32
638.308	46.83
638.639	47.05
638.969	47.18
639.3	47.04
639.63	47.37
639.961	47.06
640.291	47.15
640.622	47.06
640.952	46.86
641.282	47.18
641.612	47.32
641.943	47.06
642.273	47.51
642.603	47.23
642.933	47.13
643.263	47.59
643.592	47.67
643.922	47.34
644.252	46.86
644.582	47.67
644.911	47.39
645.241	47.4
645.571	47.71
645.9	47.89
646.23	47.73
646.559	48.48
646.888	47.82
647.218	47.07
647.547	47.81
647.876	47.6
648.205	47.76
648.534	47.91
648.863	47.8
649.192	47.99
649.521	48.28
649.85	47.72
650.179	48.43
650.508	48.2
650.837	48.01
651.165	47.85
651.494	47.75
651.822	48.63
652.151	48.17
652.479	48.53
652.808	47.92
653.136	48.09
653.465	48.51
653.793	48.65
654.121	48.29
654.449	48.25
654.777	48.41
655.105	49.03
655.433	48.37
655.761	48.59
656.089	48.2
656.417	48.51
656.745	48.04
657.073	48.74
657.4	48.79
657.728	49.12
658.056	48.92
658.383	48.31
658.711	48.23
659.038	48.41
659.365	48.58
659.693	48.9
660.02	48.74
660.347	48.6
660.674	49.12
661.001	48.36
661.329	48.73
661.656	48.74
661.982	48.83
662.309	49.07
662.636	48.83
662.963	48.95
663.29	48.68
663.616	48.76
663.943	49.42
664.27	48.72
664.596	48.68
664.923	49.3
665.249	49.33
665.576	49.68
665.902	49.33
666.228	49.67
666.554	49.08
666.881	49.78
667.207	49.94
667.533	49.31
667.859	49.02
668.185	50.37
668.511	50.1
668.837	49
669.162	49.35
669.488	49
669.814	49.86
670.139	49.7
670.465	49.19
670.791	49.61
