Data from 0034_chest_Reflection__1__183.txt Node

Date: Thu Oct 20 22:21:30 CDT 2022
User: ToomeyLab
Spectrometer: FLMS14357
Trigger mode: 0
Integration Time (sec): 1.000000E-2
Scans to average: 100
Electric dark correction enabled: true
Nonlinearity correction enabled: false
Boxcar width: 0
XAxis mode: Wavelengths
Number of Pixels in Spectrum: 2048
>>>>>Begin Spectral Data<<<<<
189.047	-757.8
189.435	-757.8
189.823	-757.8
190.211	755.73
190.599	-327.1
190.987	-165.31
191.375	164.45
191.763	35.63
192.151	29.37
192.538	-54.91
192.926	65.91
193.314	-515.43
193.702	-160.69
194.089	95.5
194.477	-716.3
194.864	34.77
195.252	51.16
195.639	98.5
196.027	-150.02
196.414	111.96
196.801	-13.34
197.189	-51.25
197.576	22.85
197.963	-104.1
198.351	24.15
198.738	-74.83
199.125	-52.3
199.512	-16.4
199.899	0.06
200.286	-8.46
200.673	-10.26
201.06	26.3
201.447	31.58
201.833	-80.12
202.22	-14.2
202.607	15.85
202.994	-13.81
203.38	-89.83
203.767	9.65
204.154	21.84
204.54	-38.12
204.927	-5.75
205.313	29.75
205.699	5.62
206.086	-41.4
206.472	4.11
206.858	-23.28
207.245	23.76
207.631	-26.65
208.017	-27.22
208.403	-110.9
208.789	2.27
209.175	14.11
209.561	19.92
209.947	36.49
210.333	19.9
210.719	31.04
211.105	16.78
211.491	-45.31
211.876	-48.01
212.262	13.53
212.648	-32.32
213.034	-38.28
213.419	-19.84
213.805	-46.12
214.19	-50.87
214.576	-72.26
214.961	-38.76
215.346	-110.41
215.732	-14.73
216.117	-0.33
216.502	2.69
216.888	-48.62
217.273	-13.8
217.658	13.01
218.043	3.28
218.428	3.04
218.813	10.6
219.198	-18.5
219.583	-15.18
219.968	8.36
220.353	-11.66
220.738	-7.17
221.122	-1.45
221.507	-8.18
221.892	-22.75
222.276	-6.7
222.661	4.06
223.046	9.41
223.43	-27.03
223.815	-8.43
224.199	-0.89
224.583	-1.63
224.968	1.39
225.352	13.1
225.736	-1.33
226.121	-15.89
226.505	4.36
226.889	-4.09
227.273	-7.94
227.657	0.53
228.041	-1.86
228.425	0.39
228.809	2.56
229.193	3.35
229.577	1.83
229.961	3.47
230.344	2.31
230.728	2.18
231.112	3.55
231.495	1.89
231.879	4.6
232.263	3.31
232.646	3.15
233.03	2.07
233.413	0.8
233.797	1.66
234.18	-0.09
234.563	0.88
234.946	1.38
235.33	2.75
235.713	0.84
236.096	1.31
236.479	2.87
236.862	3.79
237.245	2
237.628	2.86
238.011	2.06
238.394	5.28
238.777	2.02
239.16	1.04
239.543	-0.15
239.925	2.36
240.308	1.94
240.691	3.41
241.073	1.09
241.456	2.32
241.838	2.29
242.221	3.08
242.603	2.33
242.986	2.76
243.368	2.26
243.75	2.77
244.133	3.16
244.515	2.78
244.897	2.38
245.279	1.5
245.661	3.4
246.043	3.14
246.425	1.99
246.807	3.07
247.189	2.71
247.571	3.25
247.953	2.57
248.335	2.81
248.717	2.64
249.098	2.84
249.48	2.81
249.862	2.76
250.243	2.26
250.625	3.19
251.006	2.92
251.388	2.46
251.769	2.3
252.151	2.53
252.532	1.6
252.913	1.98
253.295	2.82
253.676	2.77
254.057	1.99
254.438	2.33
254.819	2.15
255.2	2.98
255.581	2.38
255.962	2.86
256.343	1.15
256.724	2.61
257.105	2.25
257.486	2.65
257.867	3.81
258.247	2.8
258.628	1.76
259.009	2.24
259.389	2.12
259.77	2.02
260.15	2.83
260.531	2.6
260.911	2.3
261.292	2.44
261.672	2.59
262.052	2.66
262.432	3.04
262.813	2.54
263.193	2.86
263.573	2.55
263.953	1.86
264.333	1.89
264.713	2.83
265.093	2.41
265.473	2.41
265.853	2.45
266.233	3.41
266.612	2.67
266.992	1.82
267.372	2.72
267.752	2.33
268.131	2.89
268.511	2.58
268.89	2.03
269.27	2.19
269.649	1.53
270.029	2.33
270.408	1.93
270.787	2.09
271.167	2.44
271.546	1.74
271.925	2.33
272.304	2.69
272.683	2.08
273.062	2.11
273.441	2.53
273.82	2.62
274.199	1.77
274.578	2.08
274.957	2.34
275.336	2.4
275.715	2.67
276.093	3.14
276.472	2.79
276.851	2.59
277.229	2.09
277.608	2.33
277.986	2.4
278.365	1.77
278.743	2.35
279.122	2.23
279.5	2.08
279.878	2.28
280.257	1.81
280.635	3.01
281.013	2.33
281.391	2.27
281.769	2.29
282.147	2.12
282.525	2.06
282.903	2.18
283.281	1.27
283.659	1.82
284.037	1.35
284.415	2.32
284.792	2.27
285.17	2.71
285.548	2.48
285.925	1.9
286.303	2.48
286.68	2.47
287.058	2.57
287.435	2.04
287.813	2.32
288.19	2.21
288.567	2.09
288.945	2.53
289.322	2.59
289.699	1.85
290.076	2.41
290.453	1.76
290.83	2.2
291.207	2.67
291.584	2.2
291.961	1.94
292.338	1.78
292.715	2.08
293.092	2.67
293.469	2.46
293.845	2.19
294.222	2.1
294.599	2.61
294.975	2.21
295.352	2.8
295.728	1.87
296.105	2.52
296.481	1.83
296.858	2.33
297.234	2.19
297.61	2.12
297.986	2.02
298.363	2.07
298.739	2.4
299.115	2.18
299.491	2.4
299.867	1.98
300.243	1.99
300.619	2.15
300.995	1.92
301.371	1.97
301.746	1.81
302.122	2
302.498	2.03
302.874	3.23
303.249	2.92
303.625	2.31
304	2.62
304.376	2.16
304.751	2.16
305.127	1.9
305.502	2.77
305.878	2.65
306.253	1.78
306.628	1.77
307.003	2.2
307.378	1.81
307.754	2.31
308.129	2.19
308.504	2.15
308.879	2.06
309.254	1.92
309.629	1.78
310.003	1.86
310.378	2.02
310.753	2.56
311.128	1.81
311.502	2.22
311.877	2.33
312.252	1.98
312.626	2.14
313.001	2.4
313.375	2.39
313.75	2.02
314.124	2.08
314.498	2.08
314.873	1.87
315.247	2.31
315.621	2.15
315.995	1.63
316.369	2.48
316.743	1.92
317.117	1.87
317.491	2.4
317.865	2.49
318.239	2.08
318.613	2.32
318.987	1.79
319.361	2.42
319.734	1.96
320.108	2.45
320.482	1.86
320.855	1.82
321.229	2.52
321.602	2.01
321.976	2.05
322.349	2.54
322.723	2.26
323.096	2.19
323.469	1.97
323.843	2.5
324.216	1.95
324.589	2.39
324.962	1.99
325.335	2.13
325.708	2.19
326.081	2.4
326.454	2.2
326.827	1.7
327.2	2.2
327.573	1.97
327.945	2.26
328.318	1.94
328.691	2.54
329.063	2.89
329.436	2.23
329.809	2.41
330.181	2.17
330.553	1.81
330.926	2.09
331.298	1.99
331.671	2.54
332.043	2.02
332.415	2.25
332.787	2.48
333.159	2.71
333.532	2.37
333.904	2.65
334.276	2.36
334.648	2.26
335.02	2.43
335.391	2.08
335.763	2.61
336.135	2.47
336.507	1.47
336.879	2.77
337.25	1.94
337.622	2.29
337.993	1.99
338.365	2.62
338.736	2.43
339.108	2.27
339.479	2.17
339.851	1.93
340.222	1.68
340.593	1.67
340.964	2.68
341.336	2.21
341.707	1.57
342.078	2.4
342.449	2.18
342.82	2.44
343.191	2.14
343.562	2.31
343.933	2.33
344.303	2.24
344.674	2.19
345.045	2.04
345.416	2.42
345.786	2.43
346.157	2.32
346.527	1.7
346.898	2.36
347.268	2.06
347.639	2.44
348.009	2.27
348.38	2.56
348.75	1.94
349.12	2.16
349.49	2.25
349.861	2.42
350.231	2.28
350.601	2.56
350.971	2.25
351.341	2.39
351.711	2.36
352.081	1.92
352.45	2.17
352.82	2.15
353.19	2.3
353.56	2.27
353.929	2.08
354.299	2.4
354.669	2.55
355.038	2.15
355.408	2.16
355.777	2.28
356.147	2.08
356.516	2.08
356.885	2.39
357.254	2.3
357.624	2.35
357.993	1.79
358.362	2.25
358.731	2.31
359.1	2.12
359.469	2.37
359.838	1.99
360.207	2.91
360.576	2.29
360.945	2.5
361.314	2.27
361.682	2.3
362.051	1.96
362.42	2.22
362.788	2.23
363.157	2.09
363.525	2.19
363.894	2.32
364.262	2.49
364.631	2.25
364.999	2.09
365.367	2.42
365.735	2.45
366.104	2.13
366.472	2.17
366.84	2.48
367.208	2
367.576	2.19
367.944	2.83
368.312	2.51
368.68	2.39
369.048	2.39
369.416	2.29
369.783	2.26
370.151	2.57
370.519	2.61
370.886	1.99
371.254	2.23
371.621	2.26
371.989	2.52
372.356	2.24
372.724	2.25
373.091	2.41
373.458	1.94
373.826	2.33
374.193	2.2
374.56	2.11
374.927	1.9
375.294	2.34
375.661	2.62
376.028	2.5
376.395	2.38
376.762	2.24
377.129	2.22
377.496	2.24
377.863	2.2
378.229	2.26
378.596	2.28
378.963	2.56
379.329	2.56
379.696	2.32
380.062	2.36
380.429	2.65
380.795	2.38
381.161	2.55
381.528	2.29
381.894	2.53
382.26	2.15
382.626	2.45
382.993	2.07
383.359	2.49
383.725	2.5
384.091	2.46
384.457	2.28
384.823	2.08
385.188	2.53
385.554	2.02
385.92	2.37
386.286	2.49
386.651	2.46
387.017	2.25
387.383	2.39
387.748	2.64
388.114	2.39
388.479	2.3
388.845	2.64
389.21	2.51
389.575	2.23
389.94	2.61
390.306	2.23
390.671	2.45
391.036	2.5
391.401	2.16
391.766	2.62
392.131	2.45
392.496	2.22
392.861	2.04
393.226	2.36
393.591	2.44
393.956	2.52
394.32	2.57
394.685	2.46
395.05	2.38
395.414	2.4
395.779	2.34
396.143	2.48
396.508	2.45
396.872	2.4
397.236	2.36
397.601	2.55
397.965	2.68
398.329	2.51
398.694	2.42
399.058	2.33
399.422	2.31
399.786	2.45
400.15	2.46
400.514	2.49
400.878	2.22
401.242	2.69
401.605	2.37
401.969	2.81
402.333	2.35
402.697	2.69
403.06	2.23
403.424	2.54
403.787	2.53
404.151	2.32
404.514	2.36
404.878	2.27
405.241	2.54
405.604	2.41
405.968	2.4
406.331	2.34
406.694	2.39
407.057	2.51
407.42	2.47
407.783	2.37
408.146	2.67
408.509	2.3
408.872	2.73
409.235	2.27
409.598	2.64
409.961	2.5
410.323	2.75
410.686	2.67
411.049	2.5
411.411	2.41
411.774	2.28
412.136	2.66
412.499	2.68
412.861	2.42
413.223	2.29
413.586	2.2
413.948	2.54
414.31	2.44
414.672	2.67
415.035	2.3
415.397	2.65
415.759	2.8
416.121	2.63
416.483	2.47
416.845	2.7
417.206	2.42
417.568	2.74
417.93	2.39
418.292	2.54
418.653	2.53
419.015	2.49
419.377	2.49
419.738	2.54
420.1	2.51
420.461	2.54
420.822	2.55
421.184	2.37
421.545	2.46
421.906	2.43
422.267	2.48
422.629	2.49
422.99	2.41
423.351	2.5
423.712	2.44
424.073	2.57
424.434	2.51
424.795	2.54
425.155	2.51
425.516	2.45
425.877	2.35
426.238	2.59
426.598	2.55
426.959	2.5
427.32	2.53
427.68	2.6
428.041	2.54
428.401	2.56
428.761	2.46
429.122	2.55
429.482	2.56
429.842	2.56
430.202	2.62
430.563	2.59
430.923	2.68
431.283	2.54
431.643	2.51
432.003	2.54
432.363	2.73
432.722	2.82
433.082	2.43
433.442	2.63
433.802	2.53
434.161	2.58
434.521	2.41
434.881	2.4
435.24	2.42
435.6	2.63
435.959	2.66
436.319	2.5
436.678	2.49
437.037	2.63
437.396	2.61
437.756	2.57
438.115	2.57
438.474	2.39
438.833	2.64
439.192	2.6
439.551	2.41
439.91	2.59
440.269	2.52
440.628	2.64
440.987	2.51
441.345	2.66
441.704	2.52
442.063	2.64
442.421	2.49
442.78	2.63
443.138	2.61
443.497	2.48
443.855	2.48
444.214	2.62
444.572	2.68
444.93	2.53
445.288	2.5
445.647	2.7
446.005	2.48
446.363	2.57
446.721	2.45
447.079	2.64
447.437	2.5
447.795	2.47
448.153	2.49
448.51	2.56
448.868	2.5
449.226	2.57
449.584	2.56
449.941	2.68
450.299	2.7
450.656	2.65
451.014	2.73
451.371	2.66
451.729	2.46
452.086	2.79
452.443	2.51
452.801	2.56
453.158	2.59
453.515	2.66
453.872	2.63
454.229	2.58
454.586	2.58
454.943	2.51
455.3	2.57
455.657	2.58
456.014	2.53
456.371	2.51
456.727	2.64
457.084	2.5
457.441	2.75
457.797	2.66
458.154	2.74
458.51	2.44
458.867	2.57
459.223	2.88
459.58	2.55
459.936	2.67
460.292	2.58
460.648	2.49
461.005	2.46
461.361	2.5
461.717	2.62
462.073	2.67
462.429	2.66
462.785	2.75
463.141	2.8
463.496	2.89
463.852	2.68
464.208	2.83
464.564	2.69
464.919	2.97
465.275	2.71
465.631	2.71
465.986	2.65
466.342	2.65
466.697	2.72
467.052	2.58
467.408	2.79
467.763	2.72
468.118	2.79
468.473	2.83
468.829	2.75
469.184	2.63
469.539	2.66
469.894	2.68
470.249	2.76
470.603	2.69
470.958	2.65
471.313	2.68
471.668	2.6
472.023	2.82
472.377	2.68
472.732	2.77
473.086	2.81
473.441	2.72
473.795	2.83
474.15	2.69
474.504	2.66
474.859	2.79
475.213	2.76
475.567	2.98
475.921	2.54
476.275	2.87
476.63	2.88
476.984	2.79
477.338	2.73
477.692	2.72
478.045	2.59
478.399	2.72
478.753	2.67
479.107	2.66
479.461	2.84
479.814	2.69
480.168	2.73
480.521	2.84
480.875	2.85
481.228	2.83
481.582	2.68
481.935	2.76
482.289	2.64
482.642	2.56
482.995	2.74
483.348	2.88
483.701	2.54
484.055	2.59
484.408	2.61
484.761	2.54
485.114	2.45
485.466	2.43
485.819	2.54
486.172	2.69
486.525	2.7
486.878	2.78
487.23	2.79
487.583	2.7
487.936	2.68
488.288	2.69
488.641	2.59
488.993	2.62
489.345	2.6
489.698	2.64
490.05	2.67
490.402	2.75
490.754	2.81
491.107	2.73
491.459	2.83
491.811	2.77
492.163	2.67
492.515	2.56
492.866	2.6
493.218	2.58
493.57	2.64
493.922	2.73
494.274	2.81
494.625	2.82
494.977	2.89
495.328	2.77
495.68	2.82
496.031	2.81
496.383	2.85
496.734	2.8
497.086	2.72
497.437	2.77
497.788	2.84
498.139	2.81
498.49	2.84
498.842	2.79
499.193	2.8
499.544	2.9
499.894	2.91
500.245	2.76
500.596	2.84
500.947	2.85
501.298	2.86
501.648	2.79
501.999	2.92
502.35	2.88
502.7	2.94
503.051	3.03
503.401	2.85
503.752	2.82
504.102	2.79
504.452	2.94
504.803	2.78
505.153	2.89
505.503	3.05
505.853	2.82
506.203	2.81
506.553	3.01
506.903	2.85
507.253	2.9
507.603	2.89
507.953	2.98
508.303	2.93
508.652	2.88
509.002	2.89
509.352	2.89
509.701	2.9
510.051	2.92
510.4	2.79
510.75	2.78
511.099	2.82
511.449	2.87
511.798	3.03
512.147	3.01
512.496	2.97
512.846	3.05
513.195	3.02
513.544	2.93
513.893	2.94
514.242	2.88
514.591	3.06
514.939	2.95
515.288	3.04
515.637	3.01
515.986	2.92
516.334	3.04
516.683	3.04
517.032	3.03
517.38	3.16
517.729	3.1
518.077	2.96
518.426	2.88
518.774	3.04
519.122	3.05
519.47	2.93
519.819	2.96
520.167	2.93
520.515	2.89
520.863	2.93
521.211	2.99
521.559	3.11
521.907	3.05
522.255	3.01
522.602	3
522.95	3.07
523.298	2.99
523.645	3.27
523.993	2.99
524.341	3.24
524.688	3
525.036	2.93
525.383	3.08
525.73	3.14
526.078	3.05
526.425	3.03
526.772	3.03
527.119	2.95
527.466	3.07
527.814	3.04
528.161	3.02
528.508	3.08
528.854	3.08
529.201	3
529.548	2.9
529.895	2.85
530.242	2.9
530.588	2.95
530.935	3.04
531.282	3.08
531.628	3.12
531.975	3.18
532.321	3.25
532.667	3.06
533.014	3.2
533.36	3.09
533.706	3.04
534.052	3.05
534.399	3.09
534.745	3.08
535.091	3.03
535.437	3.08
535.783	3.16
536.129	3.21
536.474	3.27
536.82	3.21
537.166	3.26
537.512	3.19
537.857	3.2
538.203	3.23
538.549	3.24
538.894	3.27
539.239	3.29
539.585	3.29
539.93	3.37
540.276	3.41
540.621	3.23
540.966	3.22
541.311	3.29
541.656	3.35
542.001	3.19
542.346	3.16
542.691	3.09
543.036	3.07
543.381	3.18
543.726	3.25
544.071	3.38
544.415	3.34
544.76	3.23
545.105	3.47
545.449	3.38
545.794	3.47
546.138	3.46
546.483	3.47
546.827	3.39
547.171	3.38
547.516	3.38
547.86	3.38
548.204	3.39
548.548	3.38
548.892	3.45
549.236	3.56
549.58	3.54
549.924	3.58
550.268	3.58
550.612	3.72
550.956	3.64
551.3	3.49
551.643	3.55
551.987	3.67
552.33	3.54
552.674	3.53
553.017	3.65
553.361	3.58
553.704	3.59
554.048	3.67
554.391	3.6
554.734	3.61
555.077	3.57
555.42	3.78
555.764	3.73
556.107	3.66
556.45	3.73
556.793	3.68
557.135	3.78
557.478	3.71
557.821	3.8
558.164	3.64
558.507	3.7
558.849	3.81
559.192	3.83
559.534	3.8
559.877	3.8
560.219	3.9
560.562	3.82
560.904	3.81
561.246	4.04
561.589	4.04
561.931	3.65
562.273	3.93
562.615	3.77
562.957	3.62
563.299	4.01
563.641	3.88
563.983	4.12
564.325	3.99
564.667	3.9
565.008	3.97
565.35	4.07
565.692	3.89
566.033	3.69
566.375	3.92
566.716	3.91
567.058	3.93
567.399	4.1
567.741	3.96
568.082	4.05
568.423	4.05
568.764	3.91
569.105	4.05
569.447	4.27
569.788	4.12
570.129	4.25
570.47	4.13
570.811	3.99
571.151	4.09
571.492	4.02
571.833	4.2
572.174	4.13
572.514	4.17
572.855	4.3
573.195	4.01
573.536	4.11
573.876	4.01
574.217	4.14
574.557	4.23
574.898	4.21
575.238	4.46
575.578	4.18
575.918	4.26
576.258	4.4
576.598	4.31
576.938	4.27
577.278	4.3
577.618	4.55
577.958	4.43
578.298	4.39
578.638	4.47
578.977	4.68
579.317	4.41
579.657	4.4
579.996	4.54
580.336	4.77
580.675	4.84
581.014	4.49
581.354	4.59
581.693	4.44
582.032	4.57
582.372	4.67
582.711	4.55
583.05	4.67
583.389	4.62
583.728	4.77
584.067	4.8
584.406	4.78
584.745	4.63
585.083	4.61
585.422	4.79
585.761	4.91
586.1	4.97
586.438	4.92
586.777	4.94
587.115	4.76
587.454	4.95
587.792	4.77
588.13	4.9
588.469	5.18
588.807	5.05
589.145	4.91
589.483	5.06
589.821	4.67
590.159	4.87
590.497	5.04
590.835	4.96
591.173	4.88
591.511	5.08
591.849	4.99
592.187	4.73
592.524	5.1
592.862	5.03
593.2	5.07
593.537	5.2
593.875	4.95
594.212	4.89
594.55	4.93
594.887	5.07
595.224	5.17
595.561	5.13
595.899	5.35
596.236	5.18
596.573	5.25
596.91	5.12
597.247	5.22
597.584	5.19
597.921	5.16
598.258	5.42
598.594	5.31
598.931	5.25
599.268	5.23
599.604	5.33
599.941	5.46
600.277	5.27
600.614	5.43
600.95	5.56
601.287	5.16
601.623	5.47
601.959	5.39
602.296	5.26
602.632	5.2
602.968	5.57
603.304	5.4
603.64	5.6
603.976	5.43
604.312	5.59
604.648	5.6
604.984	5.66
605.319	5.54
605.655	5.59
605.991	5.3
606.326	5.77
606.662	5.7
606.998	5.78
607.333	5.63
607.668	5.76
608.004	5.8
608.339	5.9
608.674	6.05
609.01	5.87
609.345	5.86
609.68	5.54
610.015	5.83
610.35	5.74
610.685	5.84
611.02	5.7
611.355	5.66
611.689	5.96
612.024	5.9
612.359	5.94
612.694	5.9
613.028	6.2
613.363	5.82
613.697	5.98
614.032	6.07
614.366	6.12
614.7	6.04
615.035	6.14
615.369	6.18
615.703	6.1
616.037	6.43
616.371	6.23
616.705	6.09
617.039	6.21
617.373	5.88
617.707	6.54
618.041	6.26
618.375	6.16
618.709	6.17
619.042	6.13
619.376	6.41
619.71	6.38
620.043	6.38
620.377	6.46
620.71	6.15
621.043	6.64
621.377	6.5
621.71	6.11
622.043	6.19
622.376	6.67
622.709	6.93
623.043	6.67
623.376	6.86
623.709	6.8
624.041	7.02
624.374	6.9
624.707	6.62
625.04	7.07
625.373	7.03
625.705	6.59
626.038	7
626.37	6.65
626.703	6.4
627.035	6.76
627.368	6.77
627.7	6.8
628.032	7.1
628.365	6.81
628.697	7.13
629.029	6.9
629.361	7.01
629.693	7.12
630.025	7.04
630.357	7.03
630.689	7.05
631.021	6.86
631.353	7.16
631.684	7.32
632.016	6.55
632.348	7.17
632.679	6.8
633.011	7.49
633.342	7.52
633.674	7.06
634.005	7.44
634.336	7.48
634.668	7.16
634.999	7.21
635.33	7.39
635.661	7.3
635.992	7.17
636.323	7.6
636.654	7.34
636.985	7.66
637.316	7.62
637.647	7.36
637.977	7.74
638.308	7.37
638.639	7.77
638.969	7.76
639.3	7.43
639.63	7.63
639.961	7.52
640.291	7.32
640.622	8.02
640.952	7.66
641.282	7.51
641.612	7.98
641.943	7.76
642.273	8.21
642.603	7.55
642.933	8.09
643.263	7.65
643.592	7.97
643.922	7.68
644.252	7.8
644.582	7.87
644.911	7.86
645.241	7.88
645.571	7.86
645.9	8.56
646.23	8.11
646.559	8.52
646.888	8.04
647.218	7.79
647.547	8
647.876	7.7
648.205	7.78
648.534	7.89
648.863	8.07
649.192	8.33
649.521	8.39
649.85	8.29
650.179	8.39
650.508	8.21
650.837	8.35
651.165	8.29
651.494	8.31
651.822	8.13
652.151	8.32
652.479	8.35
652.808	8.37
653.136	8.01
653.465	8.64
653.793	8.81
654.121	8.41
654.449	8.53
654.777	8.61
655.105	8.73
655.433	8.59
655.761	8.84
656.089	8.72
656.417	8.91
656.745	8.9
657.073	8.68
657.4	8.48
657.728	8.9
658.056	8.56
658.383	8.9
658.711	8.44
659.038	8.35
659.365	8.84
659.693	9.16
660.02	9.05
660.347	9.06
660.674	9.09
661.001	8.55
661.329	8.67
661.656	8.54
661.982	9.37
662.309	9.34
662.636	9.45
662.963	8.56
663.29	8.86
663.616	8.72
663.943	9.29
664.27	9.23
664.596	9.33
664.923	8.82
665.249	9.63
665.576	9.74
665.902	9.15
666.228	9.26
666.554	8.86
666.881	9.29
667.207	9.5
667.533	9.64
667.859	9.08
668.185	10.11
668.511	9.16
668.837	8.99
669.162	9.51
669.488	9.04
669.814	9.9
670.139	9.61
670.465	9.09
670.791	10.02
671.116	9.78
671.442	9.73
671.767	9.7
672.092	9.62
672.418	9.67
672.743	9.57
673.068	9.49
673.393	9.79
673.718	9.5
674.043	9.37
674.368	9.22
674.693	9.65
675.018	10.23
675.343	9.51
675.667	10.05
675.992	9.89
676.317	10.58
676.641	10.05
676.966	9.73
677.29	10.11
677.615	10.74
677.939	10.27
678.264	9.69
678.588	9.94
678.912	10.25
679.236	10.37
679.56	9.94
679.885	9.88
680.209	10.15
680.532	10.45
680.856	10.65
681.18	10.12
681.504	10
681.828	10.32
682.152	10.97
682.475	10.6
682.799	10.49
683.122	10.8
683.446	10.43
683.769	10.26
684.093	10.19
684.416	10.74
684.739	10.67
685.062	10.62
685.386	10.79
685.709	10.77
686.032	10.58
686.355	10.19
686.678	10.49
687.001	10.86
687.324	10.89
687.646	10.25
687.969	10.59
688.292	11.18
688.614	10.89
688.937	11.1
689.26	10.9
689.582	10.51
689.904	11.04
690.227	10.59
690.549	11.93
690.871	10.2
691.194	11.07
