Data from 0034_chest_Reflection__2__184.txt Node

Date: Thu Oct 20 22:21:47 CDT 2022
User: ToomeyLab
Spectrometer: FLMS14357
Trigger mode: 0
Integration Time (sec): 1.000000E-2
Scans to average: 100
Electric dark correction enabled: true
Nonlinearity correction enabled: false
Boxcar width: 0
XAxis mode: Wavelengths
Number of Pixels in Spectrum: 2048
>>>>>Begin Spectral Data<<<<<
189.047	-855.24
189.435	-855.24
189.823	-855.24
190.211	-194.71
190.599	216.83
190.987	-314.19
191.375	236.96
191.763	-53.17
192.151	126.74
192.538	-90.62
192.926	48.27
193.314	-339.55
193.702	-340.65
194.089	28.18
194.477	-884.29
194.864	83.38
195.252	77.94
195.639	-24.9
196.027	-111.75
196.414	139.29
196.801	-117.07
197.189	48.08
197.576	103.53
197.963	638.69
198.351	4.78
198.738	-64.58
199.125	-9.93
199.512	-2.54
199.899	-55.86
200.286	-37.89
200.673	-1.67
201.06	14.19
201.447	10.02
201.833	-37.64
202.22	-18.87
202.607	-1.25
202.994	-23.81
203.38	-67.71
203.767	-33.16
204.154	-23.66
204.54	-9.19
204.927	-20.15
205.313	34.45
205.699	12.74
206.086	-38.56
206.472	-12.38
206.858	33.51
207.245	11.87
207.631	-45.2
208.017	-19.48
208.403	-53.97
208.789	-17.36
209.175	11.21
209.561	32.86
209.947	-25.28
210.333	-4.49
210.719	-2.58
211.105	1.08
211.491	-94.42
211.876	-29.88
212.262	23.97
212.648	-19.2
213.034	-35.39
213.419	-33.84
213.805	-53.66
214.19	-61.97
214.576	-11.42
214.961	-14.59
215.346	-31.93
215.732	-23.76
216.117	-8.73
216.502	10.99
216.888	-48.51
217.273	-34.14
217.658	18.01
218.043	26.96
218.428	-37.17
218.813	26.82
219.198	-2.56
219.583	2.76
219.968	23.33
220.353	-9.78
220.738	8.86
221.122	-16.33
221.507	-6.45
221.892	-17.2
222.276	16.35
222.661	5.02
223.046	8.14
223.43	-1.05
223.815	10.58
224.199	-9.74
224.583	2.93
224.968	12.19
225.352	18.83
225.736	-3.63
226.121	3.78
226.505	-4.46
226.889	2.72
227.273	-6.7
227.657	3.57
228.041	3.23
228.425	2.32
228.809	6.64
229.193	4.85
229.577	5.09
229.961	4.18
230.344	4.98
230.728	5.3
231.112	4.89
231.495	5.59
231.879	4.46
232.263	6.81
232.646	3.91
233.03	2.64
233.413	3.73
233.797	1.67
234.18	3.38
234.563	5.1
234.946	5.02
235.33	4.63
235.713	3.43
236.096	3.24
236.479	4.12
236.862	5.29
237.245	3.21
237.628	3.81
238.011	5.13
238.394	5.51
238.777	5.57
239.16	2.5
239.543	2.49
239.925	2.49
240.308	4.05
240.691	6.56
241.073	3.44
241.456	5.41
241.838	4.58
242.221	4.5
242.603	5.13
242.986	5.38
243.368	5.1
243.75	4.75
244.133	4.79
244.515	4.87
244.897	5.3
245.279	3.77
245.661	6.03
246.043	5
246.425	4.48
246.807	6.02
247.189	5.28
247.571	5.07
247.953	4.91
248.335	4.91
248.717	4.83
249.098	5.12
249.48	4.64
249.862	4.64
250.243	4.32
250.625	4.97
251.006	4.52
251.388	3.83
251.769	4.37
252.151	4.54
252.532	4.37
252.913	4.67
253.295	4.92
253.676	5
254.057	3.72
254.438	5.56
254.819	4.36
255.2	4.47
255.581	5.1
255.962	5.56
256.343	5.09
256.724	3.94
257.105	4.86
257.486	4.46
257.867	5.14
258.247	5.07
258.628	5.05
259.009	4.26
259.389	3.97
259.77	4.78
260.15	4.64
260.531	4.89
260.911	4.51
261.292	4.86
261.672	4.69
262.052	4.68
262.432	4.97
262.813	4.72
263.193	4.78
263.573	5.38
263.953	4.2
264.333	4.68
264.713	4.66
265.093	3.82
265.473	4.67
265.853	4.91
266.233	4.58
266.612	4.58
266.992	3.51
267.372	5.02
267.752	4.6
268.131	4.93
268.511	4.64
268.89	4.49
269.27	4.53
269.649	4.23
270.029	3.96
270.408	4.23
270.787	4.07
271.167	4.38
271.546	4.34
271.925	4.74
272.304	4.56
272.683	4.14
273.062	4.16
273.441	4.54
273.82	5.2
274.199	4.05
274.578	4.33
274.957	4.31
275.336	4.36
275.715	4.59
276.093	4.71
276.472	4.88
276.851	5.35
277.229	3.84
277.608	4.27
277.986	4.46
278.365	4.4
278.743	4.03
279.122	4.18
279.5	4.19
279.878	4.03
280.257	3.83
280.635	4
281.013	4.08
281.391	5.15
281.769	5.02
282.147	3.77
282.525	3.77
282.903	4.33
283.281	3.84
283.659	4.05
284.037	3.91
284.415	3.85
284.792	3.88
285.17	4.93
285.548	4.09
285.925	3.98
286.303	3.59
286.68	4.63
287.058	4.6
287.435	4.43
287.813	4.2
288.19	4.44
288.567	4.08
288.945	4.61
289.322	4.4
289.699	4.01
290.076	4.45
290.453	4.24
290.83	4.28
291.207	4.57
291.584	4.31
291.961	4.12
292.338	4.07
292.715	4.05
293.092	4.56
293.469	4.45
293.845	4.57
294.222	4.97
294.599	5.13
294.975	3.96
295.352	4.59
295.728	4.21
296.105	4.65
296.481	4.11
296.858	4.66
297.234	4.24
297.61	4.2
297.986	4.21
298.363	4.21
298.739	4.29
299.115	4.29
299.491	4.32
299.867	4.15
300.243	4.48
300.619	4.49
300.995	4.03
301.371	4.73
301.746	4.54
302.122	4.45
302.498	4.49
302.874	5.16
303.249	4.82
303.625	4.21
304	4.54
304.376	4.22
304.751	4.56
305.127	4.03
305.502	4.28
305.878	4.25
306.253	4.04
306.628	4.08
307.003	4.52
307.378	3.56
307.754	4.85
308.129	4.21
308.504	4.07
308.879	4.34
309.254	4.55
309.629	4.22
310.003	4.21
310.378	3.9
310.753	4.64
311.128	4.18
311.502	4.2
311.877	4.78
312.252	4
312.626	4.42
313.001	4.57
313.375	4.45
313.75	4.17
314.124	4.52
314.498	4.32
314.873	4.4
315.247	4.04
315.621	4.65
315.995	4.52
316.369	4.41
316.743	3.89
317.117	4.29
317.491	4.09
317.865	4.65
318.239	4.12
318.613	4.64
318.987	4.52
319.361	4.53
319.734	4.28
320.108	4.79
320.482	4.52
320.855	4.1
321.229	4.66
321.602	3.29
321.976	4.21
322.349	4.27
322.723	4.86
323.096	4.08
323.469	4.32
323.843	4.66
324.216	4.23
324.589	4.91
324.962	3.91
325.335	4.43
325.708	4.09
326.081	4.15
326.454	4.29
326.827	4.06
327.2	4.36
327.573	4.03
327.945	4.48
328.318	4.28
328.691	4.24
329.063	4.83
329.436	4.33
329.809	4.58
330.181	4.67
330.553	4.28
330.926	4.43
331.298	4.14
331.671	4.5
332.043	5
332.415	4.27
332.787	4.64
333.159	4.35
333.532	4.36
333.904	4.26
334.276	4.09
334.648	4.14
335.02	4.54
335.391	4.25
335.763	4.11
336.135	3.99
336.507	4.01
336.879	4.94
337.25	3.87
337.622	4.31
337.993	4.41
338.365	4.43
338.736	4.49
339.108	4.43
339.479	4.03
339.851	4.37
340.222	4.5
340.593	4.31
340.964	4.46
341.336	3.95
341.707	3.98
342.078	4.13
342.449	4.26
342.82	4.56
343.191	4.41
343.562	4.37
343.933	4.22
344.303	4.14
344.674	4.33
345.045	4.12
345.416	4.17
345.786	4.43
346.157	4.27
346.527	4.43
346.898	4.79
347.268	4.32
347.639	4.42
348.009	4.42
348.38	4.74
348.75	4.19
349.12	4.41
349.49	4.35
349.861	4.42
350.231	4.38
350.601	4.68
350.971	4.35
351.341	4.75
351.711	4.4
352.081	4.12
352.45	4.48
352.82	4.14
353.19	4.25
353.56	4.54
353.929	4.61
354.299	4.54
354.669	4.39
355.038	4.54
355.408	3.98
355.777	4.13
356.147	4.79
356.516	4.42
356.885	4.43
357.254	4.39
357.624	4.36
357.993	4.14
358.362	4.59
358.731	4.86
359.1	4.08
359.469	4.67
359.838	4.52
360.207	4.95
360.576	4.19
360.945	4.95
361.314	4.47
361.682	4.44
362.051	4.42
362.42	4.23
362.788	4.59
363.157	4.32
363.525	4.47
363.894	4.43
364.262	4.75
364.631	4.16
364.999	4.27
365.367	4.43
365.735	4.61
366.104	4.21
366.472	4.48
366.84	4.76
367.208	4.29
367.576	4.25
367.944	4.41
368.312	4.27
368.68	4.42
369.048	4.26
369.416	4.3
369.783	4.61
370.151	4.73
370.519	4.55
370.886	4.4
371.254	4.74
371.621	4.84
371.989	4.6
372.356	4.07
372.724	4.54
373.091	4.53
373.458	4.18
373.826	4.77
374.193	4.8
374.56	4.16
374.927	4.27
375.294	4.64
375.661	4.87
376.028	4.25
376.395	4.75
376.762	4.4
377.129	4.56
377.496	4.37
377.863	4.5
378.229	4.54
378.596	4.45
378.963	4.55
379.329	4.77
379.696	4.63
380.062	4.48
380.429	4.76
380.795	4.36
381.161	4.74
381.528	4.6
381.894	4.76
382.26	4.52
382.626	4.79
382.993	4.38
383.359	4.69
383.725	4.78
384.091	4.81
384.457	4.19
384.823	4.37
385.188	4.71
385.554	4.28
385.92	4.56
386.286	4.44
386.651	4.26
387.017	4.45
387.383	4.7
387.748	4.62
388.114	4.83
388.479	4.71
388.845	4.6
389.21	4.87
389.575	4.23
389.94	4.87
390.306	4.79
390.671	4.82
391.036	4.61
391.401	4.43
391.766	4.8
392.131	4.69
392.496	4.52
392.861	4.59
393.226	4.6
393.591	4.77
393.956	4.62
394.32	4.83
394.685	4.69
395.05	4.56
395.414	4.54
395.779	4.6
396.143	4.64
396.508	4.73
396.872	4.8
397.236	4.76
397.601	4.85
397.965	4.81
398.329	4.68
398.694	4.49
399.058	4.6
399.422	4.83
399.786	4.6
400.15	4.61
400.514	4.77
400.878	4.48
401.242	4.86
401.605	4.8
401.969	4.74
402.333	4.56
402.697	4.93
403.06	4.84
403.424	4.67
403.787	4.85
404.151	4.75
404.514	4.7
404.878	4.58
405.241	4.79
405.604	4.72
405.968	4.7
406.331	4.65
406.694	4.57
407.057	4.75
407.42	4.71
407.783	4.81
408.146	4.79
408.509	4.84
408.872	4.97
409.235	4.59
409.598	4.71
409.961	4.6
410.323	4.81
410.686	4.91
411.049	4.87
411.411	4.57
411.774	4.54
412.136	4.71
412.499	4.78
412.861	4.91
413.223	4.63
413.586	4.95
413.948	4.85
414.31	4.69
414.672	4.66
415.035	4.74
415.397	4.71
415.759	4.84
416.121	4.71
416.483	4.84
416.845	4.89
417.206	4.84
417.568	4.99
417.93	4.82
418.292	4.9
418.653	4.78
419.015	4.86
419.377	4.78
419.738	4.81
420.1	4.75
420.461	4.8
420.822	4.78
421.184	4.68
421.545	4.84
421.906	4.76
422.267	4.79
422.629	4.69
422.99	4.79
423.351	4.72
423.712	4.81
424.073	4.74
424.434	4.8
424.795	4.68
425.155	4.76
425.516	4.73
425.877	4.6
426.238	4.76
426.598	4.83
426.959	4.85
427.32	4.82
427.68	4.84
428.041	4.96
428.401	4.88
428.761	4.87
429.122	4.81
429.482	4.66
429.842	4.93
430.202	4.83
430.563	4.86
430.923	5.07
431.283	4.76
431.643	4.78
432.003	4.9
432.363	5.18
432.722	5.14
433.082	4.98
433.442	4.97
433.802	4.99
434.161	4.88
434.521	4.85
434.881	5.01
435.24	4.72
435.6	4.89
435.959	4.98
436.319	4.92
436.678	4.75
437.037	4.93
437.396	5.04
437.756	4.98
438.115	5.01
438.474	4.88
438.833	4.93
439.192	4.78
439.551	4.94
439.91	4.96
440.269	4.87
440.628	4.99
440.987	4.96
441.345	5.06
441.704	4.86
442.063	4.95
442.421	4.77
442.78	4.97
443.138	5.02
443.497	5
443.855	4.88
444.214	5.05
444.572	5.05
444.93	4.9
445.288	4.99
445.647	4.92
446.005	4.9
446.363	4.95
446.721	4.84
447.079	4.86
447.437	4.86
447.795	4.73
448.153	4.89
448.51	4.83
448.868	4.9
449.226	4.91
449.584	5
449.941	5.06
450.299	5.04
450.656	5.09
451.014	5.01
451.371	5.05
451.729	4.9
452.086	5.16
452.443	5
452.801	4.95
453.158	5.04
453.515	5
453.872	4.95
454.229	4.96
454.586	5.04
454.943	4.97
455.3	5.1
455.657	5.01
456.014	4.98
456.371	5.01
456.727	5.02
457.084	5.01
457.441	5.16
457.797	5.17
458.154	5.14
458.51	5.06
458.867	5.02
459.223	5.27
459.58	5.11
459.936	5.15
460.292	5.02
460.648	4.95
461.005	4.91
461.361	5.01
461.717	4.97
462.073	5.2
462.429	5.14
462.785	5.13
463.141	5.13
463.496	5.25
463.852	5.06
464.208	5.28
464.564	5.08
464.919	5.15
465.275	5.17
465.631	5.13
465.986	5.16
466.342	5.03
466.697	5.2
467.052	5.09
467.408	5.34
467.763	5.21
468.118	5.07
468.473	5.26
468.829	5.26
469.184	5.3
469.539	5.21
469.894	5.1
470.249	5.21
470.603	5.02
470.958	5.12
471.313	5.19
471.668	5.12
472.023	5.15
472.377	5.07
472.732	5.26
473.086	5.12
473.441	5.2
473.795	5.24
474.15	5.29
474.504	5.03
474.859	5.23
475.213	5.32
475.567	5.43
475.921	5.19
476.275	5.49
476.63	5.37
476.984	5.32
477.338	5.21
477.692	5.28
478.045	5.24
478.399	5.41
478.753	5.25
479.107	5.32
479.461	5.22
479.814	5.19
480.168	5.3
480.521	5.31
480.875	5.35
481.228	5.32
481.582	5.32
481.935	5.06
482.289	5.14
482.642	5.03
482.995	5.26
483.348	5.41
483.701	5.19
484.055	5.08
484.408	5.04
484.761	4.98
485.114	4.81
485.466	4.86
485.819	5.03
486.172	5.14
486.525	5.2
486.878	5.2
487.23	5.19
487.583	5.22
487.936	5.22
488.288	5.08
488.641	5.04
488.993	5.06
489.345	5.02
489.698	5.1
490.05	5.17
490.402	5.29
490.754	5.3
491.107	5.24
491.459	5.38
491.811	5.24
492.163	5.19
492.515	5.13
492.866	5.05
493.218	5.04
493.57	5.21
493.922	5.26
494.274	5.3
494.625	5.35
494.977	5.43
495.328	5.36
495.68	5.4
496.031	5.44
496.383	5.45
496.734	5.48
497.086	5.35
497.437	5.39
497.788	5.38
498.139	5.33
498.49	5.38
498.842	5.27
499.193	5.47
499.544	5.34
499.894	5.52
500.245	5.54
500.596	5.38
500.947	5.51
501.298	5.43
501.648	5.44
501.999	5.44
502.35	5.38
502.7	5.6
503.051	5.58
503.401	5.43
503.752	5.49
504.102	5.58
504.452	5.51
504.803	5.6
505.153	5.56
505.503	5.58
505.853	5.48
506.203	5.55
506.553	5.66
506.903	5.64
507.253	5.56
507.603	5.61
507.953	5.66
508.303	5.73
508.652	5.52
509.002	5.44
509.352	5.48
509.701	5.57
510.051	5.52
510.4	5.49
510.75	5.48
511.099	5.55
511.449	5.6
511.798	5.58
512.147	5.64
512.496	5.64
512.846	5.71
513.195	5.68
513.544	5.77
513.893	5.68
514.242	5.59
514.591	5.72
514.939	5.72
515.288	5.91
515.637	5.78
515.986	5.72
516.334	5.68
516.683	5.71
517.032	5.67
517.38	5.74
517.729	5.79
518.077	5.72
518.426	5.78
518.774	5.75
519.122	5.62
519.47	5.62
519.819	5.64
520.167	5.61
520.515	5.58
520.863	5.76
521.211	5.73
521.559	5.72
521.907	5.73
522.255	5.84
522.602	5.77
522.95	5.88
523.298	5.71
523.645	5.87
523.993	5.85
524.341	5.91
524.688	5.93
525.036	5.88
525.383	5.87
525.73	5.8
526.078	5.94
526.425	5.94
526.772	5.78
527.119	5.68
527.466	5.84
527.814	5.83
528.161	5.81
528.508	5.79
528.854	5.83
529.201	5.69
529.548	5.66
529.895	5.54
530.242	5.59
530.588	5.72
530.935	5.84
531.282	5.85
531.628	5.87
531.975	5.99
532.321	6
532.667	5.93
533.014	6.02
533.36	5.88
533.706	5.85
534.052	5.87
534.399	5.83
534.745	5.8
535.091	5.89
535.437	5.98
535.783	6.03
536.129	6.08
536.474	6.15
536.82	6.15
537.166	6.1
537.512	6.05
537.857	5.96
538.203	6.08
538.549	6.03
538.894	6.23
539.239	6.22
539.585	6.21
539.93	6.25
540.276	6.37
540.621	6.18
540.966	6.23
541.311	6.35
541.656	6.23
542.001	6.09
542.346	6.08
542.691	5.93
543.036	5.93
543.381	6.09
543.726	6.18
544.071	6.24
544.415	6.26
544.76	6.16
545.105	6.38
545.449	6.33
545.794	6.33
546.138	6.5
546.483	6.35
546.827	6.43
547.171	6.41
547.516	6.41
547.86	6.36
548.204	6.33
548.548	6.46
548.892	6.47
549.236	6.59
549.58	6.53
549.924	6.59
550.268	6.57
550.612	6.74
550.956	6.6
551.3	6.63
551.643	6.62
551.987	6.79
552.33	6.66
552.674	6.51
553.017	6.66
553.361	6.72
553.704	6.75
554.048	6.81
554.391	6.8
554.734	6.8
555.077	6.69
555.42	6.9
555.764	6.82
556.107	6.87
556.45	6.7
556.793	7.05
557.135	7.11
557.478	6.86
557.821	6.82
558.164	7.03
558.507	6.77
558.849	6.96
559.192	6.97
559.534	6.91
559.877	7.02
560.219	7.07
560.562	7.19
560.904	7.05
561.246	7
561.589	7.1
561.931	7.06
562.273	6.94
562.615	7.05
562.957	6.97
563.299	7.11
563.641	7.07
563.983	7.39
564.325	7.13
564.667	7.16
565.008	7.16
565.35	7.33
565.692	7.22
566.033	7.18
566.375	6.97
566.716	7.35
567.058	7.19
567.399	7.43
567.741	7.26
568.082	7.21
568.423	7.41
568.764	7.2
569.105	7.39
569.447	7.53
569.788	7.42
570.129	7.45
570.47	7.51
570.811	7.27
571.151	7.45
571.492	7.48
571.833	7.55
572.174	7.64
572.514	7.48
572.855	7.53
573.195	7.51
573.536	7.47
573.876	7.33
574.217	7.47
574.557	7.63
574.898	7.69
575.238	7.81
575.578	7.62
575.918	7.7
576.258	7.65
576.598	7.62
576.938	7.71
577.278	7.72
577.618	7.92
577.958	7.9
578.298	7.85
578.638	7.78
578.977	8.07
579.317	7.92
579.657	7.94
579.996	8.09
580.336	8.12
580.675	8.38
581.014	8.06
581.354	8.05
581.693	7.94
582.032	8.11
582.372	8.08
582.711	8.02
583.05	7.91
583.389	8.3
583.728	8.25
584.067	8.2
584.406	8.21
584.745	8.36
585.083	8.17
585.422	8.38
585.761	8.38
586.1	8.34
586.438	8.77
586.777	8.54
587.115	8.42
587.454	8.62
587.792	8.47
588.13	8.66
588.469	8.82
588.807	8.34
589.145	8.47
589.483	8.62
589.821	8.48
590.159	8.62
590.497	8.53
590.835	8.32
591.173	8.88
591.511	8.52
591.849	8.66
592.187	8.47
592.524	8.73
592.862	8.62
593.2	9.06
593.537	8.87
593.875	8.82
594.212	8.78
594.55	8.83
594.887	8.8
595.224	8.96
595.561	8.92
595.899	9.17
596.236	8.91
596.573	9.2
596.91	8.84
597.247	8.91
597.584	9.08
597.921	8.88
598.258	9.01
598.594	8.95
598.931	9.08
599.268	9.04
599.604	9.2
599.941	9.16
600.277	9.24
600.614	9.18
600.95	9.37
601.287	9.42
601.623	9.33
601.959	9.17
602.296	9.15
602.632	9.33
602.968	9.58
603.304	9.54
603.64	9.66
603.976	9.44
604.312	9.32
604.648	9.45
604.984	9.38
605.319	9.51
605.655	9.58
605.991	9.32
606.326	9.62
606.662	9.65
606.998	9.63
607.333	9.56
607.668	9.61
608.004	9.91
608.339	9.92
608.674	9.88
609.01	9.73
609.345	9.91
609.68	9.93
610.015	10.14
610.35	9.83
610.685	9.67
611.02	9.8
611.355	9.78
611.689	10.04
612.024	9.92
612.359	10.04
612.694	9.96
613.028	9.87
613.363	10.01
613.697	9.98
614.032	10.48
614.366	10.18
614.7	10.15
615.035	10.25
615.369	10.35
615.703	10.28
616.037	10.44
616.371	10.41
616.705	10.18
617.039	10.31
617.373	10.59
617.707	10.55
618.041	10.34
618.375	10.27
618.709	10.55
619.042	10.44
619.376	10.46
619.71	10.71
620.043	10.58
620.377	10.62
620.71	10.73
621.043	10.84
621.377	10.48
621.71	10.61
622.043	10.77
622.376	10.96
622.709	11
623.043	11.17
623.376	11.14
623.709	10.95
624.041	11.03
624.374	11.02
624.707	10.93
625.04	10.9
625.373	11.22
625.705	11.05
626.038	11.15
626.37	11.05
626.703	11.02
627.035	11.21
627.368	11.08
627.7	11.14
628.032	11.21
628.365	11.5
628.697	11.41
629.029	11.35
629.361	11.42
629.693	11.71
630.025	11.65
630.357	11.51
630.689	11.26
631.021	11.54
631.353	11.68
631.684	11.64
632.016	11.23
632.348	11.64
632.679	11.64
633.011	11.66
633.342	11.71
633.674	11.75
634.005	11.94
634.336	11.9
634.668	11.96
634.999	11.77
635.33	12.19
635.661	12.14
635.992	11.87
636.323	12.21
636.654	11.97
636.985	12.26
637.316	12.03
637.647	12.41
637.977	12.5
638.308	11.78
638.639	12.22
638.969	12.39
639.3	12.16
639.63	12.28
639.961	11.98
640.291	12.07
640.622	12.66
640.952	12.37
641.282	12.76
641.612	12.56
641.943	12.21
642.273	12.55
642.603	12.26
642.933	12.43
643.263	12.15
643.592	12.53
643.922	12.68
644.252	12.52
644.582	12.69
644.911	12.56
645.241	12.93
645.571	12.76
645.9	13
646.23	12.54
646.559	12.98
646.888	12.92
647.218	12.51
647.547	12.93
647.876	12.88
648.205	12.77
648.534	12.98
648.863	13.4
649.192	13.31
649.521	12.87
649.85	13.18
650.179	13.06
650.508	13.68
650.837	12.75
651.165	12.95
651.494	13.7
651.822	13.68
652.151	13.3
652.479	13.18
652.808	13.36
653.136	13.31
653.465	13.73
653.793	13.48
654.121	13.92
654.449	13.78
654.777	13.36
655.105	14.28
655.433	13.54
655.761	13.86
656.089	13.62
656.417	14.01
656.745	13.7
657.073	13.85
657.4	13.78
657.728	13.93
658.056	13.76
658.383	13.97
658.711	14.53
659.038	14.07
659.365	13.68
659.693	14.08
660.02	14.11
660.347	14.09
660.674	14.15
661.001	14.07
661.329	14.31
661.656	13.99
661.982	14.14
662.309	14.25
662.636	14.07
662.963	14.16
663.29	14.06
663.616	14.54
663.943	14.66
664.27	14.55
664.596	14.43
664.923	14.63
665.249	14.76
665.576	14.78
665.902	14.51
666.228	14.98
666.554	14.43
666.881	14.26
667.207	15.05
667.533	14.96
667.859	14.57
668.185	15.31
668.511	14.86
668.837	14.88
669.162	14.8
669.488	15.06
669.814	15.48
670.139	14.83
670.465	14.88
670.791	15.23
671.116	14.84
671.442	15.47
671.767	15.33
672.092	15.21
672.418	15.16
672.743	15.22
673.068	14.58
673.393	15.28
673.718	14.92
674.043	14.88
674.368	14.78
674.693	15.62
675.018	15.01
675.343	15.67
675.667	15.21
675.992	15.71
676.317	16.56
676.641	15.55
676.966	15.28
677.29	15.01
677.615	16.03
677.939	15.56
678.264	15.9
678.588	15.77
678.912	15.66
679.236	16.01
679.56	15.81
679.885	15.63
680.209	16.03
680.532	16.25
680.856	16.37
681.18	15.75
681.504	15.88
681.828	15.98
682.152	16.64
682.475	15.83
682.799	16.37
683.122	16.52
683.446	15.46
683.769	16.39
684.093	16.49
684.416	16.27
684.739	16.05
685.062	15.77
685.386	16.13
685.709	15.68
686.032	16.5
