Data from 0006_crown_Reflection__0__397.txt Node

Date: Thu Dec 15 19:40:56 CST 2022
User: ToomeyLab
Spectrometer: FLMS14357
Trigger mode: 0
Integration Time (sec): 1.000000E-2
Scans to average: 100
Electric dark correction enabled: true
Nonlinearity correction enabled: false
Boxcar width: 0
XAxis mode: Wavelengths
Number of Pixels in Spectrum: 2048
>>>>>Begin Spectral Data<<<<<
189.047	26.31
189.435	26.31
189.823	26.31
190.211	-400.91
190.599	134.87
190.987	2269.23
191.375	108.75
191.763	115.61
192.151	1411.74
192.538	-122.44
192.926	43.84
193.314	351.7
193.702	-125.87
194.089	251.77
194.477	28.07
194.864	145.44
195.252	31.23
195.639	106.43
196.027	-74.82
196.414	302.24
196.801	56.13
197.189	212.52
197.576	-77.07
197.963	355.88
198.351	-7.03
198.738	2.8
199.125	-98.64
199.512	30.11
199.899	-37.77
200.286	-243.39
200.673	36.95
201.06	-27.72
201.447	-24.3
201.833	-31.21
202.22	-32.62
202.607	-26.29
202.994	-4.9
203.38	-34
203.767	-7.67
204.154	6.63
204.54	-5.18
204.927	-8.37
205.313	16.33
205.699	10.81
206.086	23.22
206.472	-9.09
206.858	-12.85
207.245	-28.04
207.631	-20.89
208.017	40.43
208.403	-78.66
208.789	2.64
209.175	-19.02
209.561	-110.88
209.947	-37.88
210.333	-18.69
210.719	21.11
211.105	37.78
211.491	1.24
211.876	-17.98
212.262	18.37
212.648	-4.7
213.034	-20.53
213.419	-32.49
213.805	-25.66
214.19	-69.28
214.576	-32.81
214.961	-16.72
215.346	-39.08
215.732	-58.09
216.117	-31.06
216.502	-27.22
216.888	0.66
217.273	-18.01
217.658	32.66
218.043	15.66
218.428	-37.15
218.813	5.22
219.198	-49.65
219.583	-35.86
219.968	-7.5
220.353	-48.61
220.738	2.27
221.122	-26.54
221.507	-28.12
221.892	-23.42
222.276	-41.17
222.661	-10.91
223.046	-16.7
223.43	11.28
223.815	-11.67
224.199	-6.05
224.583	-6.23
224.968	5.9
225.352	-5.48
225.736	5.66
226.121	-2.87
226.505	0.16
226.889	4.53
227.273	-4.67
227.657	4.83
228.041	-0.78
228.425	2.63
228.809	6.7
229.193	4.77
229.577	5.7
229.961	6.09
230.344	6.47
230.728	7.25
231.112	7.08
231.495	6.14
231.879	7.76
232.263	7.63
232.646	6.21
233.03	6.99
233.413	6.31
233.797	5.06
234.18	7.82
234.563	6.27
234.946	6.28
235.33	5.47
235.713	6.85
236.096	7.47
236.479	5.53
236.862	5.77
237.245	4.94
237.628	6.73
238.011	4.9
238.394	5.59
238.777	5.59
239.16	6.78
239.543	6.1
239.925	4.29
240.308	4.51
240.691	6.85
241.073	5.68
241.456	6.47
241.838	5.55
242.221	6.33
242.603	6.95
242.986	7.12
243.368	6.44
243.75	6.83
244.133	7.03
244.515	6.5
244.897	5.94
245.279	5.73
245.661	6.16
246.043	5.58
246.425	6.27
246.807	4.75
247.189	5.64
247.571	6.6
247.953	6.11
248.335	6.36
248.717	6.45
249.098	6.41
249.48	6.3
249.862	6.22
250.243	6.42
250.625	6.52
251.006	6.67
251.388	6.05
251.769	5.45
252.151	5.83
252.532	5.4
252.913	6.22
253.295	5.85
253.676	6.08
254.057	5.84
254.438	5.68
254.819	4.95
255.2	6.09
255.581	6.36
255.962	5.41
256.343	5.73
256.724	6.45
257.105	4.99
257.486	4.5
257.867	5.73
258.247	6.06
258.628	6.01
259.009	5.98
259.389	5.54
259.77	5.44
260.15	6.51
260.531	5.87
260.911	6.07
261.292	5.92
261.672	5.99
262.052	6.11
262.432	5.61
262.813	6.17
263.193	5.85
263.573	5.72
263.953	4.75
264.333	5.44
264.713	6.21
265.093	5.57
265.473	6.09
265.853	5.75
266.233	5.82
266.612	4.91
266.992	5.9
267.372	5.63
267.752	5.63
268.131	5.73
268.511	6
268.89	5.95
269.27	5.13
269.649	5.39
270.029	5.76
270.408	5.48
270.787	5.53
271.167	5.45
271.546	6.41
271.925	5.5
272.304	5.65
272.683	5.65
273.062	5.4
273.441	5.31
273.82	5.82
274.199	5.15
274.578	5.81
274.957	5.15
275.336	5.44
275.715	5.68
276.093	5.05
276.472	4.99
276.851	5.55
277.229	4.84
277.608	5.32
277.986	5.16
278.365	5.33
278.743	5.26
279.122	5.45
279.5	5.32
279.878	5.04
280.257	4.84
280.635	4.79
281.013	5.09
281.391	4.82
281.769	5.56
282.147	5.42
282.525	5
282.903	4.83
283.281	5.46
283.659	5.41
284.037	5.31
284.415	4.97
284.792	5.08
285.17	4.99
285.548	5.05
285.925	4.8
286.303	5.29
286.68	5.35
287.058	5.19
287.435	4.88
287.813	5.02
288.19	4.78
288.567	4.95
288.945	4.58
289.322	4.74
289.699	4.75
290.076	4.87
290.453	4.45
290.83	4.8
291.207	4.91
291.584	5.23
291.961	4.67
292.338	4.74
292.715	4.81
293.092	5.03
293.469	4.49
293.845	4.96
294.222	5.12
294.599	4.69
294.975	4.16
295.352	4.95
295.728	4.75
296.105	4.78
296.481	4.71
296.858	4.67
297.234	4.32
297.61	4.72
297.986	5.21
298.363	4.76
298.739	5.02
299.115	5.07
299.491	4.88
299.867	4.76
300.243	4.45
300.619	4.54
300.995	4.73
301.371	4.6
301.746	4.52
302.122	4.29
302.498	4.29
302.874	4.81
303.249	4.36
303.625	4.28
304	4.62
304.376	4.19
304.751	4.83
305.127	4.46
305.502	3.98
305.878	4.45
306.253	4.53
306.628	4.31
307.003	4.29
307.378	4.27
307.754	4.72
308.129	4.04
308.504	4.44
308.879	4.55
309.254	4.92
309.629	4.25
310.003	4.25
310.378	4.58
310.753	4.26
311.128	4.68
311.502	4.54
311.877	4.67
312.252	4.09
312.626	4.6
313.001	4.63
313.375	4.53
313.75	4.57
314.124	4.77
314.498	4.58
314.873	4
315.247	4.57
315.621	4.35
315.995	4.17
316.369	3.75
316.743	4.23
317.117	4.34
317.491	4.24
317.865	3.74
318.239	4.24
318.613	4.13
318.987	4.38
319.361	4.05
319.734	4.34
320.108	3.81
320.482	4.79
320.855	4.18
321.229	4.3
321.602	4.54
321.976	3.42
322.349	4.81
322.723	4.53
323.096	4.28
323.469	4.16
323.843	4.22
324.216	4.49
324.589	4.21
324.962	4.33
325.335	4.28
325.708	4.33
326.081	4.53
326.454	4.29
326.827	4.21
327.2	3.94
327.573	4.62
327.945	3.84
328.318	3.88
328.691	3.99
329.063	3.86
329.436	4.04
329.809	4.04
330.181	4.65
330.553	4.35
330.926	4.82
331.298	4.14
331.671	4.28
332.043	3.92
332.415	4.25
332.787	4.45
333.159	4.06
333.532	4.04
333.904	4.14
334.276	4.4
334.648	4.2
335.02	4.35
335.391	3.97
335.763	3.96
336.135	4.37
336.507	4.13
336.879	4.25
337.25	4.07
337.622	4.35
337.993	4.05
338.365	4.41
338.736	4.55
339.108	4.41
339.479	4.53
339.851	4.46
340.222	4.21
340.593	4.74
340.964	4.05
341.336	3.76
341.707	4.32
342.078	4.51
342.449	4.23
342.82	4.37
343.191	4.19
343.562	4.46
343.933	3.85
344.303	4.66
344.674	4.08
345.045	4.1
345.416	4.53
345.786	4.12
346.157	3.97
346.527	4.08
346.898	4.15
347.268	4.27
347.639	4.32
348.009	4.76
348.38	4.21
348.75	4.23
349.12	4.11
349.49	4.53
349.861	4.41
350.231	4.21
350.601	4.29
350.971	4.08
351.341	4.51
351.711	4.12
352.081	3.94
352.45	4.13
352.82	4.09
353.19	4.27
353.56	4.1
353.929	4.58
354.299	4.58
354.669	4.79
355.038	4.66
355.408	4.28
355.777	4.56
356.147	4.49
356.516	3.81
356.885	4.42
357.254	4.09
357.624	3.91
357.993	4.48
358.362	4.51
358.731	4.73
359.1	4.78
359.469	4.89
359.838	4.27
360.207	4.47
360.576	4.68
360.945	4.57
361.314	4.52
361.682	4.12
362.051	4.58
362.42	4.53
362.788	4.75
363.157	4.44
363.525	4.73
363.894	4.34
364.262	4.47
364.631	4.88
364.999	4.78
365.367	4.33
365.735	4.36
366.104	4.59
366.472	4.66
366.84	4.52
367.208	4.84
367.576	4.58
367.944	4.73
368.312	4.72
368.68	4.84
369.048	4.2
369.416	4.33
369.783	4.51
370.151	4.89
370.519	5.06
370.886	4.59
371.254	5.04
371.621	4.49
371.989	4.6
372.356	4.52
372.724	4.51
373.091	4.32
373.458	4.53
373.826	4.68
374.193	4.63
374.56	4.54
374.927	4.54
375.294	4.67
375.661	4.8
376.028	4.72
376.395	4.55
376.762	4.37
377.129	4.6
377.496	4.73
377.863	4.65
378.229	4.75
378.596	4.92
378.963	4.62
379.329	4.74
379.696	4.64
380.062	4.7
380.429	4.58
380.795	4.76
381.161	4.4
381.528	4.51
381.894	4.68
382.26	4.64
382.626	4.59
382.993	4.8
383.359	5
383.725	4.37
384.091	4.79
384.457	4.85
384.823	4.92
385.188	4.78
385.554	4.77
385.92	4.66
386.286	4.74
386.651	4.73
387.017	5.22
387.383	4.79
387.748	5.03
388.114	4.96
388.479	4.99
388.845	4.75
389.21	4.99
389.575	5.18
389.94	4.69
390.306	4.98
390.671	4.91
391.036	4.66
391.401	4.83
391.766	4.94
392.131	4.83
392.496	4.71
392.861	4.78
393.226	4.63
393.591	4.99
393.956	4.95
394.32	5.14
394.685	4.81
395.05	4.88
395.414	4.87
395.779	5.2
396.143	4.82
396.508	4.82
396.872	4.98
397.236	5.21
397.601	4.99
397.965	4.92
398.329	5.11
398.694	4.92
399.058	5.08
399.422	4.97
399.786	4.9
400.15	4.77
400.514	5.01
400.878	4.92
401.242	5.26
401.605	4.84
401.969	4.75
402.333	4.86
402.697	5.35
403.06	4.95
403.424	5.17
403.787	4.9
404.151	4.99
404.514	5.09
404.878	4.99
405.241	5.04
405.604	4.93
405.968	4.91
406.331	5.12
406.694	5.08
407.057	4.96
407.42	5.03
407.783	5.19
408.146	5.05
408.509	5.14
408.872	5.13
409.235	5.1
409.598	5.24
409.961	5.31
410.323	5.04
410.686	5.02
411.049	5.18
411.411	5.03
411.774	5.06
412.136	5.01
412.499	5.28
412.861	4.85
413.223	5.13
413.586	5.26
413.948	5.25
414.31	5.21
414.672	5.06
415.035	5.32
415.397	5.01
415.759	4.76
416.121	5.33
416.483	5.12
416.845	5.13
417.206	5.17
417.568	5.15
417.93	5.29
418.292	5.11
418.653	5.01
419.015	5.07
419.377	5.08
419.738	5.2
420.1	5.14
420.461	4.98
420.822	5.17
421.184	4.99
421.545	5.2
421.906	5.13
422.267	5.05
422.629	5.09
422.99	5.13
423.351	5.1
423.712	5.22
424.073	5.23
424.434	5.26
424.795	5.13
425.155	5.11
425.516	5.11
425.877	5.2
426.238	5.07
426.598	5.12
426.959	5.21
427.32	5.14
427.68	5.17
428.041	5.27
428.401	5.16
428.761	5.24
429.122	5.14
429.482	5.19
429.842	5.07
430.202	5.23
430.563	5.23
430.923	5.26
431.283	5.48
431.643	5.26
432.003	5.34
432.363	5.43
432.722	5.17
433.082	5.19
433.442	5.26
433.802	5.25
434.161	5.31
434.521	5.29
434.881	5.25
435.24	5.27
435.6	5.29
435.959	5.32
436.319	5.43
436.678	5.25
437.037	5.32
437.396	5.38
437.756	5.31
438.115	5.32
438.474	5.28
438.833	5.36
439.192	5.23
439.551	5.29
439.91	5.32
440.269	5.28
440.628	5.27
440.987	5.21
441.345	5.42
441.704	5.25
442.063	5.21
442.421	5.41
442.78	5.26
443.138	5.3
443.497	5.27
443.855	5.41
444.214	5.2
444.572	5.51
444.93	5.24
445.288	5.3
445.647	5.17
446.005	5.37
446.363	5.36
446.721	5.29
447.079	5.29
447.437	5.33
447.795	5.32
448.153	5.41
448.51	5.28
448.868	5.22
449.226	5.34
449.584	5.24
449.941	5.28
450.299	5.28
450.656	5.36
451.014	5.51
451.371	5.42
451.729	5.39
452.086	5.41
452.443	5.48
452.801	5.35
453.158	5.5
453.515	5.32
453.872	5.4
454.229	5.33
454.586	5.34
454.943	5.45
455.3	5.3
455.657	5.33
456.014	5.44
456.371	5.53
456.727	5.5
457.084	5.59
457.441	5.41
457.797	5.36
458.154	5.4
458.51	5.49
458.867	5.43
459.223	5.28
459.58	5.34
459.936	5.37
460.292	5.3
460.648	5.26
461.005	5.36
461.361	5.35
461.717	5.34
462.073	5.42
462.429	5.4
462.785	5.51
463.141	5.39
463.496	5.44
463.852	5.6
464.208	5.5
464.564	5.44
464.919	5.3
465.275	5.49
465.631	5.79
465.986	5.63
466.342	5.39
466.697	5.41
467.052	5.56
467.408	5.64
467.763	5.4
468.118	5.35
468.473	5.54
468.829	5.39
469.184	5.53
469.539	5.25
469.894	5.58
470.249	5.61
470.603	5.55
470.958	5.53
471.313	5.64
471.668	5.44
472.023	5.49
472.377	5.49
472.732	5.7
473.086	5.48
473.441	5.47
473.795	5.88
474.15	5.54
474.504	5.55
474.859	5.32
475.213	5.68
475.567	5.46
475.921	5.53
476.275	5.52
476.63	5.73
476.984	5.4
477.338	5.65
477.692	5.5
478.045	5.5
478.399	5.47
478.753	5.58
479.107	5.65
479.461	5.53
479.814	5.52
480.168	5.58
480.521	5.52
480.875	5.48
481.228	5.59
481.582	5.48
481.935	5.62
482.289	5.51
482.642	5.76
482.995	5.56
483.348	5.49
483.701	5.5
484.055	5.49
484.408	5.43
484.761	5.36
485.114	5.3
485.466	5.26
485.819	5.32
486.172	5.28
486.525	5.33
486.878	5.36
487.23	5.37
487.583	5.48
487.936	5.45
488.288	5.45
488.641	5.4
488.993	5.37
489.345	5.38
489.698	5.4
490.05	5.38
490.402	5.44
490.754	5.39
491.107	5.34
491.459	5.47
491.811	5.54
492.163	5.5
492.515	5.42
492.866	5.37
493.218	5.36
493.57	5.52
493.922	5.47
494.274	5.51
494.625	5.59
494.977	5.44
495.328	5.65
495.68	5.6
496.031	5.62
496.383	5.54
496.734	5.54
497.086	5.68
497.437	5.7
497.788	5.67
498.139	5.67
498.49	5.68
498.842	5.68
499.193	5.56
499.544	5.55
499.894	5.52
500.245	5.6
500.596	5.55
500.947	5.54
501.298	5.55
501.648	5.57
501.999	5.48
502.35	5.5
502.7	5.83
503.051	5.66
503.401	5.65
503.752	5.55
504.102	5.63
504.452	5.51
504.803	5.49
505.153	5.74
505.503	5.63
505.853	5.69
506.203	5.67
506.553	5.63
506.903	5.74
507.253	5.6
507.603	5.66
507.953	5.65
508.303	5.58
508.652	5.47
509.002	5.72
509.352	5.79
509.701	5.52
510.051	5.72
510.4	5.78
510.75	5.61
511.099	5.53
511.449	5.7
511.798	5.67
512.147	5.63
512.496	5.73
512.846	5.59
513.195	5.58
513.544	5.65
513.893	5.68
514.242	5.66
514.591	5.6
514.939	5.73
515.288	5.69
515.637	5.63
515.986	5.62
516.334	5.72
516.683	5.74
517.032	5.72
517.38	5.69
517.729	5.66
518.077	5.6
518.426	5.73
518.774	5.59
519.122	5.74
519.47	5.61
519.819	5.72
520.167	5.63
520.515	5.58
520.863	5.58
521.211	5.55
521.559	5.51
521.907	5.66
522.255	5.58
522.602	5.78
522.95	5.72
523.298	5.72
523.645	5.68
523.993	5.83
524.341	5.66
524.688	5.67
525.036	5.66
525.383	5.68
525.73	5.54
526.078	5.73
526.425	5.73
526.772	5.69
527.119	5.67
527.466	5.7
527.814	5.57
528.161	5.67
528.508	5.69
528.854	5.58
529.201	5.53
529.548	5.55
529.895	5.44
530.242	5.47
530.588	5.5
530.935	5.48
531.282	5.49
531.628	5.45
531.975	5.53
532.321	5.55
532.667	5.64
533.014	5.65
533.36	5.62
533.706	5.71
534.052	5.63
534.399	5.59
534.745	5.56
535.091	5.52
535.437	5.58
535.783	5.57
536.129	5.63
536.474	5.62
536.82	5.65
537.166	5.57
537.512	5.66
537.857	5.7
538.203	5.71
538.549	5.56
538.894	5.56
539.239	5.67
539.585	5.65
539.93	5.75
540.276	5.59
540.621	5.71
540.966	5.59
541.311	5.72
541.656	5.56
542.001	5.63
542.346	5.56
542.691	5.49
543.036	5.55
543.381	5.55
543.726	5.63
544.071	5.54
544.415	5.57
544.76	5.52
545.105	5.58
545.449	5.64
545.794	5.54
546.138	5.6
546.483	5.68
546.827	5.61
547.171	5.68
547.516	5.69
547.86	5.64
548.204	5.69
548.548	5.62
548.892	5.75
549.236	5.65
549.58	5.59
549.924	5.81
550.268	5.77
550.612	5.65
550.956	5.68
551.3	6.01
551.643	5.63
551.987	5.79
552.33	5.77
552.674	5.64
553.017	5.79
553.361	5.76
553.704	5.85
554.048	5.74
554.391	5.86
554.734	5.65
555.077	5.69
555.42	5.62
555.764	5.72
556.107	5.73
556.45	5.7
556.793	5.85
557.135	5.67
557.478	5.63
557.821	5.8
558.164	5.71
558.507	5.7
558.849	5.86
559.192	5.77
559.534	5.67
559.877	5.67
560.219	5.86
560.562	5.82
560.904	5.78
561.246	5.54
561.589	6.01
561.931	5.75
562.273	5.72
562.615	5.57
562.957	5.6
563.299	5.63
563.641	5.69
563.983	5.75
564.325	5.65
564.667	5.68
565.008	5.69
565.35	5.61
565.692	5.77
566.033	5.7
566.375	5.66
566.716	5.57
567.058	5.59
567.399	5.83
567.741	5.82
568.082	5.74
568.423	5.56
568.764	5.72
569.105	5.74
569.447	5.7
569.788	5.72
570.129	5.55
570.47	5.77
570.811	5.59
571.151	5.6
571.492	5.53
571.833	5.83
572.174	5.77
572.514	5.75
572.855	5.77
573.195	5.63
573.536	5.74
573.876	5.41
574.217	5.59
574.557	5.73
574.898	5.71
575.238	5.95
575.578	5.65
575.918	5.74
576.258	5.91
576.598	5.72
576.938	5.64
577.278	5.65
577.618	5.52
577.958	5.63
578.298	5.6
578.638	5.63
578.977	5.57
579.317	5.68
579.657	5.56
579.996	5.79
580.336	5.62
580.675	5.67
581.014	5.85
581.354	5.55
581.693	5.59
582.032	5.73
582.372	5.71
582.711	5.58
583.05	5.79
583.389	5.8
583.728	5.91
584.067	5.63
584.406	5.72
584.745	5.82
585.083	5.79
585.422	5.79
585.761	5.64
586.1	5.75
586.438	5.51
586.777	5.49
587.115	5.64
587.454	5.44
587.792	5.57
588.13	5.55
588.469	5.6
588.807	5.75
589.145	5.78
589.483	5.61
589.821	5.65
590.159	5.59
590.497	5.59
590.835	5.69
591.173	5.84
591.511	5.74
591.849	5.67
592.187	5.57
592.524	5.84
592.862	5.47
593.2	5.48
593.537	5.76
593.875	5.61
594.212	5.77
594.55	5.65
594.887	5.69
595.224	5.78
595.561	5.46
595.899	5.77
596.236	5.72
596.573	5.58
596.91	5.52
597.247	5.76
597.584	5.76
597.921	5.39
598.258	5.73
598.594	5.45
598.931	5.45
599.268	5.47
599.604	5.65
599.941	5.69
600.277	5.71
600.614	5.64
600.95	5.4
601.287	5.16
601.623	5.29
601.959	6.01
602.296	5.8
602.632	5.53
602.968	5.72
603.304	5.75
603.64	5.71
603.976	5.44
604.312	5.4
604.648	5.49
604.984	5.61
605.319	5.64
605.655	5.49
605.991	5.51
606.326	5.58
606.662	5.42
606.998	5.61
607.333	5.57
607.668	5.45
608.004	5.53
608.339	5.31
608.674	5.5
609.01	5.53
609.345	5.37
609.68	5.34
610.015	5.57
610.35	5.76
610.685	5.27
611.02	5.59
611.355	5.47
611.689	5.48
612.024	5.62
612.359	5.47
612.694	5.49
613.028	5.5
613.363	5.36
613.697	5.43
614.032	5.64
614.366	5.47
614.7	5.54
615.035	5.25
615.369	5.45
615.703	5.76
616.037	5.49
616.371	5.28
616.705	5.45
617.039	5.5
617.373	5.55
617.707	5.68
618.041	5.02
618.375	4.74
618.709	5.44
619.042	5.49
619.376	5.64
619.71	5.23
620.043	5.8
620.377	5.51
620.71	5.5
621.043	5.38
621.377	5.62
621.71	5.74
622.043	5.58
622.376	5.55
622.709	5.78
623.043	5.58
623.376	5.26
623.709	5.69
624.041	5.51
624.374	5.56
624.707	5.29
625.04	5.55
625.373	5.57
625.705	5.49
626.038	5.41
626.37	5.49
626.703	5.61
627.035	5.28
627.368	5.72
627.7	5.56
628.032	5.47
628.365	5.69
628.697	5.7
629.029	5.53
629.361	5.7
629.693	5.44
630.025	5.63
630.357	5.59
630.689	5.48
631.021	5.59
631.353	5.73
631.684	5.16
632.016	4.89
632.348	5.54
632.679	5.63
633.011	5.45
633.342	5.28
633.674	5.39
634.005	5.24
634.336	5.53
634.668	5.26
634.999	5.27
635.33	5.71
635.661	5.35
635.992	5.55
636.323	5.15
636.654	5.29
636.985	5.37
637.316	5.38
637.647	5.64
637.977	5.1
638.308	5.53
638.639	5.62
638.969	5.75
639.3	5.5
639.63	5.52
639.961	5.59
640.291	5.07
640.622	5.92
640.952	5.72
641.282	5.38
641.612	5.27
641.943	5.31
642.273	5.08
642.603	5.64
642.933	5.61
643.263	5.76
643.592	5.92
643.922	5.76
644.252	5.51
644.582	5.73
644.911	5.23
645.241	5.31
645.571	5.2
645.9	5.56
646.23	5.67
646.559	5.22
646.888	5.85
647.218	5.63
647.547	5.16
647.876	5.43
648.205	5.3
648.534	5.64
648.863	5.05
649.192	5.45
649.521	5.73
649.85	5.54
650.179	5.46
650.508	5.21
650.837	5.54
651.165	5.75
651.494	5.3
651.822	5.94
652.151	5.4
652.479	5.57
652.808	5.42
653.136	4.99
653.465	5.29
653.793	5.23
654.121	5.67
654.449	4.93
654.777	5.28
655.105	4.87
655.433	5.22
655.761	5.57
656.089	4.91
656.417	5.68
656.745	5.96
657.073	5.23
657.4	5.31
657.728	4.91
658.056	5.33
658.383	5.26
658.711	5.47
659.038	5.83
659.365	5.53
659.693	5.57
660.02	5.48
660.347	5.65
660.674	5.4
661.001	5.44
661.329	5.32
661.656	5.22
661.982	4.99
662.309	5.77
662.636	5.34
662.963	5.45
663.29	5.61
663.616	5.53
663.943	5.42
664.27	5.13
664.596	5.25
664.923	5.81
665.249	5.37
665.576	4.94
665.902	5.18
666.228	5.29
666.554	5.66
666.881	5.19
667.207	5.56
667.533	5.51
667.859	4.98
668.185	5.38
668.511	5.59
668.837	4.9
669.162	5.55
669.488	4.4
669.814	5.62
670.139	5.3
670.465	5.63
670.791	5.51
671.116	4.77
671.442	4.68
671.767	5.12
672.092	5.48
672.418	5.57
672.743	5.27
673.068	4.65
673.393	5.5
673.718	4.8
674.043	4.87
674.368	5.32
674.693	5.39
675.018	5.78
675.343	5.62
675.667	5.68
675.992	4.91
676.317	5.1
676.641	5.86
676.966	5.71
677.29	4.99
677.615	4.83
677.939	5.25
678.264	5.3
678.588	5.38
678.912	5.5
679.236	5.12
679.56	4.8
679.885	5.23
680.209	5.52
680.532	5.57
680.856	5.38
681.18	6.17
681.504	5.55
681.828	5.05
682.152	5.1
682.475	5.51
682.799	5.27
683.122	5.28
683.446	4.6
683.769	5.63
684.093	5.27
684.416	4.73
684.739	5.27
685.062	5.42
685.386	5.23
685.709	5.63
686.032	5.21
686.355	5.34
686.678	5.49
687.001	5.62
687.324	4.46
687.646	5.63
687.969	5.57
688.292	4.72
688.614	5.73
688.937	5.8
689.26	5.54
689.582	5.31
689.904	5.33
690.227	5.75
690.549	5.62
690.871	5.01
691.194	5.38
