Data from 0006_forehead_Reflection__1__403.txt Node

Date: Thu Dec 15 19:42:19 CST 2022
User: ToomeyLab
Spectrometer: FLMS14357
Trigger mode: 0
Integration Time (sec): 1.000000E-2
Scans to average: 100
Electric dark correction enabled: true
Nonlinearity correction enabled: false
Boxcar width: 0
XAxis mode: Wavelengths
Number of Pixels in Spectrum: 2048
>>>>>Begin Spectral Data<<<<<
189.047	0.15
189.435	0.15
189.823	0.15
190.211	344.41
190.599	194.56
190.987	-9718.68
191.375	-135.67
191.763	93.66
192.151	1853.52
192.538	357.32
192.926	250.46
193.314	207.5
193.702	45.36
194.089	-437.75
194.477	-61.83
194.864	25.8
195.252	6.13
195.639	185.82
196.027	125.37
196.414	172.87
196.801	47.27
197.189	249.97
197.576	-121.98
197.963	58.01
198.351	-51.6
198.738	-104.79
199.125	1.98
199.512	21.14
199.899	-40.58
200.286	-148.5
200.673	17.19
201.06	11.66
201.447	36.18
201.833	-27.26
202.22	0.75
202.607	-86.56
202.994	-21.29
203.38	-40.71
203.767	-4.73
204.154	9.43
204.54	-20.15
204.927	25.47
205.313	1.23
205.699	17.61
206.086	56.12
206.472	18.23
206.858	4.11
207.245	-18.26
207.631	8.56
208.017	34.24
208.403	-40.63
208.789	-6.11
209.175	-7.55
209.561	-81.12
209.947	-13.11
210.333	-6.79
210.719	13.58
211.105	48.55
211.491	8.88
211.876	-36.19
212.262	-19.81
212.648	-20.09
213.034	-0.55
213.419	3.12
213.805	-50.3
214.19	-60.29
214.576	-48.14
214.961	21.89
215.346	-46.06
215.732	-4.98
216.117	-5.53
216.502	-24.85
216.888	11.96
217.273	-8.92
217.658	-27.73
218.043	-2.01
218.428	-41.71
218.813	8.98
219.198	-38.2
219.583	-26.44
219.968	-8.7
220.353	-28.26
220.738	-21.93
221.122	-14.23
221.507	-39.4
221.892	-46.3
222.276	-31.21
222.661	-27.76
223.046	-8.15
223.43	14.21
223.815	2.35
224.199	-9.39
224.583	-7.33
224.968	-5.09
225.352	-3.75
225.736	10.51
226.121	-2.01
226.505	-7.1
226.889	-2.28
227.273	-7.27
227.657	-0.98
228.041	1.21
228.425	0.19
228.809	-3.41
229.193	2.94
229.577	1.05
229.961	0.75
230.344	1.95
230.728	1.88
231.112	1.84
231.495	0.1
231.879	1.01
232.263	1.56
232.646	0.85
233.03	3.68
233.413	2.81
233.797	0.05
234.18	1.7
234.563	0.74
234.946	1.91
235.33	1.99
235.713	1.56
236.096	2.36
236.479	1.83
236.862	-0.03
237.245	0.53
237.628	2.5
238.011	1.74
238.394	-0.58
238.777	0.98
239.16	4.12
239.543	2.96
239.925	1.31
240.308	1.94
240.691	0.95
241.073	1.12
241.456	1.54
241.838	1.74
242.221	1.35
242.603	1.89
242.986	1.9
243.368	1.82
243.75	1.95
244.133	2.04
244.515	1.47
244.897	1.65
245.279	1.53
245.661	1.91
246.043	2.63
246.425	2.12
246.807	1.51
247.189	1.66
247.571	1.51
247.953	1.5
248.335	1.99
248.717	2.08
249.098	1.93
249.48	1.77
249.862	1.97
250.243	1.77
250.625	1.93
251.006	1.86
251.388	1.38
251.769	1.41
252.151	3.05
252.532	0.89
252.913	2.04
253.295	1.64
253.676	1.91
254.057	2.04
254.438	1.72
254.819	1.65
255.2	2.65
255.581	1.99
255.962	1.57
256.343	2.18
256.724	1.26
257.105	1.4
257.486	0.26
257.867	0.84
258.247	1.55
258.628	2
259.009	1.46
259.389	1.12
259.77	1.91
260.15	2.15
260.531	2.06
260.911	1.87
261.292	2.11
261.672	1.91
262.052	2.07
262.432	1.86
262.813	1.9
263.193	2.01
263.573	2.07
263.953	1.8
264.333	1.76
264.713	1.97
265.093	1.56
265.473	2.1
265.853	1.51
266.233	1.63
266.612	2.32
266.992	1.8
267.372	2.24
267.752	2.5
268.131	1.64
268.511	1.37
268.89	2.32
269.27	1.72
269.649	1.67
270.029	2.36
270.408	1.54
270.787	1.65
271.167	1.92
271.546	2.13
271.925	1.8
272.304	1.95
272.683	1.58
273.062	1.87
273.441	1.81
273.82	1.64
274.199	1.79
274.578	2.03
274.957	2.12
275.336	2.23
275.715	1.77
276.093	1.56
276.472	1.57
276.851	1.9
277.229	1.8
277.608	1.57
277.986	1.7
278.365	1.77
278.743	1.94
279.122	1.45
279.5	1.75
279.878	0.94
280.257	1.99
280.635	1.69
281.013	1.54
281.391	2.07
281.769	2.58
282.147	1.76
282.525	1.64
282.903	1.54
283.281	2.1
283.659	2.14
284.037	1.72
284.415	1.86
284.792	2.12
285.17	1.83
285.548	1.69
285.925	1.83
286.303	2.47
286.68	2.07
287.058	2.12
287.435	1.9
287.813	1.82
288.19	1.85
288.567	1.82
288.945	1.69
289.322	2.08
289.699	2.02
290.076	1.77
290.453	1.64
290.83	2.49
291.207	1.35
291.584	2.37
291.961	2.1
292.338	2.06
292.715	1.92
293.092	2.26
293.469	1.74
293.845	1.83
294.222	2.1
294.599	1.91
294.975	2.01
295.352	2.31
295.728	1.98
296.105	2.37
296.481	2.16
296.858	2.29
297.234	2.07
297.61	2.3
297.986	2.58
298.363	2.39
298.739	2.71
299.115	2.44
299.491	2.64
299.867	2.41
300.243	2.31
300.619	2.21
300.995	2.54
301.371	2.63
301.746	2.49
302.122	2.2
302.498	2.23
302.874	2.83
303.249	2.45
303.625	1.83
304	2.63
304.376	2.54
304.751	3.11
305.127	2.32
305.502	2.74
305.878	2.69
306.253	2.68
306.628	3.08
307.003	2.56
307.378	2.37
307.754	3.01
308.129	2.4
308.504	2.91
308.879	2.89
309.254	3.32
309.629	2.57
310.003	2.71
310.378	3.14
310.753	3
311.128	2.77
311.502	2.99
311.877	2.82
312.252	3.28
312.626	3.27
313.001	3.13
313.375	3.28
313.75	3.54
314.124	3.59
314.498	3.24
314.873	2.77
315.247	2.96
315.621	3.01
315.995	3.45
316.369	3.02
316.743	3.12
317.117	3.25
317.491	3.26
317.865	2.74
318.239	3.95
318.613	3.41
318.987	3.25
319.361	3.93
319.734	3.46
320.108	3.86
320.482	3.84
320.855	4.13
321.229	3.75
321.602	3.56
321.976	2.84
322.349	4.19
322.723	3.81
323.096	3.6
323.469	3.79
323.843	3.44
324.216	3.57
324.589	3.78
324.962	3.91
325.335	3.84
325.708	4.06
326.081	4.39
326.454	4.25
326.827	4.52
327.2	4.24
327.573	4.8
327.945	3.8
328.318	3.81
328.691	4.06
329.063	3.86
329.436	3.64
329.809	4.59
330.181	5.11
330.553	4.85
330.926	4.61
331.298	4.49
331.671	4.53
332.043	4.16
332.415	4.44
332.787	4.62
333.159	4.3
333.532	4.59
333.904	4.39
334.276	4.78
334.648	4.57
335.02	4.17
335.391	4.38
335.763	4.61
336.135	4.78
336.507	4.61
336.879	4.33
337.25	4.66
337.622	4.83
337.993	4.7
338.365	4.68
338.736	4.8
339.108	4.92
339.479	4.59
339.851	5.11
340.222	5.22
340.593	5.03
340.964	4.87
341.336	4.73
341.707	4.68
342.078	4.67
342.449	4.89
342.82	5.07
343.191	5.05
343.562	4.78
343.933	5.1
344.303	5.47
344.674	5.41
345.045	5.39
345.416	5.45
345.786	5.24
346.157	5.63
346.527	5.46
346.898	5.04
347.268	5.52
347.639	5.01
348.009	5.18
348.38	5.32
348.75	5.68
349.12	5.61
349.49	5.5
349.861	5.63
350.231	5.63
350.601	5.59
350.971	5.42
351.341	5.6
351.711	5.52
352.081	5.52
352.45	5.5
352.82	5.61
353.19	5.75
353.56	5.81
353.929	5.84
354.299	5.8
354.669	6
355.038	6.17
355.408	5.92
355.777	6.04
356.147	5.71
356.516	5.57
356.885	5.64
357.254	5.99
357.624	5.6
357.993	6.26
358.362	6.09
358.731	6.48
359.1	6.22
359.469	6.37
359.838	6.26
360.207	6.4
360.576	6.39
360.945	6.21
361.314	6.42
361.682	6.04
362.051	6.49
362.42	6.52
362.788	6.33
363.157	6.27
363.525	6.48
363.894	6.43
364.262	6.31
364.631	6.83
364.999	6.3
365.367	6.5
365.735	6.39
366.104	6.75
366.472	6.67
366.84	6.89
367.208	7.03
367.576	6.64
367.944	6.76
368.312	6.88
368.68	7.21
369.048	6.99
369.416	6.96
369.783	6.81
370.151	7.05
370.519	7.23
370.886	7.05
371.254	7.32
371.621	7.32
371.989	7.05
372.356	7.16
372.724	7.09
373.091	6.93
373.458	6.92
373.826	7.54
374.193	7.41
374.56	7.79
374.927	7.27
375.294	7.55
375.661	7.39
376.028	7.4
376.395	7.94
376.762	7.53
377.129	7.61
377.496	7.68
377.863	7.66
378.229	7.63
378.596	7.64
378.963	7.69
379.329	7.75
379.696	7.68
380.062	7.66
380.429	7.37
380.795	7.96
381.161	7.5
381.528	7.59
381.894	7.79
382.26	8
382.626	7.82
382.993	8.21
383.359	7.79
383.725	7.96
384.091	8.16
384.457	8.11
384.823	7.95
385.188	8.18
385.554	8.02
385.92	8.21
386.286	8.33
386.651	8.29
387.017	8.46
387.383	8.42
387.748	8.6
388.114	8.13
388.479	8.42
388.845	8.19
389.21	8.59
389.575	8.75
389.94	8.95
390.306	8.62
390.671	8.66
391.036	8.73
391.401	8.66
391.766	8.76
392.131	8.76
392.496	8.9
392.861	8.66
393.226	8.68
393.591	8.86
393.956	8.95
394.32	8.85
394.685	9.04
395.05	8.81
395.414	8.96
395.779	9.16
396.143	8.83
396.508	8.95
396.872	8.97
397.236	9.31
397.601	9.1
397.965	9.19
398.329	9.29
398.694	8.96
399.058	9.16
399.422	9.17
399.786	9.27
400.15	9.57
400.514	9.48
400.878	9.58
401.242	9.41
401.605	9.46
401.969	9.46
402.333	9.46
402.697	9.76
403.06	9.79
403.424	9.79
403.787	9.64
404.151	9.64
404.514	9.69
404.878	9.51
405.241	9.76
405.604	9.79
405.968	9.68
406.331	9.96
406.694	9.77
407.057	9.82
407.42	10
407.783	9.93
408.146	10.1
408.509	9.99
408.872	10.19
409.235	10.23
409.598	10.06
409.961	10.24
410.323	10.14
410.686	10.27
411.049	10.26
411.411	10.17
411.774	10.39
412.136	10.33
412.499	10.42
412.861	10.03
413.223	10.42
413.586	10.44
413.948	10.57
414.31	10.53
414.672	10.37
415.035	10.95
415.397	10.27
415.759	10.28
416.121	10.5
416.483	10.68
416.845	10.74
417.206	10.6
417.568	10.57
417.93	10.69
418.292	10.52
418.653	10.36
419.015	10.61
419.377	10.61
419.738	10.74
420.1	10.7
420.461	10.58
420.822	10.73
421.184	10.78
421.545	10.78
421.906	10.72
422.267	10.56
422.629	10.63
422.99	10.67
423.351	10.75
423.712	10.82
424.073	10.87
424.434	11.03
424.795	10.92
425.155	10.84
425.516	10.83
425.877	10.85
426.238	10.87
426.598	11.1
426.959	11.11
427.32	11.13
427.68	11.11
428.041	11.33
428.401	11.24
428.761	11.28
429.122	11.55
429.482	11.4
429.842	11.47
430.202	11.62
430.563	11.62
430.923	11.58
431.283	11.49
431.643	11.69
432.003	11.85
432.363	11.75
432.722	11.76
433.082	11.77
433.442	11.86
433.802	11.75
434.161	11.7
434.521	11.72
434.881	11.75
435.24	11.77
435.6	11.91
435.959	11.84
436.319	11.82
436.678	11.97
437.037	12.06
437.396	12.09
437.756	12.05
438.115	11.93
438.474	12.12
438.833	12.05
439.192	12.17
439.551	12.13
439.91	12.12
440.269	12.12
440.628	12.03
440.987	12.23
441.345	12.22
441.704	12.03
442.063	12.22
442.421	12.15
442.78	12.31
443.138	12.26
443.497	12.31
443.855	12.49
444.214	12.25
444.572	12.65
444.93	12.55
445.288	12.44
445.647	12.56
446.005	12.76
446.363	12.57
446.721	12.51
447.079	12.51
447.437	12.51
447.795	12.54
448.153	12.47
448.51	12.63
448.868	12.58
449.226	12.74
449.584	12.75
449.941	12.77
450.299	12.85
450.656	13
451.014	13.04
451.371	13.04
451.729	13.14
452.086	13.08
452.443	13.38
452.801	13.26
453.158	13.18
453.515	13.15
453.872	13.29
454.229	13.08
454.586	13.16
454.943	13.38
455.3	13.37
455.657	13.3
456.014	13.38
456.371	13.52
456.727	13.48
457.084	13.65
457.441	13.57
457.797	13.47
458.154	13.57
458.51	13.56
458.867	13.82
459.223	13.58
459.58	13.79
459.936	13.7
460.292	13.47
460.648	13.47
461.005	13.49
461.361	13.42
461.717	13.5
462.073	13.52
462.429	13.72
462.785	13.94
463.141	13.84
463.496	14.03
463.852	14.09
464.208	14.09
464.564	14.1
464.919	14.03
465.275	14.18
465.631	14.3
465.986	14.31
466.342	14.14
466.697	14.2
467.052	14.32
467.408	14.28
467.763	14.47
468.118	14.21
468.473	14.38
468.829	14.38
469.184	14.46
469.539	14.39
469.894	14.51
470.249	14.54
470.603	14.8
470.958	14.72
471.313	14.73
471.668	14.74
472.023	14.78
472.377	14.6
472.732	14.66
473.086	14.89
473.441	14.72
473.795	14.94
474.15	14.85
474.504	14.77
474.859	14.73
475.213	15.01
475.567	14.96
475.921	15.03
476.275	15.02
476.63	15.2
476.984	14.79
477.338	15.12
477.692	15.18
478.045	15.24
478.399	15.05
478.753	15.16
479.107	15.24
479.461	15.11
479.814	15.23
480.168	15.21
480.521	15.4
480.875	15.33
481.228	15.34
481.582	15.32
481.935	15.49
482.289	15.47
482.642	15.51
482.995	15.26
483.348	15.29
483.701	15.36
484.055	15.23
484.408	15.09
484.761	14.77
485.114	14.59
485.466	14.52
485.819	14.68
486.172	14.75
486.525	14.88
486.878	14.98
487.23	15.08
487.583	15.32
487.936	15.29
488.288	15.19
488.641	15.09
488.993	15.04
489.345	15.08
489.698	15.16
490.05	15.18
490.402	15.3
490.754	15.47
491.107	15.55
491.459	15.7
491.811	15.73
492.163	15.78
492.515	15.62
492.866	15.47
493.218	15.44
493.57	15.48
493.922	15.63
494.274	15.85
494.625	16.14
494.977	16.05
495.328	16.33
495.68	16.48
496.031	16.41
496.383	16.46
496.734	16.65
497.086	16.6
497.437	16.75
497.788	16.68
498.139	16.43
498.49	16.52
498.842	16.57
499.193	16.44
499.544	16.63
499.894	16.7
500.245	16.79
500.596	16.81
500.947	16.83
501.298	16.91
501.648	16.82
501.999	16.93
502.35	17.04
502.7	17.24
503.051	17.16
503.401	17.18
503.752	17.11
504.102	17.08
504.452	17.15
504.803	17.25
505.153	17.27
505.503	17.26
505.853	17.41
506.203	17.43
506.553	17.34
506.903	17.38
507.253	17.54
507.603	17.49
507.953	17.45
508.303	17.64
508.652	17.56
509.002	17.55
509.352	17.52
509.701	17.4
510.051	17.62
510.4	17.48
510.75	17.42
511.099	17.36
511.449	17.63
511.798	17.57
512.147	17.57
512.496	17.71
512.846	17.82
513.195	17.79
513.544	17.68
513.893	17.75
514.242	17.82
514.591	17.93
514.939	18
515.288	18
515.637	18.03
515.986	18.16
516.334	18.18
516.683	18.18
517.032	18.33
517.38	18.2
517.729	18.28
518.077	18.29
518.426	18.21
518.774	18.17
519.122	18.23
519.47	18.25
519.819	17.99
520.167	18.03
520.515	17.98
520.863	18.07
521.211	18.16
521.559	18.1
521.907	18.23
522.255	18.46
522.602	18.51
522.95	18.59
523.298	18.82
523.645	18.62
523.993	18.77
524.341	18.74
524.688	18.79
525.036	18.8
525.383	18.79
525.73	18.91
526.078	18.97
526.425	18.68
526.772	18.62
527.119	18.61
527.466	18.56
527.814	18.52
528.161	18.72
528.508	18.72
528.854	18.7
529.201	18.59
529.548	18.39
529.895	18.15
530.242	18.19
530.588	18.24
530.935	18.35
531.282	18.44
531.628	18.56
531.975	18.71
532.321	18.9
532.667	19.03
533.014	19.12
533.36	19.27
533.706	19.16
534.052	19.13
534.399	18.83
534.745	18.77
535.091	18.81
535.437	18.81
535.783	19.08
536.129	19.15
536.474	19.43
536.82	19.48
537.166	19.37
537.512	19.66
537.857	19.48
538.203	19.38
538.549	19.31
538.894	19.57
539.239	19.65
539.585	19.84
539.93	19.93
540.276	19.95
540.621	20.01
540.966	20.11
541.311	20.16
541.656	20.07
542.001	19.84
542.346	19.69
542.691	19.4
543.036	19.36
543.381	19.36
543.726	19.62
544.071	19.63
544.415	19.8
544.76	19.89
545.105	20.05
545.449	20.05
545.794	20.12
546.138	20.22
546.483	20.45
546.827	20.33
547.171	20.5
547.516	20.46
547.86	20.36
548.204	20.42
548.548	20.37
548.892	20.45
549.236	20.42
549.58	20.51
549.924	20.85
550.268	21.06
550.612	21.02
550.956	20.95
551.3	21.38
551.643	21.31
551.987	21.36
552.33	21.56
552.674	21.32
553.017	21.33
553.361	21.41
553.704	21.38
554.048	21.16
554.391	21.43
554.734	21.08
555.077	21.47
555.42	21.35
555.764	21.52
556.107	21.61
556.45	21.63
556.793	21.74
557.135	21.93
557.478	21.83
557.821	21.58
558.164	21.73
558.507	21.92
558.849	21.84
559.192	22.04
559.534	21.76
559.877	21.94
560.219	21.77
560.562	21.82
560.904	22.27
561.246	22.19
561.589	22.26
561.931	22.12
562.273	22.02
562.615	22.17
562.957	22.27
563.299	22.17
563.641	22.1
563.983	22.1
564.325	22.23
564.667	22.3
565.008	22.39
565.35	22.25
565.692	22.54
566.033	22.37
566.375	22.36
566.716	22.46
567.058	22.51
567.399	22.36
567.741	22.34
568.082	22.35
568.423	22.3
568.764	22.45
569.105	22.59
569.447	22.72
569.788	22.56
570.129	22.72
570.47	22.49
570.811	22.55
571.151	22.8
571.492	22.81
571.833	22.82
572.174	22.92
572.514	22.76
572.855	23.09
573.195	22.99
573.536	22.96
573.876	22.7
574.217	22.72
574.557	22.88
574.898	22.94
575.238	23.16
575.578	23.11
575.918	23.1
576.258	23.46
576.598	23.17
576.938	23.07
577.278	23.35
577.618	23.39
577.958	23.3
578.298	23.36
578.638	23.46
578.977	23.42
579.317	23.64
579.657	23.45
579.996	23.71
580.336	23.83
580.675	23.63
581.014	23.82
581.354	23.75
581.693	23.84
582.032	23.84
582.372	23.96
582.711	24.08
583.05	24
583.389	23.86
583.728	23.89
584.067	23.82
584.406	24.08
584.745	24.12
585.083	23.95
585.422	24.3
585.761	24.37
586.1	24.37
586.438	24.36
586.777	24.43
587.115	24.46
587.454	24.37
587.792	24.14
588.13	24.36
588.469	24.36
588.807	24.6
589.145	24.42
589.483	24.43
589.821	24.39
590.159	24.7
590.497	24.48
590.835	24.57
591.173	24.72
591.511	24.67
591.849	24.76
592.187	24.43
592.524	24.53
592.862	24.73
593.2	24.98
593.537	24.87
593.875	24.8
594.212	24.92
594.55	24.91
594.887	25.13
595.224	25.21
595.561	25.05
595.899	24.91
596.236	25
596.573	25.09
596.91	24.96
597.247	25.11
597.584	25.13
597.921	24.94
598.258	25.16
598.594	24.92
598.931	24.83
599.268	24.8
599.604	24.95
599.941	25.05
600.277	25.27
600.614	25.24
600.95	25.42
601.287	25.16
601.623	25.33
601.959	25.76
602.296	25.32
602.632	25.54
602.968	25.88
603.304	25.71
603.64	25.55
603.976	25.28
604.312	25.67
604.648	25.58
604.984	25.63
605.319	25.45
605.655	25.51
605.991	25.54
606.326	25.36
606.662	25.49
606.998	25.64
607.333	25.57
607.668	25.82
608.004	25.72
608.339	25.97
608.674	26.28
609.01	26.04
609.345	25.82
609.68	26.02
610.015	26.19
610.35	26.16
610.685	25.68
611.02	25.81
611.355	26
611.689	25.87
612.024	26.1
612.359	26.32
612.694	26.29
613.028	26.25
613.363	26.37
613.697	26.03
614.032	26.43
614.366	26.23
614.7	26.52
615.035	26.74
615.369	26.66
615.703	26.53
616.037	26.64
616.371	26.48
616.705	26.31
617.039	27.05
617.373	26.76
617.707	26.84
618.041	26.76
618.375	26.08
618.709	26.95
619.042	26.78
619.376	26.89
619.71	26.65
620.043	27.17
620.377	27.15
620.71	26.74
621.043	27.26
621.377	27.17
621.71	27.57
622.043	27.19
622.376	27.41
622.709	27.36
623.043	27.2
623.376	27.07
623.709	27.44
624.041	27.31
624.374	27.29
624.707	27.34
625.04	27.39
625.373	27.7
625.705	27.3
626.038	27.61
626.37	27.5
626.703	27.15
627.035	27.34
627.368	27.95
627.7	27.55
628.032	27.47
628.365	27.63
628.697	27.76
629.029	27.51
629.361	27.91
629.693	27.59
630.025	27.69
630.357	27.73
630.689	27.91
631.021	28.05
631.353	28.04
631.684	27.78
632.016	27.6
632.348	27.75
632.679	27.88
633.011	28.08
633.342	28.1
633.674	27.82
634.005	27.91
634.336	28.36
634.668	28.3
634.999	28.35
635.33	28.16
635.661	28.09
635.992	28.11
636.323	28.44
636.654	27.89
636.985	28.17
637.316	28.41
637.647	28.41
637.977	28.41
638.308	28.42
638.639	28.52
638.969	28.65
639.3	28.79
639.63	28.5
639.961	28.58
640.291	28.8
640.622	28.96
640.952	28.72
641.282	28.91
641.612	28.51
641.943	28.61
642.273	28.83
642.603	29.18
642.933	29.2
643.263	28.81
643.592	28.88
643.922	29.22
644.252	29.44
644.582	29.09
644.911	28.75
645.241	28.67
645.571	29.22
645.9	29.23
646.23	29.37
646.559	29.06
646.888	29.39
647.218	29.24
647.547	29.77
647.876	28.83
648.205	29.17
648.534	29.16
648.863	28.99
649.192	29.13
649.521	29.54
649.85	29.4
650.179	29.75
650.508	29.35
650.837	29.63
651.165	29.48
651.494	29.85
651.822	29.66
652.151	28.82
652.479	29.13
652.808	29.52
653.136	29.56
653.465	29.38
653.793	29.49
654.121	29.43
654.449	29.62
654.777	29.45
655.105	29.43
655.433	29.96
655.761	29.76
656.089	29.42
656.417	29.98
656.745	30.11
657.073	29.4
657.4	29.96
657.728	29.41
658.056	29.44
658.383	29.66
658.711	30
659.038	30.26
659.365	30.24
659.693	29.96
660.02	30.01
660.347	29.81
660.674	29.79
661.001	30.03
661.329	30.1
661.656	29.95
661.982	29.84
662.309	30.04
662.636	29.94
662.963	29.95
663.29	30.03
663.616	30.1
663.943	30.32
664.27	30.61
664.596	30.48
664.923	30.15
665.249	30.29
665.576	30.19
665.902	30.25
666.228	30.68
666.554	29.95
666.881	30.24
667.207	30.26
667.533	30.72
667.859	30.54
668.185	30.54
668.511	30.72
668.837	30.6
669.162	30.21
669.488	30.3
669.814	30.08
670.139	30.46
670.465	30.75
670.791	30.53
671.116	31.1
671.442	30.3
671.767	30.48
672.092	30.68
672.418	30.28
672.743	30.18
673.068	31.2
673.393	30.48
673.718	30.39
