Data from 0006_chest_Reflection__4__396.txt Node

Date: Thu Dec 15 19:40:09 CST 2022
User: ToomeyLab
Spectrometer: FLMS14357
Trigger mode: 0
Integration Time (sec): 1.000000E-2
Scans to average: 100
Electric dark correction enabled: true
Nonlinearity correction enabled: false
Boxcar width: 0
XAxis mode: Wavelengths
Number of Pixels in Spectrum: 2048
>>>>>Begin Spectral Data<<<<<
189.047	31.92
189.435	31.92
189.823	31.92
190.211	-269.49
190.599	57.77
190.987	2061.54
191.375	57.14
191.763	6.5
192.151	1545.54
192.538	-8.21
192.926	-21.79
193.314	0.69
193.702	70.85
194.089	159.9
194.477	41.19
194.864	51.48
195.252	87.05
195.639	117.1
196.027	-90.59
196.414	27.41
196.801	124.34
197.189	41.15
197.576	3.52
197.963	83.52
198.351	27.33
198.738	-20.24
199.125	-53.41
199.512	-0.47
199.899	-0.14
200.286	-132.35
200.673	19.34
201.06	8.48
201.447	2.51
201.833	5.12
202.22	-11.27
202.607	-72.05
202.994	-20.13
203.38	43.44
203.767	-7.49
204.154	31.1
204.54	8.54
204.927	6.77
205.313	-3.84
205.699	-11.67
206.086	56.64
206.472	79.03
206.858	13.63
207.245	23.44
207.631	26.81
208.017	25.15
208.403	-58.51
208.789	-0.95
209.175	28.71
209.561	-41.69
209.947	6.46
210.333	-18.66
210.719	16.58
211.105	19.72
211.491	-0.76
211.876	-12.92
212.262	-8.76
212.648	11.9
213.034	20.8
213.419	6.58
213.805	-15.62
214.19	-68.24
214.576	-6.2
214.961	-8.34
215.346	-30.53
215.732	-0.24
216.117	-11.82
216.502	-3.18
216.888	5.37
217.273	13.57
217.658	-15.39
218.043	-46.61
218.428	-22.09
218.813	-24.07
219.198	-64.28
219.583	-34.87
219.968	-10.42
220.353	-21.84
220.738	-0.13
221.122	9.15
221.507	-29.43
221.892	-28.62
222.276	-34.45
222.661	-13.76
223.046	-12.2
223.43	6.71
223.815	-1.03
224.199	-6.64
224.583	4.82
224.968	-7.33
225.352	-4.99
225.736	7.44
226.121	-3.76
226.505	-5.64
226.889	4.95
227.273	-3.24
227.657	2.89
228.041	2.38
228.425	0.97
228.809	0.32
229.193	3.4
229.577	3.31
229.961	3.54
230.344	4.49
230.728	4.34
231.112	3.75
231.495	2.17
231.879	2.62
232.263	3.93
232.646	3.98
233.03	4.87
233.413	3.59
233.797	2.73
234.18	5.84
234.563	3.87
234.946	3.23
235.33	3.96
235.713	4.36
236.096	4.63
236.479	4.84
236.862	2.59
237.245	3.57
237.628	4.68
238.011	3.32
238.394	2.44
238.777	3.9
239.16	5.56
239.543	5.14
239.925	2.8
240.308	3.72
240.691	3.7
241.073	3.42
241.456	3.97
241.838	3.63
242.221	3.85
242.603	3.45
242.986	3.51
243.368	4.15
243.75	4.01
244.133	4.16
244.515	3.93
244.897	3.7
245.279	3.44
245.661	3.6
246.043	3.94
246.425	4.02
246.807	3.05
247.189	3.94
247.571	3.98
247.953	3.82
248.335	3.83
248.717	4.03
249.098	4
249.48	3.75
249.862	3.96
250.243	3.85
250.625	3.91
251.006	4.67
251.388	3.89
251.769	3.25
252.151	3.64
252.532	3.51
252.913	3.81
253.295	3.69
253.676	3.97
254.057	3.79
254.438	4.54
254.819	3.65
255.2	3.48
255.581	4.92
255.962	3.98
256.343	3.79
256.724	2.92
257.105	4.1
257.486	3.17
257.867	2.41
258.247	3.27
258.628	3.89
259.009	2.58
259.389	3.76
259.77	3.21
260.15	4.09
260.531	3.87
260.911	3.66
261.292	3.59
261.672	3.71
262.052	3.8
262.432	3.35
262.813	3.22
263.193	3.48
263.573	3.76
263.953	3.42
264.333	3.71
264.713	3.83
265.093	3.26
265.473	4.02
265.853	3.74
266.233	3.19
266.612	3.1
266.992	3.19
267.372	3.54
267.752	3.49
268.131	4.05
268.511	3.1
268.89	3.92
269.27	3.2
269.649	3.12
270.029	3.38
270.408	3.04
270.787	3.64
271.167	3.45
271.546	4.33
271.925	3.94
272.304	3.57
272.683	3.42
273.062	3.58
273.441	3.11
273.82	3.47
274.199	3.36
274.578	3.52
274.957	3.39
275.336	3.53
275.715	3.97
276.093	3.12
276.472	2.93
276.851	3.61
277.229	3.69
277.608	2.55
277.986	3.42
278.365	3.36
278.743	3.44
279.122	3.16
279.5	3.33
279.878	2.98
280.257	3.31
280.635	3.63
281.013	2.62
281.391	2.73
281.769	3.95
282.147	3.21
282.525	3.41
282.903	3.06
283.281	3.39
283.659	3.78
284.037	3.19
284.415	3.45
284.792	3.68
285.17	3.33
285.548	3.3
285.925	3.69
286.303	3.55
286.68	3.37
287.058	3.25
287.435	3.25
287.813	3.13
288.19	3.11
288.567	3.34
288.945	3.03
289.322	3.16
289.699	3.4
290.076	3.33
290.453	2.87
290.83	3.45
291.207	2.9
291.584	3.25
291.961	3.23
292.338	3.07
292.715	3.18
293.092	3.67
293.469	3.69
293.845	2.98
294.222	3.52
294.599	3.27
294.975	2.95
295.352	3.41
295.728	3.17
296.105	3.6
296.481	3.4
296.858	3.48
297.234	3.03
297.61	3.37
297.986	3.65
298.363	3.85
298.739	3.62
299.115	3.37
299.491	3.61
299.867	3.06
300.243	3.39
300.619	3.19
300.995	3.27
301.371	3.44
301.746	3.89
302.122	3.26
302.498	3.13
302.874	3.71
303.249	3.83
303.625	3.3
304	3.66
304.376	3.89
304.751	3.55
305.127	3.6
305.502	3.71
305.878	3.65
306.253	3.23
306.628	3.6
307.003	3.28
307.378	3.26
307.754	4.23
308.129	3.06
308.504	3.91
308.879	3.61
309.254	4.06
309.629	3.67
310.003	3.28
310.378	4.01
310.753	3.45
311.128	3.38
311.502	3.43
311.877	3.55
312.252	3.62
312.626	3.73
313.001	3.26
313.375	3.53
313.75	3.68
314.124	3.73
314.498	3.93
314.873	3.26
315.247	3.25
315.621	3.32
315.995	3.67
316.369	3.05
316.743	3.33
317.117	3.02
317.491	3.61
317.865	3.18
318.239	4.18
318.613	3.35
318.987	3.65
319.361	3.9
319.734	3.18
320.108	3.66
320.482	3.52
320.855	3.29
321.229	3.42
321.602	3.66
321.976	3.35
322.349	4.29
322.723	3.37
323.096	4
323.469	3.2
323.843	3.2
324.216	3.95
324.589	3.97
324.962	3.52
325.335	3.55
325.708	3.45
326.081	3.9
326.454	3.83
326.827	3.42
327.2	2.96
327.573	3.67
327.945	3.66
328.318	3.33
328.691	3.73
329.063	3.03
329.436	3.13
329.809	3.92
330.181	4.19
330.553	3.73
330.926	4.56
331.298	3.32
331.671	4.18
332.043	3.69
332.415	3.28
332.787	4.35
333.159	3.58
333.532	3.29
333.904	3.82
334.276	3.61
334.648	3.72
335.02	3.62
335.391	3.57
335.763	3.82
336.135	3.71
336.507	3.01
336.879	3.94
337.25	3.72
337.622	3.43
337.993	3.38
338.365	3.56
338.736	3.6
339.108	3.64
339.479	3.47
339.851	3.97
340.222	4.02
340.593	3.84
340.964	3.62
341.336	3.26
341.707	3.58
342.078	3.2
342.449	3.59
342.82	3.83
343.191	3.43
343.562	3.68
343.933	3.69
344.303	4.09
344.674	3.97
345.045	3.73
345.416	3.74
345.786	3.87
346.157	4.11
346.527	3.59
346.898	3.35
347.268	3.77
347.639	3.62
348.009	4.06
348.38	3.59
348.75	3.8
349.12	3.84
349.49	3.44
349.861	4.05
350.231	3.29
350.601	3.78
350.971	3.16
351.341	3.64
351.711	4.02
352.081	3.69
352.45	3.48
352.82	3.26
353.19	3.69
353.56	3.55
353.929	3.39
354.299	4.17
354.669	4.05
355.038	3.82
355.408	3.98
355.777	4
356.147	3.61
356.516	3.54
356.885	3.78
357.254	3.63
357.624	3.48
357.993	3.91
358.362	3.7
358.731	3.93
359.1	3.92
359.469	3.94
359.838	3.9
360.207	3.79
360.576	3.87
360.945	4.17
361.314	3.59
361.682	3.64
362.051	3.91
362.42	3.86
362.788	3.85
363.157	3.49
363.525	3.89
363.894	3.89
364.262	3.78
364.631	4.18
364.999	3.88
365.367	3.83
365.735	3.68
366.104	4.05
366.472	3.74
366.84	3.94
367.208	4.33
367.576	3.59
367.944	4.2
368.312	3.99
368.68	4.36
369.048	3.92
369.416	3.54
369.783	3.87
370.151	4.35
370.519	4.06
370.886	4
371.254	4.32
371.621	4.16
371.989	4.04
372.356	3.76
372.724	3.8
373.091	3.8
373.458	3.86
373.826	4.01
374.193	4.04
374.56	3.99
374.927	3.73
375.294	4.11
375.661	3.92
376.028	3.77
376.395	3.91
376.762	3.89
377.129	3.79
377.496	4.1
377.863	3.93
378.229	4.03
378.596	4.09
378.963	3.99
379.329	3.93
379.696	3.65
380.062	3.95
380.429	3.74
380.795	4.17
381.161	3.8
381.528	3.47
381.894	3.85
382.26	4.02
382.626	4.1
382.993	4.39
383.359	3.71
383.725	3.72
384.091	3.97
384.457	3.55
384.823	4.22
385.188	3.96
385.554	4.01
385.92	3.68
386.286	4.05
386.651	3.89
387.017	4.29
387.383	3.7
387.748	4.03
388.114	4.28
388.479	3.91
388.845	3.71
389.21	4.42
389.575	4.24
389.94	4.19
390.306	4.14
390.671	3.99
391.036	3.76
391.401	4.14
391.766	3.73
392.131	4.11
392.496	4.03
392.861	3.94
393.226	4.06
393.591	4.04
393.956	4.13
394.32	4.21
394.685	4.15
395.05	4.07
395.414	4.12
395.779	4.33
396.143	3.8
396.508	3.94
396.872	4.17
397.236	4.15
397.601	3.81
397.965	4.29
398.329	4.14
398.694	3.79
399.058	4.03
399.422	4.05
399.786	3.95
400.15	4.15
400.514	4.28
400.878	4.14
401.242	4.15
401.605	3.93
401.969	4
402.333	3.96
402.697	4.19
403.06	4.25
403.424	4.3
403.787	4.08
404.151	4.29
404.514	4.22
404.878	3.84
405.241	4.15
405.604	4.07
405.968	4.13
406.331	4.2
406.694	4.18
407.057	4.02
407.42	3.92
407.783	4.2
408.146	4.11
408.509	4.35
408.872	4.09
409.235	4.19
409.598	4.22
409.961	4.22
410.323	4.12
410.686	4.35
411.049	4.17
411.411	4.12
411.774	4.09
412.136	4.04
412.499	4.39
412.861	4.09
413.223	4.05
413.586	4.2
413.948	4.43
414.31	4.19
414.672	4.15
415.035	4.33
415.397	4.15
415.759	3.86
416.121	4.53
416.483	4.06
416.845	4.23
417.206	4.15
417.568	4.1
417.93	4.23
418.292	4.18
418.653	3.85
419.015	4.18
419.377	4.03
419.738	4.25
420.1	4.2
420.461	4.08
420.822	4.17
421.184	4.11
421.545	4.2
421.906	4.1
422.267	4.1
422.629	4.09
422.99	4.07
423.351	4.12
423.712	4.15
424.073	4.2
424.434	4.32
424.795	4.11
425.155	4.1
425.516	4.08
425.877	4.14
426.238	4.09
426.598	4.15
426.959	4.21
427.32	4.16
427.68	4.21
428.041	4.24
428.401	4.13
428.761	4.35
429.122	4.17
429.482	4.33
429.842	4.22
430.202	4.31
430.563	4.33
430.923	4.24
431.283	4.35
431.643	4.47
432.003	4.25
432.363	4.39
432.722	4.32
433.082	4.34
433.442	4.29
433.802	4.33
434.161	4.3
434.521	4.33
434.881	4.25
435.24	4.15
435.6	4.34
435.959	4.31
436.319	4.27
436.678	4.36
437.037	4.28
437.396	4.3
437.756	4.11
438.115	4.38
438.474	4.45
438.833	4.26
439.192	4.17
439.551	4.17
439.91	4.26
440.269	4.2
440.628	4.24
440.987	4.31
441.345	4.21
441.704	4.23
442.063	4.19
442.421	4.22
442.78	4.21
443.138	4.22
443.497	4.22
443.855	4.41
444.214	4.22
444.572	4.43
444.93	4.39
445.288	4.36
445.647	4.22
446.005	4.33
446.363	4.3
446.721	4.31
447.079	4.28
447.437	4.33
447.795	4.36
448.153	4.27
448.51	4.36
448.868	4.25
449.226	4.29
449.584	4.19
449.941	4.38
450.299	4.24
450.656	4.32
451.014	4.57
451.371	4.35
451.729	4.39
452.086	4.42
452.443	4.5
452.801	4.36
453.158	4.56
453.515	4.31
453.872	4.36
454.229	4.22
454.586	4.29
454.943	4.41
455.3	4.47
455.657	4.43
456.014	4.5
456.371	4.33
456.727	4.55
457.084	4.4
457.441	4.49
457.797	4.33
458.154	4.49
458.51	4.36
458.867	4.4
459.223	4.38
459.58	4.37
459.936	4.36
460.292	4.22
460.648	4.36
461.005	4.28
461.361	4.32
461.717	4.33
462.073	4.34
462.429	4.41
462.785	4.47
463.141	4.46
463.496	4.42
463.852	4.6
464.208	4.5
464.564	4.32
464.919	4.45
465.275	4.47
465.631	4.48
465.986	4.52
466.342	4.42
466.697	4.39
467.052	4.59
467.408	4.59
467.763	4.39
468.118	4.27
468.473	4.43
468.829	4.46
469.184	4.53
469.539	4.42
469.894	4.53
470.249	4.56
470.603	4.52
470.958	4.63
471.313	4.52
471.668	4.59
472.023	4.57
472.377	4.47
472.732	4.64
473.086	4.47
473.441	4.45
473.795	4.64
474.15	4.5
474.504	4.43
474.859	4.29
475.213	4.68
475.567	4.45
475.921	4.56
476.275	4.63
476.63	4.76
476.984	4.35
477.338	4.74
477.692	4.55
478.045	4.53
478.399	4.51
478.753	4.47
479.107	4.51
479.461	4.42
479.814	4.58
480.168	4.51
480.521	4.62
480.875	4.57
481.228	4.53
481.582	4.59
481.935	4.63
482.289	4.62
482.642	4.65
482.995	4.59
483.348	4.57
483.701	4.59
484.055	4.45
484.408	4.56
484.761	4.35
485.114	4.29
485.466	4.27
485.819	4.28
486.172	4.33
486.525	4.39
486.878	4.44
487.23	4.47
487.583	4.48
487.936	4.44
488.288	4.48
488.641	4.43
488.993	4.42
489.345	4.42
489.698	4.43
490.05	4.37
490.402	4.4
490.754	4.5
491.107	4.51
491.459	4.54
491.811	4.66
492.163	4.59
492.515	4.46
492.866	4.44
493.218	4.49
493.57	4.5
493.922	4.52
494.274	4.56
494.625	4.66
494.977	4.63
495.328	4.63
495.68	4.66
496.031	4.62
496.383	4.58
496.734	4.74
497.086	4.74
497.437	4.71
497.788	4.73
498.139	4.77
498.49	4.71
498.842	4.77
499.193	4.59
499.544	4.74
499.894	4.71
500.245	4.84
500.596	4.71
500.947	4.68
501.298	4.72
501.648	4.72
501.999	4.8
502.35	4.71
502.7	4.89
503.051	4.73
503.401	4.71
503.752	4.72
504.102	4.71
504.452	4.78
504.803	4.76
505.153	4.81
505.503	4.91
505.853	4.88
506.203	4.89
506.553	4.76
506.903	4.89
507.253	4.79
507.603	4.85
507.953	4.86
508.303	4.97
508.652	4.84
509.002	4.97
509.352	4.89
509.701	4.81
510.051	4.89
510.4	4.87
510.75	4.82
511.099	4.75
511.449	4.9
511.798	4.79
512.147	4.84
512.496	4.96
512.846	4.85
513.195	4.86
513.544	4.88
513.893	4.89
514.242	4.88
514.591	4.88
514.939	4.9
515.288	4.94
515.637	4.88
515.986	4.91
516.334	5
516.683	4.91
517.032	4.86
517.38	4.83
517.729	4.85
518.077	4.97
518.426	5.05
518.774	4.89
519.122	4.98
519.47	4.93
519.819	4.9
520.167	4.85
520.515	4.96
520.863	4.93
521.211	4.89
521.559	4.9
521.907	4.98
522.255	4.95
522.602	5.05
522.95	5.09
523.298	4.99
523.645	4.91
523.993	5.05
524.341	4.99
524.688	5.16
525.036	5.04
525.383	5.07
525.73	5.01
526.078	5.16
526.425	5.09
526.772	5.01
527.119	5
527.466	5.07
527.814	5.07
528.161	5.07
528.508	5.14
528.854	4.98
529.201	4.97
529.548	4.97
529.895	4.89
530.242	4.9
530.588	4.9
530.935	4.9
531.282	4.94
531.628	5.01
531.975	5.02
532.321	5.07
532.667	5.14
533.014	5.2
533.36	5.16
533.706	5.11
534.052	5.21
534.399	5.17
534.745	5.11
535.091	5.03
535.437	5.12
535.783	5.09
536.129	5.04
536.474	5.22
536.82	5.29
537.166	5.14
537.512	5.25
537.857	5.25
538.203	5.23
538.549	5.17
538.894	5.29
539.239	5.26
539.585	5.29
539.93	5.37
540.276	5.32
540.621	5.41
540.966	5.42
541.311	5.44
541.656	5.33
542.001	5.34
542.346	5.34
542.691	5.18
543.036	5.24
543.381	5.25
543.726	5.3
544.071	5.29
544.415	5.33
544.76	5.31
545.105	5.39
545.449	5.37
545.794	5.4
546.138	5.45
546.483	5.53
546.827	5.47
547.171	5.6
547.516	5.51
547.86	5.69
548.204	5.58
548.548	5.5
548.892	5.5
549.236	5.52
549.58	5.7
549.924	5.68
550.268	5.73
550.612	5.76
550.956	5.75
551.3	5.87
551.643	5.79
551.987	5.91
552.33	5.79
552.674	5.79
553.017	5.9
553.361	5.89
553.704	5.92
554.048	5.82
554.391	5.82
554.734	5.79
555.077	5.88
555.42	5.81
555.764	5.79
556.107	6.01
556.45	6
556.793	5.94
557.135	6.01
557.478	5.9
557.821	5.98
558.164	6
558.507	5.82
558.849	6.05
559.192	6
559.534	6.01
559.877	5.96
560.219	5.96
560.562	5.94
560.904	6.11
561.246	6.05
561.589	6.34
561.931	6.06
562.273	6.14
562.615	6.11
562.957	5.99
563.299	6.19
563.641	6.14
563.983	6.15
564.325	6.25
564.667	6.25
565.008	6.08
565.35	6.16
565.692	6.27
566.033	6.3
566.375	6.35
566.716	6.28
567.058	6.31
567.399	6.46
567.741	6.37
568.082	6.25
568.423	6.29
568.764	6.46
569.105	6.35
569.447	6.28
569.788	6.43
570.129	6.43
570.47	6.42
570.811	6.36
571.151	6.38
571.492	6.37
571.833	6.45
572.174	6.64
572.514	6.55
572.855	6.6
573.195	6.48
573.536	6.58
573.876	6.6
574.217	6.53
574.557	6.61
574.898	6.6
575.238	6.66
575.578	6.87
575.918	6.75
576.258	6.96
576.598	6.61
576.938	6.51
577.278	6.83
577.618	6.63
577.958	6.84
578.298	7.04
578.638	6.85
578.977	6.87
579.317	7
579.657	6.79
579.996	7.06
580.336	7.14
580.675	6.93
581.014	6.97
581.354	6.85
581.693	7.21
582.032	7.19
582.372	7.26
582.711	7.06
583.05	6.87
583.389	7.12
583.728	7.17
584.067	7.01
584.406	7.23
584.745	7.42
585.083	7.02
585.422	7.42
585.761	7.35
586.1	7.34
586.438	7.29
586.777	7.17
587.115	7.29
587.454	7.17
587.792	7.36
588.13	7.44
588.469	7.31
588.807	7.55
589.145	7.63
589.483	7.37
589.821	7.56
590.159	7.57
590.497	7.42
590.835	7.61
591.173	7.62
591.511	7.69
591.849	7.58
592.187	7.55
592.524	7.64
592.862	7.53
593.2	7.75
593.537	7.68
593.875	7.59
594.212	7.8
594.55	7.8
594.887	7.85
595.224	7.92
595.561	7.83
595.899	7.99
596.236	8.1
596.573	7.74
596.91	7.65
597.247	8
597.584	8.06
597.921	7.96
598.258	8
598.594	7.7
598.931	7.84
599.268	7.9
599.604	8.08
599.941	7.98
600.277	8.18
600.614	8.03
600.95	8.15
601.287	8.04
601.623	8
601.959	8.65
602.296	8.19
602.632	8.34
602.968	8.33
603.304	8.27
603.64	8.2
603.976	8.19
604.312	8.31
604.648	8.42
604.984	8.42
605.319	8.48
605.655	8.45
605.991	8.33
606.326	8.35
606.662	8.25
606.998	8.46
607.333	8.42
607.668	8.24
608.004	8.43
608.339	8.76
608.674	8.65
609.01	8.68
609.345	8.77
609.68	8.49
610.015	8.82
610.35	8.74
610.685	8.64
611.02	8.62
611.355	8.66
611.689	8.64
612.024	9.02
612.359	8.9
612.694	8.92
613.028	8.84
613.363	9.05
613.697	8.9
614.032	8.98
614.366	8.9
614.7	8.96
615.035	9.23
615.369	9.16
615.703	9.06
616.037	9.32
616.371	8.95
616.705	9.27
617.039	9.19
617.373	9.45
617.707	9.23
618.041	9.26
618.375	8.72
618.709	9.36
619.042	8.89
619.376	9.54
619.71	9.06
620.043	9.68
620.377	9.63
620.71	9.38
621.043	9.51
621.377	9.58
621.71	9.71
622.043	9.56
622.376	9.69
622.709	9.68
623.043	9.59
623.376	9.7
623.709	10.08
624.041	9.58
624.374	9.65
624.707	9.77
625.04	9.77
625.373	9.92
625.705	9.99
626.038	9.96
626.37	9.83
626.703	9.94
627.035	10
627.368	10.28
627.7	10.06
628.032	9.87
628.365	10.09
628.697	10.46
629.029	10.09
629.361	10.24
629.693	10.13
630.025	10.12
630.357	10.41
630.689	10.12
631.021	10.19
631.353	10.26
631.684	10.19
632.016	10.09
632.348	10.04
632.679	10.47
633.011	10.29
633.342	10.22
633.674	10.2
634.005	10.24
634.336	10.71
634.668	10.35
634.999	10.69
635.33	10.95
635.661	10.39
635.992	10.75
636.323	10.96
636.654	10.38
636.985	10.32
637.316	10.69
637.647	10.79
637.977	10.76
638.308	11.17
638.639	10.68
638.969	10.78
639.3	10.87
639.63	10.84
639.961	11.07
640.291	10.92
640.622	11.07
640.952	10.96
641.282	11.06
641.612	10.87
641.943	10.84
642.273	11.03
642.603	10.98
642.933	11.26
643.263	11.52
643.592	11.85
643.922	11.85
644.252	11.24
644.582	11.58
644.911	11.3
645.241	11.14
645.571	11.58
645.9	11.44
646.23	11.66
646.559	11.38
646.888	11.7
647.218	11.75
647.547	11.48
647.876	11.44
648.205	11.11
648.534	11.48
648.863	11.49
649.192	12.01
649.521	11.77
649.85	12.32
650.179	11.86
650.508	11.94
650.837	11.71
651.165	11.9
651.494	11.86
651.822	11.97
652.151	11.62
652.479	11.8
652.808	12.27
653.136	11.65
653.465	11.88
653.793	11.86
654.121	12.24
654.449	12.05
654.777	11.88
655.105	11.86
655.433	12.82
655.761	12.34
656.089	12.17
656.417	13.04
656.745	12.77
657.073	12.02
657.4	11.9
657.728	11.98
658.056	12.15
658.383	12.49
658.711	12.64
659.038	12.58
659.365	12.79
659.693	12.36
660.02	12.52
660.347	12.55
660.674	12.54
661.001	12.48
661.329	12.58
661.656	12.33
661.982	12.61
662.309	12.54
662.636	12.47
662.963	12.92
663.29	12.87
663.616	12.79
663.943	12.97
664.27	12.92
664.596	12.65
664.923	12.73
665.249	13.78
665.576	12.75
665.902	13.13
666.228	13.62
666.554	13.71
666.881	13.28
667.207	13.01
667.533	12.72
667.859	13.17
668.185	13.47
668.511	13.61
668.837	13.64
669.162	13.92
669.488	12.74
669.814	12.79
670.139	13.2
670.465	13.54
670.791	12.9
671.116	13.78
671.442	13.19
671.767	13.36
672.092	13.11
672.418	13.62
672.743	13.69
673.068	13.53
673.393	13.48
673.718	13.16
674.043	13.43
674.368	14.08
674.693	13.52
675.018	13.93
675.343	14.25
675.667	13.59
675.992	13.55
676.317	13.54
676.641	13.87
676.966	14.06
677.29	13.51
677.615	13.93
677.939	14.15
678.264	14.23
678.588	14.6
678.912	14.01
679.236	14.14
679.56	14.26
679.885	14.09
680.209	14.3
680.532	14.48
680.856	14.17
681.18	14.99
681.504	14.46
681.828	14.04
682.152	14.74
682.475	14.22
682.799	14.57
683.122	14.37
683.446	13.94
683.769	14.68
684.093	14.36
684.416	14.02
684.739	14.22
685.062	14.63
685.386	14.5
685.709	14.55
686.032	14.41
686.355	14.05
686.678	14.91
687.001	15.1
687.324	14.89
687.646	14.99
687.969	14.75
