Data from 0006_forehead_Reflection__4__406.txt Node

Date: Thu Dec 15 19:42:51 CST 2022
User: ToomeyLab
Spectrometer: FLMS14357
Trigger mode: 0
Integration Time (sec): 1.000000E-2
Scans to average: 100
Electric dark correction enabled: true
Nonlinearity correction enabled: false
Boxcar width: 0
XAxis mode: Wavelengths
Number of Pixels in Spectrum: 2048
>>>>>Begin Spectral Data<<<<<
189.047	80.91
189.435	80.91
189.823	80.91
190.211	-60.73
190.599	31.48
190.987	-3192.31
191.375	-59.77
191.763	259.46
192.151	2460.56
192.538	-27.5
192.926	99.44
193.314	86.38
193.702	191.1
194.089	208.52
194.477	66.1
194.864	92.49
195.252	205.24
195.639	143.88
196.027	262.23
196.414	-19.16
196.801	-9.2
197.189	51.32
197.576	-92.61
197.963	335.99
198.351	9.07
198.738	6.85
199.125	-82.92
199.512	25.16
199.899	-32.57
200.286	-92.93
200.673	19.65
201.06	-22.4
201.447	-27.36
201.833	-15.18
202.22	23.11
202.607	2.48
202.994	5.23
203.38	88.61
203.767	-29.44
204.154	15.8
204.54	-16.08
204.927	25.08
205.313	16.76
205.699	26.48
206.086	21.06
206.472	10.76
206.858	-4.4
207.245	-33.53
207.631	-3.07
208.017	20.54
208.403	-50.38
208.789	5.11
209.175	38.25
209.561	-37.22
209.947	-31.09
210.333	16.6
210.719	-7.82
211.105	38.17
211.491	-11.38
211.876	-37.13
212.262	-0.86
212.648	-3.48
213.034	-14.37
213.419	15.79
213.805	-24.61
214.19	-36.77
214.576	-24.9
214.961	-1.97
215.346	-58.05
215.732	-25.02
216.117	6.23
216.502	-0.91
216.888	15.68
217.273	-19.31
217.658	-16.17
218.043	-36.73
218.428	-26.32
218.813	21.87
219.198	-41.39
219.583	-11.19
219.968	-1.17
220.353	-27.16
220.738	-7.06
221.122	-1.08
221.507	-1.95
221.892	-16.66
222.276	-30.98
222.661	-8.68
223.046	-23.53
223.43	4.48
223.815	2.67
224.199	-4.98
224.583	-1.9
224.968	1.25
225.352	-19.2
225.736	9.41
226.121	-13.33
226.505	-2.59
226.889	2.32
227.273	-1.72
227.657	0.62
228.041	1.63
228.425	-1.65
228.809	2.43
229.193	1.93
229.577	1.32
229.961	1.24
230.344	2.5
230.728	2.63
231.112	3.08
231.495	1.46
231.879	1.61
232.263	2.36
232.646	2.71
233.03	3.31
233.413	2.71
233.797	0.81
234.18	3.66
234.563	2.36
234.946	0.57
235.33	1.64
235.713	2.69
236.096	2.73
236.479	3.66
236.862	1.74
237.245	2.48
237.628	2.28
238.011	2.92
238.394	1.01
238.777	2.3
239.16	3.75
239.543	4.69
239.925	2.07
240.308	1.44
240.691	3.21
241.073	4.11
241.456	2.37
241.838	3.22
242.221	3.39
242.603	2.79
242.986	3.01
243.368	2.63
243.75	3.13
244.133	3.22
244.515	2.93
244.897	2.99
245.279	2.58
245.661	2.73
246.043	3.57
246.425	3.34
246.807	2.57
247.189	3.02
247.571	2.92
247.953	3
248.335	3.08
248.717	3.2
249.098	3.08
249.48	3.29
249.862	3.05
250.243	3.18
250.625	3.22
251.006	4.37
251.388	2.78
251.769	2.23
252.151	3.33
252.532	3.34
252.913	2.93
253.295	3.42
253.676	3.06
254.057	2.89
254.438	2.7
254.819	3.12
255.2	3.42
255.581	4.32
255.962	3.96
256.343	3.41
256.724	3.62
257.105	3.22
257.486	2.4
257.867	2.61
258.247	3.09
258.628	2.95
259.009	2.76
259.389	2.88
259.77	2.78
260.15	3.88
260.531	3.1
260.911	3.22
261.292	3.14
261.672	3.2
262.052	3.24
262.432	3.3
262.813	3.01
263.193	3.13
263.573	2.87
263.953	2.61
264.333	3.55
264.713	3.65
265.093	3.28
265.473	3.59
265.853	2.68
266.233	3.49
266.612	2.96
266.992	3.44
267.372	3.45
267.752	3.77
268.131	3.03
268.511	2.92
268.89	3.58
269.27	2.48
269.649	2.98
270.029	2.84
270.408	2.54
270.787	3.1
271.167	3.12
271.546	3.65
271.925	3.2
272.304	2.91
272.683	2.85
273.062	2.83
273.441	2.96
273.82	3.18
274.199	3
274.578	3.06
274.957	3.22
275.336	3.3
275.715	3.12
276.093	2.87
276.472	2.66
276.851	2.98
277.229	3.02
277.608	2.78
277.986	3.03
278.365	3.28
278.743	3.1
279.122	2.71
279.5	2.67
279.878	2.63
280.257	2.45
280.635	3.78
281.013	2.73
281.391	2.75
281.769	3.79
282.147	3.37
282.525	2.71
282.903	3.17
283.281	3.12
283.659	3.41
284.037	2.84
284.415	2.85
284.792	3.16
285.17	2.59
285.548	3.01
285.925	2.8
286.303	3.7
286.68	3.14
287.058	3.34
287.435	2.9
287.813	3.26
288.19	2.96
288.567	3.29
288.945	3.06
289.322	3.2
289.699	3.13
290.076	3.28
290.453	3.1
290.83	3.21
291.207	3.02
291.584	3.31
291.961	3.34
292.338	3.3
292.715	3.4
293.092	3.7
293.469	3.45
293.845	3.75
294.222	3.97
294.599	3.12
294.975	3.54
295.352	3.66
295.728	3.43
296.105	3.62
296.481	3.8
296.858	3.91
297.234	3.24
297.61	3.77
297.986	3.99
298.363	3.89
298.739	4.08
299.115	3.89
299.491	3.92
299.867	3.38
300.243	3.81
300.619	3.47
300.995	4.26
301.371	3.92
301.746	4.1
302.122	3.79
302.498	4.15
302.874	4.15
303.249	4.24
303.625	3.54
304	4.1
304.376	4.68
304.751	4.26
305.127	4.29
305.502	4.25
305.878	4.51
306.253	4.15
306.628	4.04
307.003	4.22
307.378	4.85
307.754	4.65
308.129	4.17
308.504	4.35
308.879	4.49
309.254	5
309.629	4.39
310.003	4.37
310.378	5.04
310.753	4.49
311.128	4.43
311.502	4.51
311.877	4.51
312.252	4.85
312.626	5.12
313.001	5.13
313.375	5.15
313.75	5.29
314.124	5.41
314.498	4.87
314.873	4.45
315.247	4.94
315.621	5.17
315.995	5.18
316.369	4.54
316.743	4.72
317.117	5.11
317.491	5.22
317.865	4.71
318.239	5.75
318.613	5.11
318.987	4.93
319.361	5.28
319.734	5.18
320.108	5.4
320.482	5.77
320.855	5.34
321.229	5.73
321.602	5.85
321.976	5.43
322.349	6.17
322.723	5.42
323.096	5.65
323.469	5.95
323.843	5.55
324.216	5.48
324.589	6.12
324.962	5.57
325.335	5.86
325.708	5.66
326.081	5.75
326.454	6.21
326.827	6.1
327.2	5.73
327.573	6.22
327.945	5.47
328.318	5.88
328.691	5.96
329.063	5.95
329.436	6.01
329.809	6.49
330.181	6.7
330.553	6.64
330.926	6.11
331.298	6.52
331.671	6.54
332.043	6.38
332.415	6.17
332.787	6.32
333.159	5.98
333.532	6.57
333.904	6.74
334.276	6.58
334.648	6.23
335.02	6.49
335.391	6.56
335.763	6.71
336.135	6.95
336.507	6.44
336.879	6.66
337.25	6.73
337.622	6.93
337.993	6.66
338.365	6.82
338.736	6.89
339.108	7.06
339.479	6.51
339.851	7.36
340.222	7.18
340.593	7.21
340.964	6.89
341.336	7.01
341.707	6.77
342.078	6.62
342.449	7.32
342.82	7.03
343.191	7
343.562	7.41
343.933	6.61
344.303	7.39
344.674	7.62
345.045	7.54
345.416	8.16
345.786	7.52
346.157	8.1
346.527	7.2
346.898	7.17
347.268	7.4
347.639	7.9
348.009	7.72
348.38	7.63
348.75	7.88
349.12	7.45
349.49	7.85
349.861	8.03
350.231	7.93
350.601	7.95
350.971	7.44
351.341	8.02
351.711	7.79
352.081	7.84
352.45	7.78
352.82	7.75
353.19	7.82
353.56	7.91
353.929	8.21
354.299	8.5
354.669	8.21
355.038	8.58
355.408	8.19
355.777	8.5
356.147	8.11
356.516	8.19
356.885	8.23
357.254	8.41
357.624	7.99
357.993	8.44
358.362	8.79
358.731	8.45
359.1	8.71
359.469	8.75
359.838	8.55
360.207	8.67
360.576	8.68
360.945	8.8
361.314	8.7
361.682	8.84
362.051	8.85
362.42	8.98
362.788	8.9
363.157	8.83
363.525	8.8
363.894	8.74
364.262	8.88
364.631	9.27
364.999	9.05
365.367	9.12
365.735	8.91
366.104	9.09
366.472	8.87
366.84	9.26
367.208	9.59
367.576	9.11
367.944	9.51
368.312	9.09
368.68	9.59
369.048	9.5
369.416	9.14
369.783	9.55
370.151	9.93
370.519	9.83
370.886	9.88
371.254	10.06
371.621	9.61
371.989	9.66
372.356	9.65
372.724	9.81
373.091	9.45
373.458	9.72
373.826	10.08
374.193	9.94
374.56	9.86
374.927	10.02
375.294	10.15
375.661	9.74
376.028	10.02
376.395	10.19
376.762	9.9
377.129	10.02
377.496	10.38
377.863	10.22
378.229	10.35
378.596	10.47
378.963	10.59
379.329	10.47
379.696	10.42
380.062	10.28
380.429	10.34
380.795	11.04
381.161	10.37
381.528	10.68
381.894	10.65
382.26	10.78
382.626	10.79
382.993	10.95
383.359	10.7
383.725	10.35
384.091	11.16
384.457	10.58
384.823	10.91
385.188	10.87
385.554	10.85
385.92	10.77
386.286	11.14
386.651	11.21
387.017	11.44
387.383	11.07
387.748	11.44
388.114	11.36
388.479	11.11
388.845	10.97
389.21	11.51
389.575	11.55
389.94	11.51
390.306	11.48
390.671	11.39
391.036	11.38
391.401	11.45
391.766	11.56
392.131	11.8
392.496	11.75
392.861	11.64
393.226	11.36
393.591	11.87
393.956	11.67
394.32	11.87
394.685	11.84
395.05	11.72
395.414	11.9
395.779	12.13
396.143	11.81
396.508	11.81
396.872	12.02
397.236	12.05
397.601	12.27
397.965	12.16
398.329	12.34
398.694	11.98
399.058	12.05
399.422	12.15
399.786	12.19
400.15	12.27
400.514	12.39
400.878	12.35
401.242	12.58
401.605	12.47
401.969	12.38
402.333	12.48
402.697	12.83
403.06	12.72
403.424	12.45
403.787	12.57
404.151	12.81
404.514	12.76
404.878	12.53
405.241	12.73
405.604	12.7
405.968	12.78
406.331	12.87
406.694	13.08
407.057	12.8
407.42	12.99
407.783	13.05
408.146	12.98
408.509	13.05
408.872	12.99
409.235	13.01
409.598	13.15
409.961	13.13
410.323	13.26
410.686	13.09
411.049	13.37
411.411	13.34
411.774	13.31
412.136	13.36
412.499	13.42
412.861	13.07
413.223	13.25
413.586	13.75
413.948	13.69
414.31	13.5
414.672	13.7
415.035	13.85
415.397	13.63
415.759	13.44
416.121	13.93
416.483	13.65
416.845	13.82
417.206	13.62
417.568	13.8
417.93	13.73
418.292	13.6
418.653	13.57
419.015	14.03
419.377	13.81
419.738	13.94
420.1	13.97
420.461	13.72
420.822	13.91
421.184	13.89
421.545	13.92
421.906	13.83
422.267	13.85
422.629	13.75
422.99	13.85
423.351	13.89
423.712	14.02
424.073	14.09
424.434	14.17
424.795	14.08
425.155	14.05
425.516	13.96
425.877	14.06
426.238	14.2
426.598	14.2
426.959	14.29
427.32	14.26
427.68	14.34
428.041	14.56
428.401	14.38
428.761	14.51
429.122	14.69
429.482	14.6
429.842	14.7
430.202	14.86
430.563	15.02
430.923	14.95
431.283	14.95
431.643	14.95
432.003	14.94
432.363	15.04
432.722	14.89
433.082	14.94
433.442	15.26
433.802	15.02
434.161	15.1
434.521	15.01
434.881	15.06
435.24	15.16
435.6	15.19
435.959	15.12
436.319	15.01
436.678	15.29
437.037	15.35
437.396	15.35
437.756	15.21
438.115	15.24
438.474	15.3
438.833	15.43
439.192	15.4
439.551	15.41
439.91	15.42
440.269	15.36
440.628	15.57
440.987	15.52
441.345	15.57
441.704	15.54
442.063	15.45
442.421	15.5
442.78	15.57
443.138	15.57
443.497	15.72
443.855	15.97
444.214	15.66
444.572	16.03
444.93	15.91
445.288	15.91
445.647	15.83
446.005	16.13
446.363	15.93
446.721	15.81
447.079	15.94
447.437	15.92
447.795	15.91
448.153	15.83
448.51	15.99
448.868	15.92
449.226	16.07
449.584	16.14
449.941	16.27
450.299	16.16
450.656	16.38
451.014	16.45
451.371	16.51
451.729	16.42
452.086	16.45
452.443	16.71
452.801	16.75
453.158	16.72
453.515	16.55
453.872	16.56
454.229	16.44
454.586	16.48
454.943	16.7
455.3	16.85
455.657	16.64
456.014	16.82
456.371	16.94
456.727	16.86
457.084	17.09
457.441	17.11
457.797	17.12
458.154	17.11
458.51	17.01
458.867	17.12
459.223	17.01
459.58	17.12
459.936	17
460.292	16.94
460.648	16.93
461.005	16.9
461.361	16.89
461.717	16.94
462.073	17.07
462.429	17.13
462.785	17.29
463.141	17.56
463.496	17.64
463.852	17.58
464.208	17.62
464.564	17.52
464.919	17.69
465.275	17.64
465.631	17.87
465.986	17.79
466.342	17.62
466.697	17.77
467.052	17.86
467.408	17.79
467.763	18.02
468.118	17.62
468.473	18.06
468.829	17.92
469.184	18.02
469.539	17.85
469.894	18.02
470.249	18.09
470.603	18.22
470.958	18.13
471.313	18.29
471.668	18.12
472.023	18.3
472.377	18.24
472.732	18.38
473.086	18.47
473.441	18.61
473.795	18.52
474.15	18.49
474.504	18.41
474.859	18.28
475.213	18.67
475.567	18.51
475.921	18.81
476.275	18.81
476.63	18.84
476.984	18.54
477.338	18.82
477.692	18.66
478.045	18.68
478.399	18.71
478.753	18.9
479.107	18.7
479.461	18.85
479.814	18.8
480.168	18.8
480.521	19.15
480.875	19.14
481.228	18.98
481.582	18.98
481.935	19.05
482.289	19.02
482.642	19.04
482.995	18.89
483.348	18.97
483.701	18.93
484.055	18.72
484.408	18.58
484.761	18.34
485.114	18.09
485.466	18.15
485.819	18.23
486.172	18.31
486.525	18.44
486.878	18.63
487.23	18.73
487.583	18.87
487.936	18.97
488.288	18.86
488.641	18.74
488.993	18.69
489.345	18.66
489.698	18.66
490.05	18.74
490.402	18.83
490.754	19.11
491.107	19.25
491.459	19.38
491.811	19.48
492.163	19.4
492.515	19.32
492.866	19.02
493.218	18.95
493.57	19.14
493.922	19.2
494.274	19.47
494.625	19.73
494.977	19.83
495.328	20.08
495.68	20.07
496.031	20.11
496.383	20.14
496.734	20.26
497.086	20.34
497.437	20.27
497.788	20.3
498.139	20.14
498.49	20.27
498.842	20.21
499.193	20.19
499.544	20.29
499.894	20.37
500.245	20.31
500.596	20.62
500.947	20.53
501.298	20.54
501.648	20.52
501.999	20.67
502.35	20.66
502.7	20.87
503.051	20.91
503.401	21
503.752	20.97
504.102	20.85
504.452	20.9
504.803	21.08
505.153	21.07
505.503	20.95
505.853	21.08
506.203	21.28
506.553	21.08
506.903	21.17
507.253	21.36
507.603	21.39
507.953	21.3
508.303	21.3
508.652	21.18
509.002	21.32
509.352	21.43
509.701	21.1
510.051	21.24
510.4	21.24
510.75	21.19
511.099	21.29
511.449	21.44
511.798	21.36
512.147	21.45
512.496	21.54
512.846	21.59
513.195	21.65
513.544	21.41
513.893	21.51
514.242	21.61
514.591	21.64
514.939	21.65
515.288	21.71
515.637	21.75
515.986	21.86
516.334	22.01
516.683	21.96
517.032	22.04
517.38	22.04
517.729	22.05
518.077	21.93
518.426	21.99
518.774	22.05
519.122	21.89
519.47	21.86
519.819	21.77
520.167	21.75
520.515	21.68
520.863	21.82
521.211	21.91
521.559	22.05
521.907	22.17
522.255	22.2
522.602	22.46
522.95	22.45
523.298	22.52
523.645	22.37
523.993	22.45
524.341	22.58
524.688	22.59
525.036	22.66
525.383	22.65
525.73	22.56
526.078	22.76
526.425	22.65
526.772	22.38
527.119	22.36
527.466	22.38
527.814	22.42
528.161	22.51
528.508	22.55
528.854	22.5
529.201	22.34
529.548	22.24
529.895	21.94
530.242	21.91
530.588	22.03
530.935	22.15
531.282	22.31
531.628	22.35
531.975	22.54
532.321	22.71
532.667	22.84
533.014	22.88
533.36	23.04
533.706	23.05
534.052	22.94
534.399	22.71
534.745	22.59
535.091	22.59
535.437	22.67
535.783	22.86
536.129	23.07
536.474	23.29
536.82	23.44
537.166	23.32
537.512	23.33
537.857	23.33
538.203	23.23
538.549	23.11
538.894	23.38
539.239	23.48
539.585	23.76
539.93	23.79
540.276	23.8
540.621	23.97
540.966	23.78
541.311	24
541.656	23.86
542.001	23.76
542.346	23.35
542.691	23.23
543.036	23.11
543.381	23.32
543.726	23.38
544.071	23.53
544.415	23.66
544.76	23.63
545.105	23.89
545.449	23.88
545.794	24.04
546.138	24.15
546.483	24.3
546.827	24.25
547.171	24.36
547.516	24.49
547.86	24.35
548.204	24.17
548.548	24.31
548.892	24.43
549.236	24.45
549.58	24.5
549.924	24.8
550.268	24.88
550.612	25.03
550.956	25.11
551.3	25.47
551.643	25.27
551.987	25.41
552.33	25.36
552.674	25.23
553.017	25.23
553.361	25.35
553.704	25.33
554.048	25.06
554.391	25.16
554.734	25.09
555.077	25.3
555.42	25.07
555.764	25.32
556.107	25.29
556.45	25.56
556.793	25.69
557.135	25.82
557.478	25.82
557.821	25.92
558.164	25.59
558.507	25.76
558.849	25.77
559.192	25.86
559.534	25.89
559.877	25.83
560.219	25.9
560.562	25.9
560.904	26.03
561.246	25.95
561.589	26.09
561.931	26.1
562.273	26.19
562.615	26.23
562.957	26.1
563.299	26.21
563.641	26.1
563.983	26.13
564.325	26.3
564.667	26.38
565.008	26.37
565.35	26.24
565.692	26.39
566.033	26.4
566.375	26.6
566.716	26.24
567.058	26.43
567.399	26.29
567.741	26.35
568.082	26.34
568.423	26.43
568.764	26.54
569.105	26.54
569.447	26.49
569.788	26.77
570.129	26.72
570.47	26.75
570.811	26.55
571.151	26.9
571.492	26.79
571.833	26.89
572.174	26.96
572.514	26.86
572.855	27.06
573.195	26.79
573.536	26.86
573.876	26.78
574.217	26.82
574.557	26.94
574.898	26.97
575.238	27.05
575.578	27.12
575.918	27
576.258	27.23
576.598	26.94
576.938	27.04
577.278	27.34
577.618	27.32
577.958	27.35
578.298	27.48
578.638	27.24
578.977	27.46
579.317	27.55
579.657	27.6
579.996	27.66
580.336	27.72
580.675	27.84
581.014	28.08
581.354	27.41
581.693	27.78
582.032	28.1
582.372	27.91
582.711	28.21
583.05	28.07
583.389	28.04
583.728	28.24
584.067	27.94
584.406	28.44
584.745	28.09
585.083	28.21
585.422	28.53
585.761	28.44
586.1	28.68
586.438	28.09
586.777	28.2
587.115	28.17
587.454	28.4
587.792	28.33
588.13	28.56
588.469	28.4
588.807	28.64
589.145	28.4
589.483	28.47
589.821	28.36
590.159	28.64
590.497	28.42
590.835	28.78
591.173	28.78
591.511	28.54
591.849	28.59
592.187	28.34
592.524	28.68
592.862	28.72
593.2	28.74
593.537	28.97
593.875	28.64
594.212	29.07
594.55	28.83
594.887	28.93
595.224	29.09
595.561	28.99
595.899	29.12
596.236	29.02
596.573	29.05
596.91	28.83
597.247	29.3
597.584	29.23
597.921	28.88
598.258	28.98
598.594	28.92
598.931	28.66
599.268	28.94
599.604	29.06
599.941	29.06
600.277	29.22
600.614	29.11
600.95	29.15
601.287	29.07
601.623	29.27
601.959	29.61
602.296	29.7
602.632	29.53
602.968	29.67
603.304	29.6
603.64	29.4
603.976	29.53
604.312	29.65
604.648	29.64
604.984	29.77
605.319	29.43
605.655	29.38
605.991	29.69
606.326	29.44
606.662	29.47
606.998	29.55
607.333	29.61
607.668	29.86
608.004	29.97
608.339	29.99
608.674	30.33
609.01	30.3
609.345	29.82
609.68	29.92
610.015	30.34
610.35	30.17
610.685	29.93
611.02	29.82
611.355	29.92
611.689	30.06
612.024	30.18
612.359	30.37
612.694	30.23
613.028	30.27
613.363	30.04
613.697	30.41
614.032	30.37
614.366	30.35
614.7	30.69
615.035	30.49
615.369	30.84
615.703	30.61
616.037	30.79
616.371	30.77
616.705	31.06
617.039	30.6
617.373	30.75
617.707	30.92
618.041	30.85
618.375	30.56
618.709	31.02
619.042	30.98
619.376	30.75
619.71	30.73
620.043	30.83
620.377	30.84
620.71	30.97
621.043	31.31
621.377	31.33
621.71	31.17
622.043	31.32
622.376	31.27
622.709	31.85
623.043	31.21
623.376	31.3
623.709	31.75
624.041	31.42
624.374	31.43
624.707	31.49
625.04	31.29
625.373	31.71
625.705	31.67
626.038	31.83
626.37	31.67
626.703	31.6
627.035	31.47
627.368	31.6
627.7	31.43
628.032	31.38
628.365	31.53
628.697	31.66
629.029	31.49
629.361	31.6
629.693	31.73
630.025	31.93
630.357	31.54
630.689	31.71
631.021	31.91
631.353	32.2
631.684	31.63
632.016	31.62
632.348	31.81
632.679	31.92
633.011	32.43
633.342	32.57
633.674	32.04
634.005	32.21
634.336	32.01
634.668	31.95
634.999	32.44
635.33	32.39
635.661	32.32
635.992	31.98
636.323	32.61
636.654	32.24
636.985	32.24
637.316	32.33
637.647	31.96
637.977	32.18
638.308	32.22
638.639	32.58
638.969	32.63
639.3	32.67
639.63	32.71
639.961	32.67
640.291	32.76
640.622	32.98
640.952	32.92
641.282	32.73
641.612	32.62
641.943	32.46
642.273	32.59
642.603	32.78
642.933	33.28
643.263	33.34
643.592	33.04
643.922	33.25
644.252	33.14
644.582	32.8
644.911	33.2
645.241	32.68
645.571	33.29
645.9	32.97
646.23	33.53
646.559	32.63
646.888	33.48
647.218	32.95
647.547	33.19
647.876	33.43
648.205	32.9
648.534	32.95
648.863	33.02
649.192	33.42
649.521	33.38
649.85	33.59
650.179	33.63
650.508	33.67
650.837	33.36
651.165	33.74
651.494	33.23
651.822	33.36
652.151	33.72
652.479	33.34
652.808	33.62
653.136	33.4
653.465	33.59
653.793	33.65
654.121	33.34
654.449	33.44
654.777	33.09
655.105	33.71
655.433	33.61
655.761	34.02
656.089	33.62
656.417	34.08
656.745	33.92
657.073	33.77
657.4	33.96
657.728	33.77
658.056	33.71
658.383	33.75
658.711	34.04
659.038	34.12
659.365	33.82
659.693	33.82
660.02	33.98
660.347	34.16
660.674	33.76
661.001	34.04
661.329	34.02
661.656	33.97
661.982	33.89
662.309	33.7
662.636	34.37
662.963	34.59
663.29	34.23
663.616	34.26
663.943	34.39
664.27	34.18
664.596	34.48
664.923	34.49
665.249	34.33
665.576	34.47
665.902	34.13
666.228	34.6
666.554	35.09
666.881	34.27
667.207	34.51
667.533	34.89
667.859	34.16
668.185	34.73
668.511	34.81
668.837	34.69
669.162	35.01
669.488	34.12
669.814	34.69
670.139	35.21
670.465	35.23
670.791	34.89
671.116	34.85
671.442	34.66
671.767	35.3
