Data from 0006_chest_Reflection__3__395.txt Node

Date: Thu Dec 15 19:39:52 CST 2022
User: ToomeyLab
Spectrometer: FLMS14357
Trigger mode: 0
Integration Time (sec): 1.000000E-2
Scans to average: 100
Electric dark correction enabled: true
Nonlinearity correction enabled: false
Boxcar width: 0
XAxis mode: Wavelengths
Number of Pixels in Spectrum: 2048
>>>>>Begin Spectral Data<<<<<
189.047	-75.22
189.435	-75.22
189.823	-75.22
190.211	-508.16
190.599	157.25
190.987	-1989.01
191.375	505.54
191.763	115.77
192.151	2126.76
192.538	-311.08
192.926	87.12
193.314	412.81
193.702	-33.18
194.089	29.1
194.477	65.25
194.864	140.57
195.252	159.54
195.639	249.67
196.027	58.27
196.414	713.57
196.801	-3.82
197.189	312.4
197.576	129.37
197.963	533.49
198.351	-20.14
198.738	-73.83
199.125	-67.9
199.512	18.84
199.899	-55.27
200.286	-301.11
200.673	33.97
201.06	-34.13
201.447	-18.42
201.833	-19.33
202.22	-27.35
202.607	-25.71
202.994	-6.48
203.38	19.59
203.767	-4.01
204.154	20.32
204.54	-3.48
204.927	6.09
205.313	13.58
205.699	-9.15
206.086	11.72
206.472	44.34
206.858	-27.71
207.245	-24.32
207.631	1.19
208.017	43.55
208.403	-38.72
208.789	12.46
209.175	-18.4
209.561	-93.66
209.947	-19.75
210.333	-28.69
210.719	4.54
211.105	7.49
211.491	-32.28
211.876	-38.88
212.262	-11.47
212.648	-5.58
213.034	-29.9
213.419	-15.67
213.805	-73.51
214.19	-114.27
214.576	-25.31
214.961	-7.06
215.346	3.99
215.732	-26.63
216.117	0.63
216.502	-18.8
216.888	-25.2
217.273	-36.38
217.658	-73.92
218.043	-35.4
218.428	-24.97
218.813	15.04
219.198	-61.35
219.583	-2.39
219.968	-0.01
220.353	-26.85
220.738	-13.21
221.122	-2.53
221.507	-25.62
221.892	-45.66
222.276	-42.29
222.661	-9.93
223.046	-16.76
223.43	16.7
223.815	2.11
224.199	4.71
224.583	-5.66
224.968	-3.22
225.352	-8.21
225.736	0.75
226.121	0.92
226.505	-2.64
226.889	2.79
227.273	3.14
227.657	5.21
228.041	5.27
228.425	1.41
228.809	1.23
229.193	5.34
229.577	4.35
229.961	5.13
230.344	4.98
230.728	5.96
231.112	5.35
231.495	3.59
231.879	4.14
232.263	4.96
232.646	4.03
233.03	6.01
233.413	5.18
233.797	1.92
234.18	5.44
234.563	3.05
234.946	2.21
235.33	4.05
235.713	4.65
236.096	4.18
236.479	5.23
236.862	3.78
237.245	4.66
237.628	3.62
238.011	4
238.394	3.53
238.777	4.75
239.16	5.59
239.543	6.83
239.925	4.36
240.308	3.71
240.691	3.16
241.073	3.96
241.456	4.19
241.838	3.76
242.221	4.4
242.603	4.55
242.986	4.14
243.368	5.09
243.75	4.96
244.133	4.92
244.515	4.97
244.897	4.73
245.279	4.25
245.661	4.21
246.043	4.34
246.425	5.1
246.807	4.97
247.189	4.62
247.571	4.31
247.953	4.76
248.335	4.84
248.717	4.84
249.098	4.84
249.48	4.63
249.862	4.73
250.243	4.7
250.625	4.76
251.006	5.37
251.388	4.39
251.769	3.3
252.151	4.43
252.532	3.92
252.913	4.64
253.295	4.74
253.676	5.01
254.057	4.34
254.438	5.36
254.819	4.14
255.2	4.34
255.581	5.08
255.962	5.99
256.343	4.52
256.724	4.4
257.105	4.63
257.486	3.23
257.867	4.28
258.247	5.14
258.628	4.95
259.009	4.25
259.389	3.86
259.77	4.31
260.15	4.55
260.531	4.87
260.911	4.38
261.292	4.46
261.672	4.58
262.052	4.51
262.432	4.32
262.813	4.2
263.193	4.84
263.573	4.4
263.953	3.97
264.333	4.3
264.713	4.61
265.093	3.82
265.473	4.78
265.853	4.61
266.233	4.26
266.612	4.17
266.992	3.72
267.372	4.15
267.752	4.19
268.131	4.1
268.511	4.52
268.89	5.04
269.27	3.51
269.649	4.02
270.029	4.22
270.408	4.45
270.787	4.77
271.167	4.92
271.546	4.18
271.925	4.45
272.304	4.24
272.683	3.93
273.062	4.25
273.441	4.01
273.82	4.33
274.199	3.99
274.578	4.26
274.957	3.98
275.336	4.39
275.715	3.91
276.093	3.74
276.472	3.7
276.851	4.34
277.229	4.04
277.608	3.97
277.986	4.35
278.365	4.26
278.743	3.88
279.122	4.09
279.5	4.49
279.878	3.16
280.257	3.95
280.635	4.07
281.013	3.75
281.391	3.89
281.769	4.5
282.147	3.93
282.525	3.96
282.903	3.77
283.281	4.34
283.659	4.49
284.037	4.12
284.415	3.94
284.792	3.96
285.17	3.74
285.548	3.83
285.925	3.95
286.303	4.26
286.68	4.25
287.058	4.12
287.435	3.87
287.813	4
288.19	3.79
288.567	4.14
288.945	3.72
289.322	4.18
289.699	3.86
290.076	4.06
290.453	3.45
290.83	4.47
291.207	4.02
291.584	4.26
291.961	4.03
292.338	3.91
292.715	3.77
293.092	4.19
293.469	3.94
293.845	3.5
294.222	4.27
294.599	3.61
294.975	3.67
295.352	4.16
295.728	4.18
296.105	3.99
296.481	4.4
296.858	4.06
297.234	3.67
297.61	3.73
297.986	4.54
298.363	4.18
298.739	4.32
299.115	3.98
299.491	4.28
299.867	3.66
300.243	3.83
300.619	3.64
300.995	4.41
301.371	3.95
301.746	4.14
302.122	3.42
302.498	3.71
302.874	4.42
303.249	3.68
303.625	3.16
304	3.86
304.376	4.23
304.751	3.87
305.127	3.67
305.502	3.93
305.878	4.05
306.253	3.52
306.628	4.01
307.003	4.06
307.378	3.8
307.754	3.71
308.129	3.55
308.504	3.94
308.879	3.71
309.254	4.31
309.629	3.86
310.003	3.67
310.378	4.02
310.753	3.85
311.128	3.62
311.502	4.01
311.877	3.69
312.252	3.98
312.626	4.5
313.001	4.1
313.375	4.23
313.75	3.89
314.124	4.26
314.498	3.9
314.873	3.71
315.247	3.84
315.621	3.7
315.995	3.77
316.369	3.44
316.743	3.59
317.117	3.98
317.491	4
317.865	3.38
318.239	3.77
318.613	3.3
318.987	3.74
319.361	3.23
319.734	3.61
320.108	3.58
320.482	3.89
320.855	3.58
321.229	3.4
321.602	4.55
321.976	3.6
322.349	4.26
322.723	3.93
323.096	3.55
323.469	4
323.843	3.54
324.216	4.14
324.589	4
324.962	3.59
325.335	3.62
325.708	3.75
326.081	3.54
326.454	4.32
326.827	4.26
327.2	3.24
327.573	4.36
327.945	3.4
328.318	3.63
328.691	3.68
329.063	3.41
329.436	3.28
329.809	4.1
330.181	4.24
330.553	4.34
330.926	4.48
331.298	3.82
331.671	4.21
332.043	3.46
332.415	3.49
332.787	4.02
333.159	3.62
333.532	4.06
333.904	4.2
334.276	3.9
334.648	4.14
335.02	3.77
335.391	3.65
335.763	3.71
336.135	3.83
336.507	4.02
336.879	3.95
337.25	3.82
337.622	4.28
337.993	3.78
338.365	3.93
338.736	3.53
339.108	4.29
339.479	3.59
339.851	3.86
340.222	3.99
340.593	3.66
340.964	3.91
341.336	3.61
341.707	3.73
342.078	3.54
342.449	4.02
342.82	3.78
343.191	4.35
343.562	4.15
343.933	3.95
344.303	4
344.674	4.06
345.045	4.12
345.416	4.59
345.786	3.98
346.157	3.7
346.527	3.61
346.898	3.76
347.268	4.07
347.639	3.69
348.009	4.16
348.38	3.78
348.75	3.75
349.12	4
349.49	3.88
349.861	4.14
350.231	3.86
350.601	4.11
350.971	3.73
351.341	3.94
351.711	3.89
352.081	3.82
352.45	3.32
352.82	3.66
353.19	3.87
353.56	4.01
353.929	3.65
354.299	4.07
354.669	3.88
355.038	4.55
355.408	4.15
355.777	3.88
356.147	4.17
356.516	3.93
356.885	3.93
357.254	3.7
357.624	3.51
357.993	4.07
358.362	3.92
358.731	4.34
359.1	4.09
359.469	4.28
359.838	4.08
360.207	3.83
360.576	4.49
360.945	3.99
361.314	3.91
361.682	3.97
362.051	4.2
362.42	4.15
362.788	4.27
363.157	4.16
363.525	4.16
363.894	4.11
364.262	4.05
364.631	4.45
364.999	4.13
365.367	3.95
365.735	4.28
366.104	4.08
366.472	4.05
366.84	4.29
367.208	4.4
367.576	4.02
367.944	3.98
368.312	4.21
368.68	4.48
369.048	4.24
369.416	3.75
369.783	3.88
370.151	4.26
370.519	4.5
370.886	4.14
371.254	4.42
371.621	4.39
371.989	4.33
372.356	4.18
372.724	4.35
373.091	4.18
373.458	3.65
373.826	4.28
374.193	4.2
374.56	4.32
374.927	4.01
375.294	4.37
375.661	4.33
376.028	3.98
376.395	4.15
376.762	3.9
377.129	4.2
377.496	4.13
377.863	4.23
378.229	4.49
378.596	4.43
378.963	4.5
379.329	4.22
379.696	4.03
380.062	4.51
380.429	4.14
380.795	4.41
381.161	3.91
381.528	4.02
381.894	4.33
382.26	4.14
382.626	4.4
382.993	4.71
383.359	4.36
383.725	4.05
384.091	4.31
384.457	3.89
384.823	4.28
385.188	4.3
385.554	4.44
385.92	3.94
386.286	4.15
386.651	4.09
387.017	4.36
387.383	4.37
387.748	4.46
388.114	4.47
388.479	4.08
388.845	3.83
389.21	4.62
389.575	4.48
389.94	4.46
390.306	4.37
390.671	4.13
391.036	4.39
391.401	4.2
391.766	3.99
392.131	4.33
392.496	4.35
392.861	4.22
393.226	4.2
393.591	4.16
393.956	4.37
394.32	4.34
394.685	4.18
395.05	4.32
395.414	4.22
395.779	4.45
396.143	4.41
396.508	4.2
396.872	4.31
397.236	4.68
397.601	4.52
397.965	4.34
398.329	4.24
398.694	4.25
399.058	4.53
399.422	4.48
399.786	4.36
400.15	4.35
400.514	4.51
400.878	4.29
401.242	4.4
401.605	4.32
401.969	4.1
402.333	4.19
402.697	4.56
403.06	4.47
403.424	4.49
403.787	4.39
404.151	4.41
404.514	4.45
404.878	4.4
405.241	4.44
405.604	4.33
405.968	4.29
406.331	4.53
406.694	4.48
407.057	4.36
407.42	4.26
407.783	4.6
408.146	4.43
408.509	4.4
408.872	4.58
409.235	4.37
409.598	4.48
409.961	4.63
410.323	4.16
410.686	4.28
411.049	4.5
411.411	4.26
411.774	4.5
412.136	4.58
412.499	4.72
412.861	3.99
413.223	4.2
413.586	4.3
413.948	4.44
414.31	4.53
414.672	4.43
415.035	4.6
415.397	4.25
415.759	4.14
416.121	4.5
416.483	4.58
416.845	4.42
417.206	4.46
417.568	4.44
417.93	4.37
418.292	4.33
418.653	4.1
419.015	4.4
419.377	4.24
419.738	4.42
420.1	4.43
420.461	4.38
420.822	4.45
421.184	4.51
421.545	4.41
421.906	4.47
422.267	4.36
422.629	4.28
422.99	4.33
423.351	4.36
423.712	4.46
424.073	4.48
424.434	4.53
424.795	4.38
425.155	4.32
425.516	4.36
425.877	4.38
426.238	4.4
426.598	4.38
426.959	4.44
427.32	4.4
427.68	4.37
428.041	4.46
428.401	4.43
428.761	4.44
429.122	4.58
429.482	4.32
429.842	4.43
430.202	4.59
430.563	4.46
430.923	4.32
431.283	4.47
431.643	4.55
432.003	4.6
432.363	4.54
432.722	4.56
433.082	4.43
433.442	4.64
433.802	4.52
434.161	4.52
434.521	4.46
434.881	4.54
435.24	4.45
435.6	4.46
435.959	4.59
436.319	4.63
436.678	4.59
437.037	4.36
437.396	4.44
437.756	4.41
438.115	4.53
438.474	4.52
438.833	4.51
439.192	4.45
439.551	4.4
439.91	4.61
440.269	4.53
440.628	4.4
440.987	4.5
441.345	4.57
441.704	4.48
442.063	4.44
442.421	4.55
442.78	4.62
443.138	4.42
443.497	4.44
443.855	4.53
444.214	4.37
444.572	4.53
444.93	4.5
445.288	4.49
445.647	4.42
446.005	4.6
446.363	4.47
446.721	4.49
447.079	4.37
447.437	4.45
447.795	4.5
448.153	4.47
448.51	4.51
448.868	4.39
449.226	4.53
449.584	4.53
449.941	4.55
450.299	4.46
450.656	4.51
451.014	4.52
451.371	4.58
451.729	4.47
452.086	4.57
452.443	4.6
452.801	4.41
453.158	4.62
453.515	4.32
453.872	4.53
454.229	4.37
454.586	4.44
454.943	4.71
455.3	4.59
455.657	4.38
456.014	4.59
456.371	4.61
456.727	4.57
457.084	4.64
457.441	4.55
457.797	4.51
458.154	4.6
458.51	4.5
458.867	4.67
459.223	4.52
459.58	4.51
459.936	4.46
460.292	4.54
460.648	4.5
461.005	4.5
461.361	4.48
461.717	4.54
462.073	4.56
462.429	4.54
462.785	4.64
463.141	4.57
463.496	4.66
463.852	4.62
464.208	4.49
464.564	4.51
464.919	4.56
465.275	4.46
465.631	4.64
465.986	4.63
466.342	4.52
466.697	4.68
467.052	4.68
467.408	4.64
467.763	4.54
468.118	4.38
468.473	4.65
468.829	4.47
469.184	4.74
469.539	4.57
469.894	4.71
470.249	4.56
470.603	4.66
470.958	4.62
471.313	4.49
471.668	4.68
472.023	4.67
472.377	4.57
472.732	4.69
473.086	4.53
473.441	4.58
473.795	4.76
474.15	4.57
474.504	4.68
474.859	4.42
475.213	4.7
475.567	4.52
475.921	4.67
476.275	4.62
476.63	4.7
476.984	4.57
477.338	4.67
477.692	4.47
478.045	4.64
478.399	4.72
478.753	4.63
479.107	4.63
479.461	4.55
479.814	4.62
480.168	4.55
480.521	4.69
480.875	4.6
481.228	4.63
481.582	4.66
481.935	4.8
482.289	4.57
482.642	4.74
482.995	4.58
483.348	4.61
483.701	4.56
484.055	4.56
484.408	4.55
484.761	4.44
485.114	4.37
485.466	4.33
485.819	4.37
486.172	4.44
486.525	4.4
486.878	4.45
487.23	4.49
487.583	4.51
487.936	4.51
488.288	4.5
488.641	4.45
488.993	4.43
489.345	4.45
489.698	4.45
490.05	4.46
490.402	4.43
490.754	4.52
491.107	4.53
491.459	4.61
491.811	4.62
492.163	4.58
492.515	4.53
492.866	4.51
493.218	4.52
493.57	4.57
493.922	4.52
494.274	4.58
494.625	4.67
494.977	4.57
495.328	4.68
495.68	4.64
496.031	4.65
496.383	4.61
496.734	4.69
497.086	4.79
497.437	4.71
497.788	4.65
498.139	4.74
498.49	4.78
498.842	4.85
499.193	4.59
499.544	4.64
499.894	4.69
500.245	4.73
500.596	4.78
500.947	4.64
501.298	4.62
501.648	4.72
501.999	4.76
502.35	4.54
502.7	4.78
503.051	4.64
503.401	4.71
503.752	4.59
504.102	4.72
504.452	4.57
504.803	4.79
505.153	4.87
505.503	4.66
505.853	4.76
506.203	4.78
506.553	4.76
506.903	4.7
507.253	4.68
507.603	4.77
507.953	4.74
508.303	4.75
508.652	4.58
509.002	4.81
509.352	4.72
509.701	4.6
510.051	4.78
510.4	4.78
510.75	4.71
511.099	4.67
511.449	4.76
511.798	4.73
512.147	4.7
512.496	4.75
512.846	4.84
513.195	4.75
513.544	4.7
513.893	4.72
514.242	4.72
514.591	4.68
514.939	4.76
515.288	4.78
515.637	4.79
515.986	4.83
516.334	4.92
516.683	4.77
517.032	4.82
517.38	4.72
517.729	4.77
518.077	4.77
518.426	4.86
518.774	4.71
519.122	4.84
519.47	4.61
519.819	4.77
520.167	4.72
520.515	4.78
520.863	4.74
521.211	4.73
521.559	4.69
521.907	4.82
522.255	4.74
522.602	4.78
522.95	4.85
523.298	4.92
523.645	4.86
523.993	4.9
524.341	5.02
524.688	4.8
525.036	4.87
525.383	4.8
525.73	4.85
526.078	4.87
526.425	4.86
526.772	4.78
527.119	4.84
527.466	4.85
527.814	4.71
528.161	4.8
528.508	4.87
528.854	4.83
529.201	4.76
529.548	4.78
529.895	4.66
530.242	4.66
530.588	4.62
530.935	4.68
531.282	4.66
531.628	4.72
531.975	4.72
532.321	4.76
532.667	4.85
533.014	4.85
533.36	4.84
533.706	4.86
534.052	4.83
534.399	4.8
534.745	4.77
535.091	4.81
535.437	4.79
535.783	4.77
536.129	4.83
536.474	4.81
536.82	4.9
537.166	4.83
537.512	4.94
537.857	4.79
538.203	4.86
538.549	4.81
538.894	4.81
539.239	4.98
539.585	4.94
539.93	4.96
540.276	4.87
540.621	5.12
540.966	4.96
541.311	4.89
541.656	4.9
542.001	4.98
542.346	4.89
542.691	4.81
543.036	4.87
543.381	4.84
543.726	4.89
544.071	4.89
544.415	4.89
544.76	4.85
545.105	4.87
545.449	4.9
545.794	4.92
546.138	5.02
546.483	5.12
546.827	4.92
547.171	5.1
547.516	4.99
547.86	4.99
548.204	5.06
548.548	5.07
548.892	5.06
549.236	5.08
549.58	5.05
549.924	5.13
550.268	5.13
550.612	5.04
550.956	5.32
551.3	5.29
551.643	5.11
551.987	5.3
552.33	5.39
552.674	5.31
553.017	5.19
553.361	5.12
553.704	5.24
554.048	5.07
554.391	5.27
554.734	5.04
555.077	5.22
555.42	5.17
555.764	5.22
556.107	5.3
556.45	5.18
556.793	5.45
557.135	5.29
557.478	5.38
557.821	5.38
558.164	5.3
558.507	5.27
558.849	5.57
559.192	5.21
559.534	5.3
559.877	5.23
560.219	5.36
560.562	5.35
560.904	5.5
561.246	5.26
561.589	5.58
561.931	5.4
562.273	5.29
562.615	5.38
562.957	5.15
563.299	5.43
563.641	5.46
563.983	5.29
564.325	5.44
564.667	5.46
565.008	5.35
565.35	5.42
565.692	5.35
566.033	5.31
566.375	5.37
566.716	5.37
567.058	5.38
567.399	5.45
567.741	5.49
568.082	5.38
568.423	5.48
568.764	5.55
569.105	5.56
569.447	5.5
569.788	5.41
570.129	5.46
570.47	5.55
570.811	5.5
571.151	5.62
571.492	5.57
571.833	5.5
572.174	5.58
572.514	5.61
572.855	5.74
573.195	5.52
573.536	5.67
573.876	5.62
574.217	5.52
574.557	5.6
574.898	5.44
575.238	5.66
575.578	5.7
575.918	5.74
576.258	5.87
576.598	5.65
576.938	5.67
577.278	5.61
577.618	5.67
577.958	5.77
578.298	5.74
578.638	5.82
578.977	5.79
579.317	5.82
579.657	5.7
579.996	5.83
580.336	5.86
580.675	5.61
581.014	5.96
581.354	5.64
581.693	5.78
582.032	5.92
582.372	5.88
582.711	5.74
583.05	5.99
583.389	5.92
583.728	6.11
584.067	5.59
584.406	5.97
584.745	5.94
585.083	5.72
585.422	6.11
585.761	6.07
586.1	6.23
586.438	5.97
586.777	6.02
587.115	6.13
587.454	6.03
587.792	6.03
588.13	6.1
588.469	6
588.807	6.3
589.145	6.19
589.483	5.65
589.821	6.11
590.159	6.33
590.497	6.15
590.835	6.14
591.173	6.17
591.511	6.33
591.849	6.13
592.187	5.94
592.524	6.21
592.862	6.01
593.2	6.14
593.537	6.27
593.875	6.26
594.212	6.35
594.55	6.2
594.887	6.35
595.224	6.39
595.561	6.08
595.899	6.32
596.236	6.42
596.573	6.42
596.91	6.31
597.247	6.49
597.584	6.47
597.921	6.24
598.258	6.48
598.594	6.32
598.931	6.2
599.268	6.26
599.604	6.38
599.941	6.38
600.277	6.43
600.614	6.43
600.95	6.12
601.287	6.36
601.623	6.41
601.959	6.89
602.296	6.64
602.632	6.64
602.968	6.66
603.304	6.67
603.64	6.7
603.976	6.62
604.312	6.49
604.648	6.7
604.984	6.72
605.319	6.7
605.655	6.71
605.991	6.65
606.326	6.5
606.662	6.39
606.998	6.88
607.333	6.72
607.668	6.66
608.004	6.82
608.339	6.63
608.674	6.96
609.01	6.86
609.345	6.96
609.68	6.65
610.015	6.93
610.35	6.93
610.685	6.54
611.02	6.76
611.355	6.8
611.689	6.84
612.024	6.9
612.359	6.94
612.694	7.1
613.028	6.89
613.363	6.73
613.697	6.94
614.032	6.94
614.366	6.86
614.7	6.97
615.035	7.42
615.369	7.16
615.703	7.16
616.037	7.08
616.371	7.18
616.705	7.14
617.039	7.42
617.373	7.16
617.707	7.06
618.041	6.74
618.375	6.77
618.709	7.09
619.042	7.06
619.376	7.23
619.71	7.24
620.043	7.61
620.377	7.39
620.71	6.96
621.043	7.39
621.377	7.37
621.71	7.67
622.043	7.35
622.376	7.39
622.709	7.83
623.043	7.14
623.376	7.32
623.709	7.39
624.041	7.28
624.374	7.6
624.707	7.64
625.04	7.87
625.373	7.76
625.705	7.82
626.038	7.7
626.37	7.49
626.703	7.76
627.035	7.68
627.368	7.97
627.7	7.58
628.032	7.64
628.365	7.8
628.697	7.88
629.029	7.76
629.361	7.91
629.693	7.95
630.025	7.89
630.357	7.98
630.689	7.7
631.021	8.01
631.353	8
631.684	7.48
632.016	7.68
632.348	7.73
632.679	7.94
633.011	7.75
633.342	7.89
633.674	7.63
634.005	7.65
634.336	8.22
634.668	7.74
634.999	7.92
635.33	8.12
635.661	7.83
635.992	8.21
636.323	7.84
636.654	8.17
636.985	8.11
637.316	7.87
637.647	8.12
637.977	8.02
638.308	8.36
638.639	8.41
638.969	8.3
639.3	8.42
639.63	8.4
639.961	8.23
640.291	8.21
640.622	8.65
640.952	8.36
641.282	7.98
641.612	8.36
641.943	8.11
642.273	8.32
642.603	8.32
642.933	8.7
643.263	8.63
643.592	8.73
643.922	8.93
644.252	8.28
644.582	8.31
644.911	8.6
645.241	8.24
645.571	8.84
645.9	9.12
646.23	9.17
646.559	8.37
646.888	8.7
647.218	8.72
647.547	8.97
647.876	8.71
648.205	8.38
648.534	9.01
648.863	8.35
649.192	8.8
649.521	8.75
649.85	8.91
650.179	8.99
650.508	8.29
650.837	9.11
651.165	9.03
651.494	8.72
651.822	9.09
652.151	8.91
652.479	9.14
652.808	9.12
653.136	8.49
653.465	8.64
653.793	9.16
654.121	8.97
654.449	8.49
654.777	8.73
655.105	8.81
655.433	9.15
655.761	9.04
656.089	8.9
656.417	9.66
656.745	9.19
657.073	8.94
657.4	8.99
657.728	8.7
658.056	9.25
658.383	9.07
658.711	9.51
659.038	9.95
659.365	9.79
659.693	9.15
660.02	9.37
660.347	9.36
660.674	9.15
661.001	9.4
661.329	9.31
661.656	9.19
661.982	9.28
662.309	9.26
662.636	9.49
662.963	9.42
663.29	9.33
663.616	9.51
663.943	9.7
664.27	9.32
664.596	9.35
664.923	9.84
665.249	9.58
665.576	9.32
665.902	9.45
666.228	9.78
666.554	9.78
666.881	9.42
667.207	9.44
667.533	9.73
667.859	9.51
668.185	9.79
668.511	10.44
668.837	9.95
669.162	9.8
669.488	9.17
669.814	9.91
670.139	9.37
670.465	10.66
670.791	9.5
671.116	9.93
671.442	9.51
671.767	10.12
672.092	10.04
672.418	10.19
672.743	9.71
673.068	9.85
673.393	10.41
673.718	9.93
674.043	9.79
674.368	10.04
674.693	10.34
675.018	11.35
675.343	10.09
675.667	10.04
675.992	10.62
676.317	10.07
676.641	10.71
676.966	10.62
677.29	10.16
677.615	10.28
677.939	10.53
678.264	10.49
678.588	10.77
678.912	10.49
679.236	10.47
679.56	10.21
679.885	9.87
680.209	10.79
680.532	10.95
680.856	10.96
681.18	10.94
681.504	10.8
681.828	10.39
682.152	10.8
682.475	10.79
682.799	10.73
683.122	10.91
683.446	10.55
683.769	10.91
684.093	10.97
684.416	10.48
684.739	11.08
685.062	11.9
685.386	11.22
685.709	10.83
686.032	11.41
686.355	11.07
686.678	11.11
687.001	10.91
687.324	11.18
687.646	11.12
687.969	11.07
688.292	11.31
688.614	11.52
688.937	11.64
689.26	11.05
689.582	11.58
689.904	11.44
690.227	11.5
690.549	11.21
