Data from 0006_chest_Reflection__1__393.txt Node

Date: Thu Dec 15 19:38:52 CST 2022
User: ToomeyLab
Spectrometer: FLMS14357
Trigger mode: 0
Integration Time (sec): 1.000000E-2
Scans to average: 100
Electric dark correction enabled: true
Nonlinearity correction enabled: false
Boxcar width: 0
XAxis mode: Wavelengths
Number of Pixels in Spectrum: 2048
>>>>>Begin Spectral Data<<<<<
189.047	-158.6
189.435	-158.6
189.823	-158.6
190.211	-1210.75
190.599	-64.4
190.987	44.86
191.375	200
191.763	49.8
192.151	28.35
192.538	5852.17
192.926	117.18
193.314	52.63
193.702	-2.06
194.089	-59.79
194.477	-115.29
194.864	112.74
195.252	62.41
195.639	580.46
196.027	171.66
196.414	44.46
196.801	233.76
197.189	216.69
197.576	290.75
197.963	-66.94
198.351	-24.77
198.738	-6.15
199.125	-127.89
199.512	27.66
199.899	-58.39
200.286	-100.66
200.673	55.31
201.06	-60.18
201.447	-97.2
201.833	13.23
202.22	-29.69
202.607	-58.01
202.994	0.09
203.38	29.5
203.767	19.37
204.154	-7.94
204.54	-17.05
204.927	6.36
205.313	38.37
205.699	30.61
206.086	21.23
206.472	19.88
206.858	-25.64
207.245	-16.46
207.631	-29.48
208.017	35.37
208.403	-145.99
208.789	4.45
209.175	-28.27
209.561	-292.79
209.947	35.79
210.333	-38.11
210.719	-5.87
211.105	23.37
211.491	16.17
211.876	-103.83
212.262	-55.16
212.648	-14.26
213.034	-42.56
213.419	-16.9
213.805	-109.3
214.19	-31.55
214.576	-38.47
214.961	-31.88
215.346	-41.09
215.732	-6.6
216.117	-15.88
216.502	-32.8
216.888	-4.26
217.273	-27.19
217.658	-12.16
218.043	-4.94
218.428	-9.62
218.813	-1.47
219.198	-57.78
219.583	-39.84
219.968	0.75
220.353	-55
220.738	-2.9
221.122	2.01
221.507	-16.85
221.892	-29.64
222.276	-39.57
222.661	-18.63
223.046	-12.39
223.43	10.47
223.815	-4.95
224.199	-10.34
224.583	-0.22
224.968	-8.53
225.352	-16.23
225.736	-5.66
226.121	-6.42
226.505	-13.02
226.889	2.37
227.273	-3.23
227.657	5.92
228.041	3.27
228.425	3.97
228.809	1.95
229.193	6.9
229.577	5.33
229.961	4.46
230.344	5.43
230.728	6.12
231.112	5.63
231.495	4.17
231.879	3.79
232.263	4.64
232.646	4.87
233.03	5.77
233.413	5.26
233.797	3.69
234.18	5.09
234.563	3.01
234.946	0.99
235.33	2.79
235.713	3.41
236.096	5.32
236.479	4.39
236.862	2.32
237.245	3.84
237.628	3.61
238.011	4.15
238.394	2.43
238.777	4.94
239.16	4.59
239.543	5.31
239.925	5.2
240.308	2.54
240.691	2.68
241.073	3.61
241.456	4.62
241.838	2.93
242.221	4.06
242.603	5.15
242.986	5.2
243.368	5.04
243.75	4.96
244.133	4.93
244.515	5.26
244.897	4.49
245.279	4.86
245.661	4.16
246.043	4.8
246.425	4.56
246.807	5.14
247.189	4.47
247.571	4.43
247.953	4.3
248.335	4.93
248.717	5.1
249.098	4.9
249.48	4.58
249.862	4.95
250.243	4.96
250.625	4.84
251.006	5.2
251.388	4.13
251.769	4.46
252.151	5.5
252.532	4.29
252.913	4.3
253.295	4.93
253.676	4.59
254.057	4.24
254.438	4.59
254.819	4.66
255.2	4.45
255.581	4.14
255.962	3.51
256.343	4.17
256.724	3.82
257.105	4.54
257.486	2.77
257.867	2.94
258.247	3.96
258.628	4.71
259.009	4.15
259.389	3.54
259.77	4.12
260.15	5.06
260.531	4.49
260.911	4.56
261.292	4.56
261.672	4.61
262.052	4.66
262.432	4.25
262.813	4.73
263.193	4.63
263.573	4.77
263.953	4.01
264.333	4.33
264.713	4.6
265.093	4
265.473	5.04
265.853	4.61
266.233	4.68
266.612	3.52
266.992	4.91
267.372	4.62
267.752	4.17
268.131	4.44
268.511	4.36
268.89	4.37
269.27	3.94
269.649	4
270.029	4.58
270.408	4.29
270.787	4.33
271.167	4.6
271.546	4.64
271.925	4.6
272.304	3.84
272.683	3.89
273.062	4.24
273.441	4.06
273.82	4.28
274.199	4.17
274.578	4.43
274.957	4.12
275.336	4.63
275.715	4.65
276.093	4.01
276.472	4
276.851	4.27
277.229	4.18
277.608	3.91
277.986	3.99
278.365	4.72
278.743	3.77
279.122	3.72
279.5	3.83
279.878	3.64
280.257	4.52
280.635	3.79
281.013	3.53
281.391	4.14
281.769	4.08
282.147	4.29
282.525	4.25
282.903	4.17
283.281	4.35
283.659	4.27
284.037	3.93
284.415	4.01
284.792	4.25
285.17	4.23
285.548	4.1
285.925	3.95
286.303	4.54
286.68	4.41
287.058	4.19
287.435	4.2
287.813	4.28
288.19	4.31
288.567	4.1
288.945	3.79
289.322	4.33
289.699	4.09
290.076	3.84
290.453	3.75
290.83	4.37
291.207	4.25
291.584	4.33
291.961	4.44
292.338	3.95
292.715	3.95
293.092	4.26
293.469	4.19
293.845	4.36
294.222	4.26
294.599	3.96
294.975	3.45
295.352	4.01
295.728	3.88
296.105	4.13
296.481	4.57
296.858	4.26
297.234	4.17
297.61	3.98
297.986	4.45
298.363	4.46
298.739	4.32
299.115	3.99
299.491	4.47
299.867	4.24
300.243	4.1
300.619	3.85
300.995	4.15
301.371	4.27
301.746	4.44
302.122	3.62
302.498	4.55
302.874	4.42
303.249	4.2
303.625	3.66
304	4.13
304.376	4.44
304.751	3.38
305.127	3.88
305.502	4.35
305.878	4.04
306.253	4.18
306.628	4.44
307.003	4.11
307.378	4.01
307.754	4.24
308.129	4.02
308.504	4.15
308.879	4.07
309.254	4.3
309.629	4.04
310.003	4.13
310.378	4.01
310.753	4.37
311.128	4.04
311.502	4.49
311.877	4.03
312.252	4.54
312.626	4.54
313.001	4.68
313.375	4.28
313.75	4.09
314.124	4.4
314.498	4.44
314.873	4.21
315.247	3.74
315.621	3.83
315.995	4.01
316.369	4.41
316.743	4.21
317.117	3.66
317.491	4.31
317.865	4.3
318.239	4.75
318.613	4.2
318.987	3.72
319.361	3.97
319.734	4.25
320.108	3.77
320.482	4.49
320.855	4.24
321.229	4.27
321.602	4.26
321.976	3.74
322.349	4.77
322.723	4.47
323.096	3.67
323.469	3.86
323.843	4.12
324.216	4.31
324.589	4.62
324.962	3.82
325.335	4.06
325.708	4.49
326.081	4.41
326.454	4.44
326.827	4.5
327.2	3.79
327.573	4.67
327.945	3.72
328.318	4.2
328.691	4.05
329.063	3.59
329.436	4.24
329.809	4.73
330.181	5.33
330.553	4.26
330.926	4.52
331.298	4.04
331.671	4.46
332.043	4.22
332.415	3.93
332.787	4.34
333.159	4.18
333.532	4.24
333.904	4.65
334.276	4.63
334.648	4.39
335.02	4.49
335.391	4.37
335.763	4.39
336.135	4.45
336.507	4.14
336.879	4.41
337.25	4.42
337.622	4.48
337.993	4.47
338.365	4.54
338.736	4.33
339.108	4.07
339.479	4.51
339.851	4.96
340.222	4.55
340.593	4.12
340.964	3.82
341.336	4.1
341.707	4.48
342.078	3.73
342.449	4.43
342.82	4.76
343.191	4.29
343.562	4.58
343.933	4.15
344.303	4.66
344.674	4.29
345.045	4.34
345.416	4.4
345.786	4.27
346.157	4.8
346.527	4.25
346.898	4.46
347.268	4.57
347.639	4.26
348.009	4.55
348.38	4.31
348.75	4.76
349.12	4.57
349.49	4.83
349.861	4.5
350.231	4.05
350.601	4.28
350.971	4.38
351.341	4.46
351.711	4.69
352.081	4.31
352.45	4.38
352.82	4.38
353.19	4.28
353.56	4.71
353.929	4.53
354.299	4.83
354.669	4.88
355.038	4.85
355.408	4.36
355.777	4.6
356.147	4.42
356.516	4.44
356.885	4.51
357.254	4.51
357.624	3.83
357.993	4.59
358.362	5.06
358.731	4.95
359.1	4.88
359.469	4.52
359.838	4.69
360.207	4.54
360.576	4.95
360.945	4.74
361.314	4.7
361.682	4.64
362.051	4.6
362.42	4.49
362.788	4.43
363.157	4.62
363.525	4.74
363.894	4.49
364.262	4.82
364.631	4.79
364.999	4.57
365.367	4.64
365.735	4.21
366.104	4.51
366.472	4.32
366.84	4.65
367.208	4.72
367.576	4.37
367.944	4.92
368.312	4.63
368.68	4.76
369.048	4.54
369.416	4.75
369.783	4.73
370.151	5.09
370.519	4.84
370.886	4.57
371.254	4.78
371.621	4.47
371.989	4.88
372.356	4.81
372.724	4.63
373.091	4.63
373.458	4.68
373.826	4.85
374.193	4.68
374.56	4.92
374.927	4.6
375.294	4.91
375.661	4.83
376.028	4.63
376.395	4.93
376.762	4.42
377.129	4.7
377.496	4.82
377.863	4.66
378.229	4.72
378.596	4.99
378.963	4.74
379.329	4.84
379.696	4.81
380.062	4.68
380.429	4.59
380.795	5.01
381.161	4.54
381.528	4.59
381.894	4.72
382.26	4.87
382.626	4.95
382.993	5.14
383.359	4.57
383.725	4.73
384.091	5.05
384.457	4.62
384.823	4.97
385.188	4.87
385.554	4.69
385.92	4.58
386.286	4.77
386.651	4.84
387.017	4.97
387.383	4.86
387.748	5
388.114	5.04
388.479	4.74
388.845	4.5
389.21	4.93
389.575	5.01
389.94	5.22
390.306	4.81
390.671	5.03
391.036	5.02
391.401	4.89
391.766	4.78
392.131	5.05
392.496	4.82
392.861	4.92
393.226	4.64
393.591	4.77
393.956	4.99
394.32	5.08
394.685	4.97
395.05	4.85
395.414	4.99
395.779	5.02
396.143	4.95
396.508	4.9
396.872	4.95
397.236	5.2
397.601	5.11
397.965	4.89
398.329	4.72
398.694	4.92
399.058	4.81
399.422	5.01
399.786	4.89
400.15	4.84
400.514	4.96
400.878	4.96
401.242	5.02
401.605	4.98
401.969	5
402.333	4.87
402.697	5.29
403.06	5.01
403.424	5.12
403.787	5.2
404.151	4.98
404.514	4.97
404.878	4.93
405.241	4.92
405.604	5.02
405.968	5.11
406.331	5.07
406.694	5.13
407.057	5.06
407.42	5.14
407.783	5.19
408.146	5.02
408.509	5.06
408.872	5.18
409.235	5.17
409.598	5.19
409.961	5.21
410.323	4.96
410.686	5.12
411.049	5.16
411.411	5.22
411.774	5.17
412.136	5.25
412.499	5.2
412.861	4.84
413.223	4.8
413.586	5.39
413.948	5.28
414.31	5.2
414.672	4.91
415.035	5.3
415.397	5.02
415.759	4.86
416.121	5.34
416.483	5.07
416.845	5.22
417.206	5.14
417.568	5.18
417.93	5.34
418.292	4.97
418.653	5.01
419.015	5.16
419.377	4.99
419.738	5.1
420.1	4.96
420.461	5.03
420.822	5.06
421.184	5.01
421.545	5.17
421.906	5.15
422.267	5.01
422.629	5.05
422.99	5.15
423.351	5.06
423.712	5.08
424.073	5.07
424.434	5.19
424.795	5.06
425.155	5.07
425.516	5.02
425.877	5.08
426.238	5.05
426.598	5.08
426.959	5.25
427.32	5.07
427.68	5.15
428.041	5.2
428.401	5.01
428.761	5.28
429.122	5.27
429.482	5.11
429.842	5.12
430.202	5.29
430.563	5.13
430.923	5.19
431.283	5.26
431.643	5.37
432.003	5.22
432.363	5.29
432.722	5.28
433.082	5.12
433.442	5.36
433.802	5.24
434.161	5.23
434.521	5.15
434.881	5.25
435.24	5.21
435.6	5.22
435.959	5.22
436.319	5.14
436.678	5.33
437.037	5.04
437.396	5.33
437.756	5.07
438.115	5.31
438.474	5.17
438.833	5.35
439.192	5.27
439.551	5.13
439.91	5.26
440.269	5.17
440.628	5.16
440.987	5.24
441.345	5.35
441.704	5.28
442.063	5.17
442.421	5.24
442.78	5.28
443.138	5.24
443.497	5.24
443.855	5.36
444.214	5.19
444.572	5.36
444.93	5.27
445.288	5.33
445.647	5.15
446.005	5.27
446.363	5.24
446.721	5.31
447.079	5.23
447.437	5.3
447.795	5.31
448.153	5.22
448.51	5.24
448.868	5.23
449.226	5.29
449.584	5.29
449.941	5.22
450.299	5.41
450.656	5.34
451.014	5.46
451.371	5.41
451.729	5.33
452.086	5.36
452.443	5.34
452.801	5.34
453.158	5.6
453.515	5.3
453.872	5.34
454.229	5.16
454.586	5.35
454.943	5.48
455.3	5.39
455.657	5.27
456.014	5.32
456.371	5.42
456.727	5.59
457.084	5.39
457.441	5.41
457.797	5.31
458.154	5.34
458.51	5.12
458.867	5.45
459.223	5.31
459.58	5.46
459.936	5.27
460.292	5.28
460.648	5.26
461.005	5.32
461.361	5.33
461.717	5.42
462.073	5.4
462.429	5.29
462.785	5.49
463.141	5.41
463.496	5.55
463.852	5.45
464.208	5.48
464.564	5.45
464.919	5.31
465.275	5.44
465.631	5.63
465.986	5.61
466.342	5.33
466.697	5.46
467.052	5.71
467.408	5.54
467.763	5.42
468.118	5.36
468.473	5.45
468.829	5.29
469.184	5.69
469.539	5.46
469.894	5.43
470.249	5.55
470.603	5.63
470.958	5.65
471.313	5.58
471.668	5.53
472.023	5.51
472.377	5.49
472.732	5.52
473.086	5.54
473.441	5.37
473.795	5.68
474.15	5.55
474.504	5.37
474.859	5.18
475.213	5.62
475.567	5.46
475.921	5.53
476.275	5.64
476.63	5.5
476.984	5.36
477.338	5.72
477.692	5.47
478.045	5.59
478.399	5.56
478.753	5.48
479.107	5.62
479.461	5.54
479.814	5.59
480.168	5.61
480.521	5.67
480.875	5.67
481.228	5.54
481.582	5.58
481.935	5.64
482.289	5.61
482.642	5.73
482.995	5.54
483.348	5.69
483.701	5.62
484.055	5.53
484.408	5.52
484.761	5.38
485.114	5.35
485.466	5.3
485.819	5.34
486.172	5.35
486.525	5.35
486.878	5.42
487.23	5.47
487.583	5.48
487.936	5.52
488.288	5.54
488.641	5.5
488.993	5.43
489.345	5.43
489.698	5.41
490.05	5.49
490.402	5.49
490.754	5.52
491.107	5.52
491.459	5.63
491.811	5.63
492.163	5.58
492.515	5.53
492.866	5.47
493.218	5.44
493.57	5.5
493.922	5.53
494.274	5.57
494.625	5.69
494.977	5.65
495.328	5.73
495.68	5.62
496.031	5.69
496.383	5.57
496.734	5.6
497.086	5.75
497.437	5.72
497.788	5.76
498.139	5.77
498.49	5.72
498.842	5.77
499.193	5.67
499.544	5.81
499.894	5.79
500.245	5.98
500.596	5.81
500.947	5.75
501.298	5.69
501.648	5.79
501.999	5.81
502.35	5.8
502.7	5.87
503.051	5.83
503.401	5.87
503.752	5.78
504.102	5.86
504.452	5.78
504.803	5.84
505.153	5.76
505.503	5.8
505.853	5.92
506.203	5.83
506.553	5.79
506.903	5.86
507.253	5.89
507.603	5.92
507.953	5.99
508.303	5.98
508.652	5.84
509.002	6.05
509.352	5.87
509.701	5.79
510.051	5.98
510.4	5.88
510.75	5.84
511.099	5.77
511.449	5.9
511.798	5.97
512.147	5.88
512.496	5.96
512.846	5.95
513.195	5.89
513.544	6.07
513.893	6.01
514.242	6.04
514.591	6.02
514.939	6.04
515.288	6.11
515.637	6.02
515.986	6.07
516.334	6.17
516.683	5.98
517.032	5.99
517.38	5.86
517.729	6.04
518.077	5.99
518.426	6.14
518.774	6.01
519.122	6.06
519.47	6.01
519.819	6.01
520.167	6.08
520.515	6.04
520.863	6.1
521.211	5.97
521.559	6.03
521.907	6.1
522.255	6.05
522.602	6.2
522.95	6.1
523.298	6.16
523.645	6.15
523.993	6.1
524.341	6.2
524.688	6.15
525.036	6.23
525.383	6.2
525.73	6.03
526.078	6.31
526.425	6.19
526.772	6.08
527.119	6.08
527.466	6.16
527.814	6.13
528.161	6.23
528.508	6.22
528.854	6.17
529.201	6.12
529.548	6.14
529.895	6.02
530.242	6.04
530.588	6.03
530.935	6.1
531.282	6.01
531.628	6.08
531.975	6.14
532.321	6.2
532.667	6.21
533.014	6.24
533.36	6.3
533.706	6.39
534.052	6.25
534.399	6.31
534.745	6.2
535.091	6.25
535.437	6.32
535.783	6.25
536.129	6.31
536.474	6.39
536.82	6.48
537.166	6.34
537.512	6.33
537.857	6.45
538.203	6.47
538.549	6.46
538.894	6.34
539.239	6.48
539.585	6.53
539.93	6.51
540.276	6.59
540.621	6.83
540.966	6.58
541.311	6.61
541.656	6.5
542.001	6.54
542.346	6.53
542.691	6.42
543.036	6.48
543.381	6.45
543.726	6.5
544.071	6.55
544.415	6.56
544.76	6.58
545.105	6.59
545.449	6.57
545.794	6.68
546.138	6.56
546.483	6.7
546.827	6.75
547.171	6.83
547.516	6.83
547.86	6.73
548.204	6.79
548.548	6.78
548.892	6.84
549.236	6.78
549.58	6.78
549.924	6.8
550.268	6.94
550.612	7.08
550.956	7.06
551.3	7.07
551.643	6.89
551.987	7.09
552.33	7.23
552.674	7.02
553.017	7.22
553.361	7.09
553.704	7.09
554.048	7.06
554.391	7.08
554.734	7.08
555.077	7.07
555.42	7.14
555.764	6.95
556.107	7.29
556.45	7.09
556.793	7.24
557.135	7.1
557.478	7.34
557.821	7.23
558.164	7.42
558.507	7.2
558.849	7.41
559.192	7.31
559.534	7.4
559.877	7.32
560.219	7.11
560.562	7.33
560.904	7.34
561.246	7.3
561.589	7.58
561.931	7.59
562.273	7.34
562.615	7.29
562.957	7.47
563.299	7.45
563.641	7.44
563.983	7.36
564.325	7.79
564.667	7.46
565.008	7.43
565.35	7.59
565.692	7.69
566.033	7.72
566.375	7.62
566.716	7.49
567.058	7.62
567.399	7.67
567.741	7.75
568.082	7.79
568.423	7.59
568.764	7.76
569.105	7.78
569.447	7.71
569.788	7.78
570.129	7.76
570.47	7.79
570.811	7.82
571.151	7.95
571.492	7.82
571.833	7.97
572.174	8.02
572.514	7.91
572.855	8.04
573.195	8.13
573.536	8.08
573.876	8.06
574.217	8.02
574.557	8.01
574.898	8.05
575.238	8.14
575.578	8.16
575.918	8.14
576.258	8.35
576.598	8.05
576.938	8.24
577.278	8.35
577.618	8.2
577.958	8.34
578.298	8.31
578.638	8.28
578.977	8.34
579.317	8.32
579.657	8.41
579.996	8.6
580.336	8.54
580.675	8.29
581.014	8.52
581.354	8.49
581.693	8.58
582.032	8.79
582.372	8.63
582.711	8.7
583.05	8.62
583.389	8.72
583.728	8.88
584.067	8.6
584.406	8.65
584.745	8.53
585.083	8.7
585.422	8.8
585.761	8.83
586.1	9.04
586.438	8.75
586.777	9.03
587.115	9.12
587.454	8.64
587.792	9.1
588.13	9.06
588.469	9.15
588.807	9.11
589.145	9.13
589.483	8.88
589.821	9.1
590.159	8.84
590.497	9.05
590.835	9.41
591.173	9.57
591.511	9.4
591.849	9.29
592.187	9.25
592.524	9.18
592.862	9.19
593.2	9.46
593.537	9.36
593.875	9.19
594.212	9.45
594.55	9.56
594.887	9.33
595.224	9.43
595.561	9.29
595.899	9.46
596.236	9.62
596.573	9.57
596.91	9.59
597.247	9.67
597.584	9.73
597.921	9.61
598.258	9.81
598.594	9.6
598.931	9.44
599.268	9.56
599.604	9.71
599.941	9.82
600.277	9.59
600.614	9.76
600.95	9.74
601.287	9.55
601.623	9.76
601.959	10.26
602.296	10.02
602.632	9.93
602.968	9.91
603.304	10.2
603.64	9.96
603.976	9.93
604.312	10.17
604.648	10.07
604.984	10.18
605.319	10.22
605.655	10.25
605.991	10.02
606.326	10.28
606.662	10.19
606.998	10.3
607.333	10.22
607.668	10.14
608.004	10.17
608.339	10.14
608.674	10.5
609.01	10.53
609.345	10.44
609.68	10.3
610.015	10.56
610.35	10.91
610.685	10.53
611.02	10.73
611.355	10.65
611.689	10.61
612.024	10.69
612.359	10.8
612.694	10.8
613.028	10.49
613.363	10.62
613.697	10.96
614.032	11.06
614.366	10.59
614.7	11.06
615.035	11.01
615.369	11.13
615.703	10.94
616.037	11.16
616.371	11.01
616.705	11.03
617.039	10.93
617.373	11.13
617.707	11.18
618.041	10.78
618.375	10.81
618.709	11.3
619.042	11.06
619.376	11.08
619.71	11.43
620.043	11.65
620.377	11.36
620.71	11.49
621.043	11.56
621.377	11.39
621.71	11.89
622.043	11.59
622.376	11.37
622.709	12
623.043	11.61
623.376	11.71
623.709	11.83
624.041	11.55
624.374	11.6
624.707	11.79
625.04	11.51
625.373	11.89
625.705	11.96
626.038	12.11
626.37	11.69
626.703	12.05
627.035	12.13
627.368	12.22
627.7	12.12
628.032	12.16
628.365	12.31
628.697	12.43
629.029	12.34
629.361	12.28
629.693	12.12
630.025	12.21
630.357	12.38
630.689	12.13
631.021	12.46
631.353	12.5
631.684	12.21
632.016	12.26
632.348	12.37
632.679	12.42
633.011	12.37
633.342	12.54
633.674	12.42
634.005	12.77
634.336	12.56
634.668	12.43
634.999	12.52
635.33	12.78
635.661	12.94
635.992	13.05
636.323	13
636.654	12.39
636.985	12.76
637.316	12.87
637.647	12.83
637.977	13.08
638.308	13.17
638.639	12.99
638.969	12.9
639.3	13.44
639.63	13.03
639.961	13.42
640.291	13.09
640.622	13.15
640.952	13.32
641.282	12.96
641.612	13.56
641.943	13.13
642.273	13.2
642.603	13.62
642.933	13.55
643.263	13.74
643.592	13.58
643.922	13.76
644.252	13.57
644.582	13.79
644.911	13.84
645.241	13.48
645.571	13.3
645.9	13.39
646.23	13.98
646.559	13.81
646.888	14.2
647.218	13.69
647.547	13.88
647.876	14.05
648.205	13.47
648.534	13.88
648.863	14.18
649.192	14.28
649.521	14.32
649.85	14.08
650.179	14.24
650.508	14.03
650.837	14.1
651.165	14.34
651.494	14.22
651.822	14.12
652.151	14.28
652.479	14.64
652.808	14.6
653.136	14.1
653.465	14.1
653.793	14.39
654.121	14.53
654.449	14.2
654.777	13.97
655.105	13.76
655.433	14.72
655.761	14.69
656.089	14.72
656.417	14.75
656.745	15.31
657.073	14.45
657.4	14.25
657.728	14.26
658.056	15.35
658.383	14.95
658.711	14.86
659.038	15.5
659.365	15.27
659.693	14.71
660.02	14.84
660.347	15.14
660.674	15.2
661.001	15.18
661.329	15.1
661.656	14.85
661.982	15.26
662.309	14.96
662.636	15.29
662.963	15
663.29	15.79
663.616	15.37
663.943	15.23
664.27	15.45
664.596	15.7
664.923	15.57
665.249	15.46
665.576	15.07
665.902	15.31
666.228	15.97
666.554	16.37
666.881	15.26
667.207	15.73
667.533	15.81
667.859	15.76
668.185	15.59
668.511	15.93
668.837	15.92
669.162	16.04
669.488	15.3
669.814	15.84
670.139	16.27
670.465	16.43
670.791	15.98
671.116	16.15
671.442	15.41
671.767	16.62
672.092	16.35
672.418	16.72
672.743	16.35
673.068	16.39
673.393	16.68
673.718	15.91
674.043	16.68
674.368	16.39
674.693	16.61
675.018	16.72
675.343	17.03
675.667	16.2
675.992	16.6
676.317	16.39
676.641	16.74
676.966	16.39
677.29	16.84
677.615	16.38
677.939	16.81
678.264	16.85
678.588	16.67
678.912	16.67
679.236	17.36
679.56	16.46
679.885	17.05
680.209	16.69
680.532	17.33
680.856	17.2
681.18	17.83
681.504	17.9
681.828	17.14
682.152	17.19
682.475	16.98
682.799	17.2
683.122	17.47
683.446	16.48
683.769	18.14
684.093	17.21
684.416	17.51
684.739	18.01
685.062	17.51
685.386	17.46
685.709	18.09
