Data from 0006_crown_Reflection__3__400.txt Node

Date: Thu Dec 15 19:41:26 CST 2022
User: ToomeyLab
Spectrometer: FLMS14357
Trigger mode: 0
Integration Time (sec): 1.000000E-2
Scans to average: 100
Electric dark correction enabled: true
Nonlinearity correction enabled: false
Boxcar width: 0
XAxis mode: Wavelengths
Number of Pixels in Spectrum: 2048
>>>>>Begin Spectral Data<<<<<
189.047	-36.73
189.435	-36.73
189.823	-36.73
190.211	-899.7
190.599	33.16
190.987	-3096.7
191.375	-341.89
191.763	26.09
192.151	1863.85
192.538	-464.3
192.926	117.97
193.314	194
193.702	38.8
194.089	683.36
194.477	51.03
194.864	41.31
195.252	192.95
195.639	115.78
196.027	13.63
196.414	-423.22
196.801	71.05
197.189	-12.11
197.576	151.32
197.963	97.34
198.351	23.06
198.738	-46.77
199.125	-49.79
199.512	-7.76
199.899	-52.24
200.286	-74.39
200.673	24.05
201.06	0.54
201.447	-1.01
201.833	-8.29
202.22	-23.06
202.607	-54.88
202.994	-9.06
203.38	-37.53
203.767	-4.78
204.154	15.48
204.54	15.12
204.927	-5.05
205.313	28.61
205.699	23.47
206.086	23.85
206.472	2.37
206.858	12.84
207.245	1.33
207.631	-26.44
208.017	37.6
208.403	-35.37
208.789	-8.58
209.175	-19.05
209.561	-72.14
209.947	-30.86
210.333	-23.64
210.719	11.88
211.105	27.82
211.491	0.88
211.876	-21.61
212.262	15.18
212.648	22.03
213.034	-27.48
213.419	-7.84
213.805	-40.58
214.19	-19.8
214.576	-26.59
214.961	2.41
215.346	-53.81
215.732	-21.61
216.117	-3.29
216.502	-23.07
216.888	3.86
217.273	8.15
217.658	-13.99
218.043	-12.34
218.428	-14.62
218.813	1.21
219.198	-28.72
219.583	-19.24
219.968	8.27
220.353	-13.75
220.738	0.59
221.122	-12.03
221.507	-12.22
221.892	-16.77
222.276	-20.41
222.661	-15.88
223.046	6.8
223.43	11.27
223.815	2.99
224.199	-1.34
224.583	2.39
224.968	-0.33
225.352	-10.25
225.736	12.46
226.121	-1.24
226.505	6.21
226.889	1.04
227.273	4.66
227.657	9.14
228.041	3.95
228.425	3.99
228.809	3.47
229.193	9.31
229.577	6.74
229.961	8.72
230.344	9.43
230.728	9.33
231.112	8.91
231.495	7.54
231.879	7.67
232.263	8.51
232.646	6.96
233.03	9.16
233.413	7.55
233.797	6.46
234.18	6.25
234.563	6.47
234.946	6.97
235.33	7.71
235.713	8.55
236.096	9.09
236.479	8.64
236.862	8.28
237.245	7.11
237.628	8.88
238.011	8.91
238.394	6.21
238.777	8.62
239.16	8.97
239.543	8.65
239.925	9.01
240.308	6.39
240.691	7.18
241.073	7.35
241.456	6.8
241.838	7.3
242.221	7.55
242.603	8.26
242.986	7.7
243.368	8.3
243.75	8.36
244.133	8.52
244.515	8.12
244.897	8.07
245.279	7.87
245.661	7.63
246.043	8.58
246.425	8.04
246.807	7.18
247.189	8.2
247.571	7.66
247.953	7.78
248.335	8
248.717	7.88
249.098	8.18
249.48	7.63
249.862	7.7
250.243	7.87
250.625	8.06
251.006	8.56
251.388	7.64
251.769	6.93
252.151	7.37
252.532	6.51
252.913	6.95
253.295	7.7
253.676	7.79
254.057	7.91
254.438	7.56
254.819	7.98
255.2	7.32
255.581	8.84
255.962	8.34
256.343	7.34
256.724	8.38
257.105	6.85
257.486	6.72
257.867	7.26
258.247	6.36
258.628	7.69
259.009	7.14
259.389	6.16
259.77	7.07
260.15	7.83
260.531	7.6
260.911	7.43
261.292	7.64
261.672	7.47
262.052	7.64
262.432	7.08
262.813	7.56
263.193	7.58
263.573	7.37
263.953	7.64
264.333	7.82
264.713	7.1
265.093	7.08
265.473	7.68
265.853	7.58
266.233	7.96
266.612	6.87
266.992	7.16
267.372	7.39
267.752	7.66
268.131	7.29
268.511	7.29
268.89	7.62
269.27	7.42
269.649	6.84
270.029	7.06
270.408	6.83
270.787	7.06
271.167	7.3
271.546	7.41
271.925	7.05
272.304	6.78
272.683	6.85
273.062	7.36
273.441	6.66
273.82	7.3
274.199	6.7
274.578	6.99
274.957	7.24
275.336	7.36
275.715	7.57
276.093	6.29
276.472	6.42
276.851	6.94
277.229	6.91
277.608	6.05
277.986	6.76
278.365	7.18
278.743	6.88
279.122	6.54
279.5	6.73
279.878	6.54
280.257	6.81
280.635	6.87
281.013	7.27
281.391	6.72
281.769	7.08
282.147	6.5
282.525	6.44
282.903	6.78
283.281	6.61
283.659	6.99
284.037	6.58
284.415	6.58
284.792	6.98
285.17	6.65
285.548	6.45
285.925	6.35
286.303	6.77
286.68	6.73
287.058	6.76
287.435	6.44
287.813	6.34
288.19	6.28
288.567	6.46
288.945	6.6
289.322	6.45
289.699	6.55
290.076	6.27
290.453	6.4
290.83	6.68
291.207	6.61
291.584	6.72
291.961	6.56
292.338	6.03
292.715	6.01
293.092	6.57
293.469	6.07
293.845	6.44
294.222	6.7
294.599	5.9
294.975	6.1
295.352	6.32
295.728	6.34
296.105	6.34
296.481	5.97
296.858	5.97
297.234	5.56
297.61	6.1
297.986	6.67
298.363	6.48
298.739	6.2
299.115	6
299.491	6.21
299.867	5.84
300.243	6.09
300.619	5.85
300.995	6.04
301.371	6.22
301.746	5.84
302.122	5.74
302.498	5.9
302.874	6.2
303.249	6.27
303.625	6.04
304	6.08
304.376	6.03
304.751	6.45
305.127	6.01
305.502	5.59
305.878	6.1
306.253	5.36
306.628	5.54
307.003	5.84
307.378	5.99
307.754	5.78
308.129	5.35
308.504	6.02
308.879	5.93
309.254	5.98
309.629	5.61
310.003	5.63
310.378	5.98
310.753	5.76
311.128	5.45
311.502	6.1
311.877	5.64
312.252	5.91
312.626	6.02
313.001	5.99
313.375	6.1
313.75	6.02
314.124	5.82
314.498	5.96
314.873	5.37
315.247	5.41
315.621	5.84
315.995	5.61
316.369	5.72
316.743	5.58
317.117	5.26
317.491	5.57
317.865	5.17
318.239	5.77
318.613	5.31
318.987	5.29
319.361	5.6
319.734	5.5
320.108	5.87
320.482	6.11
320.855	5.72
321.229	5.65
321.602	5.4
321.976	5.07
322.349	5.95
322.723	5.57
323.096	5.24
323.469	4.98
323.843	5.26
324.216	5.75
324.589	5.49
324.962	5.32
325.335	5.51
325.708	5.53
326.081	5.54
326.454	5.92
326.827	5.62
327.2	5.29
327.573	5.99
327.945	5.44
328.318	5.26
328.691	5.17
329.063	5.02
329.436	4.93
329.809	5.63
330.181	5.85
330.553	5.43
330.926	5.73
331.298	5.41
331.671	5.59
332.043	5.18
332.415	5.41
332.787	5.72
333.159	5.4
333.532	5.37
333.904	5.66
334.276	5.67
334.648	5.18
335.02	5.02
335.391	5.2
335.763	5.21
336.135	5.41
336.507	5.12
336.879	5.32
337.25	5.82
337.622	5.33
337.993	5.38
338.365	5.54
338.736	5.39
339.108	5.55
339.479	5.58
339.851	5.64
340.222	6.05
340.593	5.4
340.964	5.57
341.336	5.51
341.707	5.26
342.078	5.45
342.449	5.42
342.82	5.61
343.191	5.38
343.562	5.78
343.933	5.14
344.303	5.59
344.674	5.32
345.045	5.48
345.416	5.83
345.786	5.42
346.157	5.55
346.527	5.53
346.898	5.3
347.268	5.99
347.639	5.05
348.009	5.77
348.38	5.77
348.75	5.42
349.12	5.3
349.49	5.62
349.861	5.79
350.231	5.56
350.601	5.48
350.971	5.15
351.341	5.8
351.711	5.54
352.081	5.33
352.45	5.42
352.82	4.91
353.19	5.31
353.56	5.54
353.929	5.61
354.299	5.46
354.669	5.53
355.038	5.67
355.408	5.22
355.777	5.39
356.147	5.63
356.516	5.41
356.885	5.36
357.254	5.52
357.624	5.23
357.993	5.62
358.362	5.8
358.731	5.94
359.1	5.7
359.469	5.79
359.838	5.7
360.207	5.48
360.576	6
360.945	5.9
361.314	5.71
361.682	5.34
362.051	5.85
362.42	5.6
362.788	5.81
363.157	5.53
363.525	5.58
363.894	5.61
364.262	5.69
364.631	6.01
364.999	5.85
365.367	5.79
365.735	5.52
366.104	5.77
366.472	5.68
366.84	5.91
367.208	5.74
367.576	5.57
367.944	5.71
368.312	5.66
368.68	5.96
369.048	5.86
369.416	5.67
369.783	5.81
370.151	6.12
370.519	6.18
370.886	6.15
371.254	6.26
371.621	6.51
371.989	5.96
372.356	5.89
372.724	5.76
373.091	5.68
373.458	5.56
373.826	6.12
374.193	5.85
374.56	6.24
374.927	5.96
375.294	5.9
375.661	5.84
376.028	5.91
376.395	6.04
376.762	5.36
377.129	5.6
377.496	6.01
377.863	6.05
378.229	6.19
378.596	6.23
378.963	6.02
379.329	6.17
379.696	5.9
380.062	5.88
380.429	5.69
380.795	6.32
381.161	5.71
381.528	5.77
381.894	5.89
382.26	6.23
382.626	6.05
382.993	6.19
383.359	5.93
383.725	5.8
384.091	6.04
384.457	6.08
384.823	6.04
385.188	6.13
385.554	6.17
385.92	5.97
386.286	6.1
386.651	5.93
387.017	6.23
387.383	6.17
387.748	6.12
388.114	6
388.479	6.07
388.845	6.11
389.21	6.31
389.575	6.26
389.94	6.41
390.306	6.01
390.671	6.4
391.036	6.13
391.401	6.21
391.766	6.04
392.131	6.31
392.496	6.28
392.861	6.13
393.226	6.18
393.591	6.19
393.956	6.18
394.32	6.39
394.685	6.08
395.05	6.23
395.414	6.19
395.779	6.42
396.143	6.25
396.508	6.15
396.872	6.17
397.236	6.56
397.601	6.31
397.965	6.32
398.329	6.37
398.694	6.32
399.058	6.17
399.422	6.06
399.786	6.16
400.15	6.25
400.514	6.51
400.878	6.19
401.242	6.3
401.605	6.08
401.969	6.24
402.333	6.37
402.697	6.78
403.06	6.34
403.424	6.22
403.787	6.37
404.151	6.17
404.514	6.45
404.878	6.37
405.241	6.48
405.604	6.38
405.968	6.41
406.331	6.5
406.694	6.4
407.057	6.23
407.42	6.49
407.783	6.53
408.146	6.68
408.509	6.32
408.872	6.48
409.235	6.49
409.598	6.57
409.961	6.55
410.323	6.44
410.686	6.37
411.049	6.53
411.411	6.32
411.774	6.3
412.136	6.48
412.499	6.58
412.861	6.15
413.223	6.63
413.586	6.48
413.948	6.35
414.31	6.55
414.672	6.4
415.035	6.79
415.397	6.36
415.759	6.27
416.121	6.68
416.483	6.3
416.845	6.57
417.206	6.6
417.568	6.52
417.93	6.55
418.292	6.46
418.653	6.27
419.015	6.45
419.377	6.37
419.738	6.5
420.1	6.49
420.461	6.41
420.822	6.54
421.184	6.38
421.545	6.5
421.906	6.51
422.267	6.29
422.629	6.53
422.99	6.43
423.351	6.56
423.712	6.49
424.073	6.63
424.434	6.54
424.795	6.53
425.155	6.4
425.516	6.51
425.877	6.45
426.238	6.56
426.598	6.53
426.959	6.53
427.32	6.51
427.68	6.52
428.041	6.72
428.401	6.63
428.761	6.79
429.122	6.61
429.482	6.62
429.842	6.61
430.202	6.78
430.563	6.74
430.923	6.77
431.283	6.83
431.643	6.73
432.003	6.65
432.363	6.73
432.722	6.65
433.082	6.66
433.442	6.83
433.802	6.53
434.161	6.72
434.521	6.68
434.881	6.67
435.24	6.46
435.6	6.66
435.959	6.71
436.319	6.68
436.678	6.9
437.037	6.77
437.396	6.78
437.756	6.64
438.115	6.82
438.474	6.78
438.833	6.86
439.192	6.56
439.551	6.76
439.91	6.7
440.269	6.73
440.628	6.83
440.987	6.72
441.345	6.75
441.704	6.74
442.063	6.59
442.421	6.7
442.78	6.81
443.138	6.8
443.497	6.76
443.855	6.94
444.214	6.67
444.572	7.04
444.93	6.84
445.288	6.91
445.647	6.68
446.005	6.8
446.363	6.73
446.721	6.73
447.079	6.72
447.437	6.75
447.795	6.73
448.153	6.63
448.51	6.69
448.868	6.68
449.226	6.75
449.584	6.84
449.941	6.74
450.299	6.69
450.656	6.86
451.014	6.91
451.371	6.86
451.729	6.92
452.086	6.79
452.443	7.08
452.801	6.88
453.158	7.28
453.515	6.79
453.872	6.86
454.229	6.65
454.586	6.73
454.943	6.8
455.3	6.84
455.657	6.92
456.014	6.91
456.371	6.84
456.727	6.97
457.084	7.07
457.441	6.91
457.797	6.85
458.154	6.87
458.51	6.94
458.867	6.83
459.223	6.77
459.58	6.9
459.936	6.93
460.292	6.87
460.648	6.89
461.005	6.81
461.361	6.84
461.717	6.82
462.073	6.9
462.429	6.97
462.785	7
463.141	6.92
463.496	6.91
463.852	6.96
464.208	6.98
464.564	6.89
464.919	7.03
465.275	7.12
465.631	6.98
465.986	7.14
466.342	6.97
466.697	6.85
467.052	7.14
467.408	6.95
467.763	7.15
468.118	6.9
468.473	7.01
468.829	6.92
469.184	7.2
469.539	6.98
469.894	7
470.249	7.07
470.603	7.15
470.958	7.09
471.313	7.1
471.668	7.21
472.023	7.08
472.377	7.03
472.732	7.12
473.086	7.05
473.441	6.93
473.795	7.25
474.15	7.16
474.504	7.06
474.859	6.87
475.213	7.09
475.567	6.92
475.921	7.34
476.275	7.17
476.63	6.93
476.984	7.06
477.338	7.28
477.692	7.11
478.045	7.22
478.399	7.11
478.753	7.12
479.107	7.1
479.461	7.04
479.814	7
480.168	7.1
480.521	7.27
480.875	7.23
481.228	7.15
481.582	7.16
481.935	7.21
482.289	7.09
482.642	7.22
482.995	7.06
483.348	7
483.701	7.21
484.055	6.99
484.408	6.92
484.761	6.85
485.114	6.76
485.466	6.75
485.819	6.76
486.172	6.78
486.525	6.8
486.878	6.89
487.23	6.94
487.583	6.97
487.936	6.97
488.288	6.95
488.641	6.9
488.993	6.84
489.345	6.86
489.698	6.88
490.05	6.86
490.402	6.88
490.754	6.97
491.107	6.99
491.459	7.04
491.811	7.02
492.163	7.05
492.515	6.97
492.866	6.89
493.218	6.93
493.57	7
493.922	6.98
494.274	7.1
494.625	7.12
494.977	7.14
495.328	7.24
495.68	7.15
496.031	7.06
496.383	7.03
496.734	7.12
497.086	7.27
497.437	7.28
497.788	7.36
498.139	7.18
498.49	7.2
498.842	7.23
499.193	7.16
499.544	7.17
499.894	7.18
500.245	7.22
500.596	7.2
500.947	7.24
501.298	7.22
501.648	7.16
501.999	7.35
502.35	7.2
502.7	7.46
503.051	7.28
503.401	7.34
503.752	7.18
504.102	7.13
504.452	7.2
504.803	7.18
505.153	7.43
505.503	7.19
505.853	7.35
506.203	7.27
506.553	7.22
506.903	7.25
507.253	7.19
507.603	7.33
507.953	7.3
508.303	7.41
508.652	7.17
509.002	7.35
509.352	7.37
509.701	7.18
510.051	7.43
510.4	7.36
510.75	7.31
511.099	7.15
511.449	7.37
511.798	7.32
512.147	7.26
512.496	7.38
512.846	7.43
513.195	7.31
513.544	7.29
513.893	7.26
514.242	7.19
514.591	7.36
514.939	7.34
515.288	7.34
515.637	7.28
515.986	7.45
516.334	7.43
516.683	7.41
517.032	7.27
517.38	7.27
517.729	7.34
518.077	7.47
518.426	7.39
518.774	7.33
519.122	7.37
519.47	7.3
519.819	7.17
520.167	7.19
520.515	7.34
520.863	7.14
521.211	7.23
521.559	7.23
521.907	7.32
522.255	7.26
522.602	7.43
522.95	7.33
523.298	7.42
523.645	7.4
523.993	7.36
524.341	7.47
524.688	7.4
525.036	7.36
525.383	7.4
525.73	7.26
526.078	7.38
526.425	7.41
526.772	7.33
527.119	7.35
527.466	7.34
527.814	7.24
528.161	7.32
528.508	7.31
528.854	7.29
529.201	7.21
529.548	7.14
529.895	7.07
530.242	7.02
530.588	7.03
530.935	7.12
531.282	7.07
531.628	7.17
531.975	7.12
532.321	7.26
532.667	7.22
533.014	7.43
533.36	7.36
533.706	7.31
534.052	7.23
534.399	7.26
534.745	7.16
535.091	7.09
535.437	7.19
535.783	7.16
536.129	7.18
536.474	7.3
536.82	7.36
537.166	7.24
537.512	7.28
537.857	7.24
538.203	7.18
538.549	7.21
538.894	7.2
539.239	7.32
539.585	7.31
539.93	7.33
540.276	7.38
540.621	7.43
540.966	7.33
541.311	7.32
541.656	7.32
542.001	7.32
542.346	7.21
542.691	7.12
543.036	7.11
543.381	7.17
543.726	7.22
544.071	7.21
544.415	7.21
544.76	7.25
545.105	7.26
545.449	7.17
545.794	7.29
546.138	7.31
546.483	7.45
546.827	7.29
547.171	7.37
547.516	7.36
547.86	7.41
548.204	7.35
548.548	7.33
548.892	7.38
549.236	7.24
549.58	7.25
549.924	7.41
550.268	7.55
550.612	7.37
550.956	7.58
551.3	7.55
551.643	7.43
551.987	7.6
552.33	7.59
552.674	7.39
553.017	7.49
553.361	7.55
553.704	7.57
554.048	7.48
554.391	7.48
554.734	7.31
555.077	7.38
555.42	7.46
555.764	7.44
556.107	7.55
556.45	7.38
556.793	7.51
557.135	7.5
557.478	7.57
557.821	7.45
558.164	7.59
558.507	7.41
558.849	7.65
559.192	7.51
559.534	7.4
559.877	7.39
560.219	7.41
560.562	7.36
560.904	7.63
561.246	7.36
561.589	7.82
561.931	7.62
562.273	7.37
562.615	7.48
562.957	7.37
563.299	7.55
563.641	7.43
563.983	7.39
564.325	7.51
564.667	7.44
565.008	7.3
565.35	7.43
565.692	7.26
566.033	7.41
566.375	7.63
566.716	7.45
567.058	7.38
567.399	7.53
567.741	7.44
568.082	7.52
568.423	7.3
568.764	7.54
569.105	7.34
569.447	7.24
569.788	7.49
570.129	7.24
570.47	7.4
570.811	7.39
571.151	7.46
571.492	7.4
571.833	7.35
572.174	7.38
572.514	7.57
572.855	7.45
573.195	7.37
573.536	7.44
573.876	7.33
574.217	7.26
574.557	7.32
574.898	7.21
575.238	7.37
575.578	7.4
575.918	7.32
576.258	7.58
576.598	7.29
576.938	7.38
577.278	7.4
577.618	7.37
577.958	7.41
578.298	7.51
578.638	7.48
578.977	7.33
579.317	7.44
579.657	7.46
579.996	7.51
580.336	7.46
580.675	7.25
581.014	7.61
581.354	7.36
581.693	7.76
582.032	7.57
582.372	7.54
582.711	7.4
583.05	7.38
583.389	7.69
583.728	7.56
584.067	7.23
584.406	7.48
584.745	7.36
585.083	7.1
585.422	7.6
585.761	7.67
586.1	7.5
586.438	7.38
586.777	7.63
587.115	7.41
587.454	7.32
587.792	7.48
588.13	7.3
588.469	7.31
588.807	7.58
589.145	7.51
589.483	7.19
589.821	7.22
590.159	7.4
590.497	7.2
590.835	7.57
591.173	7.6
591.511	7.6
591.849	7.3
592.187	7.38
592.524	7.45
592.862	7.35
593.2	7.34
593.537	7.29
593.875	7.41
594.212	7.45
594.55	7.37
594.887	7.55
595.224	7.45
595.561	7.3
595.899	7.51
596.236	7.63
596.573	7.25
596.91	7.29
597.247	7.47
597.584	7.4
597.921	7.36
598.258	7.42
598.594	7.28
598.931	7.02
599.268	7.02
599.604	7.13
599.941	7.35
600.277	7.3
600.614	7.41
600.95	7.26
601.287	7.09
601.623	7.08
601.959	7.46
602.296	7.35
602.632	7.29
602.968	7.29
603.304	7.29
603.64	7.35
603.976	7.37
604.312	7.1
604.648	7.39
604.984	7.25
605.319	7.4
605.655	7.22
605.991	7.24
606.326	7.17
606.662	7.04
606.998	7.21
607.333	7.28
607.668	7.23
608.004	7.22
608.339	6.93
608.674	7.31
609.01	7.51
609.345	7.12
609.68	7.1
610.015	7.22
610.35	7.3
610.685	7.1
611.02	7.1
611.355	7.33
611.689	7.11
612.024	7.28
612.359	7.2
612.694	7.27
613.028	7.15
613.363	6.98
613.697	7.12
614.032	7.19
614.366	7.05
614.7	7.16
615.035	7.28
615.369	7.47
615.703	7.31
616.037	7.04
616.371	7.02
616.705	7.35
617.039	7.32
617.373	7.33
617.707	7.02
618.041	7.23
618.375	6.8
618.709	7.16
619.042	7.33
619.376	7.27
619.71	6.96
620.043	7.35
620.377	7.2
620.71	7.26
621.043	7.44
621.377	7.4
621.71	7.34
622.043	7.01
622.376	7.51
622.709	7.55
623.043	7.06
623.376	6.94
623.709	7.32
624.041	7.09
624.374	7.33
624.707	7.41
625.04	7.11
625.373	7.33
625.705	7.33
626.038	7.28
626.37	6.94
626.703	7.35
627.035	7.3
627.368	7.32
627.7	7.1
628.032	7.18
628.365	7.44
628.697	7.42
629.029	7.14
629.361	7.41
629.693	7.04
630.025	7.14
630.357	7.39
630.689	7.27
631.021	7.29
631.353	7.39
631.684	6.94
632.016	6.91
632.348	6.99
632.679	6.94
633.011	7.13
633.342	7.12
633.674	6.95
634.005	7.09
634.336	7.12
634.668	7.27
634.999	7.14
635.33	7.53
635.661	7.07
635.992	7.19
636.323	7.09
636.654	7.32
636.985	6.92
637.316	7.18
637.647	7.25
637.977	7.13
638.308	7.48
638.639	7.11
638.969	7.06
639.3	7.22
639.63	7.09
639.961	7.38
640.291	6.76
640.622	7.22
640.952	7.19
641.282	6.72
641.612	6.96
641.943	7.12
642.273	7.2
642.603	6.95
642.933	7.31
643.263	7.37
643.592	7.8
643.922	7.34
644.252	7.48
644.582	7.26
644.911	6.72
645.241	7.11
645.571	7.11
645.9	7.42
646.23	7.44
646.559	6.79
646.888	7.47
647.218	7.35
647.547	7.03
647.876	6.64
648.205	7.1
648.534	6.94
648.863	7.19
649.192	7.27
649.521	7.16
649.85	7.13
650.179	7.26
650.508	7.19
650.837	7.11
651.165	7.5
651.494	7.22
651.822	7.52
652.151	6.84
652.479	7.31
652.808	7.11
653.136	7.13
653.465	6.78
653.793	7.09
654.121	7
654.449	6.9
654.777	6.8
655.105	6.64
655.433	7.05
655.761	7.02
656.089	6.67
656.417	7.2
656.745	7.45
657.073	6.82
657.4	7.08
657.728	6.91
658.056	7.31
658.383	7
658.711	6.94
659.038	7.72
659.365	7.44
659.693	7.18
660.02	6.96
660.347	7.14
660.674	7.01
661.001	7.2
661.329	6.93
661.656	6.75
661.982	6.73
662.309	7.17
662.636	7.05
662.963	7.65
663.29	6.96
663.616	6.98
663.943	6.92
664.27	6.93
664.596	6.69
664.923	6.79
665.249	7.46
665.576	6.67
665.902	6.75
666.228	7.01
666.554	7.54
666.881	6.81
667.207	7.26
667.533	6.95
667.859	6.7
668.185	6.84
668.511	7.12
668.837	7.06
669.162	7.07
669.488	6.35
669.814	6.93
670.139	7.05
670.465	7.12
670.791	6.72
671.116	6.85
671.442	6.32
671.767	7.07
672.092	6.87
672.418	7.01
672.743	6.81
673.068	7.11
673.393	7.06
673.718	6.6
674.043	6.54
674.368	7.24
674.693	6.85
675.018	6.71
675.343	6.9
675.667	6.79
675.992	7.09
676.317	6.62
676.641	7.06
676.966	7.23
677.29	6.64
677.615	6.65
677.939	7.09
678.264	6.74
678.588	7.05
678.912	6.85
679.236	6.6
679.56	6.88
679.885	6.44
680.209	6.92
680.532	7.56
680.856	6.96
681.18	7.86
681.504	6.75
681.828	6.91
682.152	6.97
682.475	7.08
682.799	6.56
683.122	7.17
683.446	6.6
683.769	7.39
684.093	7.75
684.416	6.8
684.739	7.03
685.062	7.28
685.386	7.59
685.709	6.9
686.032	6.8
686.355	7.4
686.678	7.6
687.001	7.08
687.324	7.18
687.646	7.16
687.969	7.06
688.292	6.97
688.614	7.23
688.937	7.11
689.26	7.32
689.582	6.81
689.904	7.5
690.227	7.41
690.549	7.38
690.871	6.81
691.194	7.23
691.516	7.65
691.838	7.42
692.16	6.48
692.482	6.51
