Data from 0006_chest_Reflection__2__394.txt Node

Date: Thu Dec 15 19:39:02 CST 2022
User: ToomeyLab
Spectrometer: FLMS14357
Trigger mode: 0
Integration Time (sec): 1.000000E-2
Scans to average: 100
Electric dark correction enabled: true
Nonlinearity correction enabled: false
Boxcar width: 0
XAxis mode: Wavelengths
Number of Pixels in Spectrum: 2048
>>>>>Begin Spectral Data<<<<<
189.047	-5.55
189.435	-5.55
189.823	-5.55
190.211	427.96
190.599	207.38
190.987	113.26
191.375	-986.89
191.763	56.19
192.151	40.53
192.538	3330.43
192.926	22.12
193.314	65.19
193.702	-74.46
194.089	93.61
194.477	628.24
194.864	250.96
195.252	231.62
195.639	208.23
196.027	53.95
196.414	33.47
196.801	-362.66
197.189	179.3
197.576	82.99
197.963	30.47
198.351	26.07
198.738	-85.07
199.125	-119.38
199.512	19.34
199.899	-25.78
200.286	-149.89
200.673	74.75
201.06	-44.46
201.447	9.56
201.833	4.22
202.22	-21.87
202.607	-33.29
202.994	23.19
203.38	39.88
203.767	-1.97
204.154	23.49
204.54	19.07
204.927	23.28
205.313	24.36
205.699	7.87
206.086	26.94
206.472	21.52
206.858	-25.95
207.245	-13.23
207.631	11.29
208.017	49.69
208.403	-124.68
208.789	7.26
209.175	-37.99
209.561	-258.35
209.947	-10.82
210.333	18.77
210.719	-13.11
211.105	42.43
211.491	-6.37
211.876	-96.8
212.262	14.48
212.648	12.68
213.034	36.15
213.419	-2.12
213.805	-89.72
214.19	2.61
214.576	-4.59
214.961	16.95
215.346	-46.25
215.732	17.54
216.117	-5.38
216.502	-54.41
216.888	-25.59
217.273	-44.45
217.658	7.72
218.043	-47.91
218.428	-56.87
218.813	-1.29
219.198	-13.27
219.583	1.04
219.968	1.96
220.353	-80.68
220.738	8.46
221.122	-32.26
221.507	-5.79
221.892	-24.08
222.276	-13.82
222.661	-22.28
223.046	-17.5
223.43	9.17
223.815	-1.09
224.199	1.31
224.583	-15.76
224.968	-2.98
225.352	-6.34
225.736	3.28
226.121	2.29
226.505	-4.14
226.889	5.91
227.273	-2.51
227.657	0.55
228.041	1.52
228.425	2.76
228.809	0.72
229.193	2.52
229.577	3.38
229.961	3.94
230.344	4.86
230.728	4.84
231.112	4.6
231.495	2.46
231.879	2.42
232.263	3.82
232.646	4.37
233.03	5.08
233.413	4.13
233.797	2.41
234.18	2.76
234.563	5.78
234.946	2.62
235.33	4.12
235.713	3.92
236.096	4.32
236.479	4.47
236.862	3.69
237.245	1.43
237.628	3.81
238.011	4.32
238.394	2.86
238.777	3.5
239.16	5.72
239.543	5.3
239.925	3.39
240.308	2.76
240.691	3.78
241.073	2.37
241.456	3.39
241.838	4.84
242.221	3.59
242.603	4.18
242.986	4.27
243.368	4.51
243.75	4.81
244.133	4.59
244.515	3.8
244.897	4.24
245.279	3.71
245.661	4.11
246.043	3.78
246.425	3.75
246.807	4.21
247.189	3.86
247.571	3.76
247.953	3.83
248.335	4.19
248.717	4.04
249.098	4.15
249.48	4.06
249.862	3.77
250.243	3.96
250.625	3.93
251.006	3.75
251.388	3.41
251.769	3.66
252.151	3.42
252.532	3.96
252.913	3.87
253.295	3.72
253.676	3.84
254.057	3.63
254.438	3.32
254.819	3.5
255.2	3.61
255.581	4.1
255.962	3.61
256.343	4.91
256.724	3.31
257.105	3.82
257.486	3.68
257.867	3.61
258.247	3.83
258.628	4.26
259.009	2.65
259.389	3.6
259.77	3.54
260.15	4.41
260.531	3.87
260.911	3.72
261.292	3.77
261.672	3.79
262.052	3.78
262.432	3.37
262.813	3.94
263.193	3.59
263.573	3.76
263.953	3.82
264.333	4.19
264.713	4.17
265.093	3.71
265.473	4.67
265.853	3.98
266.233	4.38
266.612	3.64
266.992	3.61
267.372	4.31
267.752	3.6
268.131	3.51
268.511	3.43
268.89	4.2
269.27	2.66
269.649	3.72
270.029	3.25
270.408	3.85
270.787	3.68
271.167	3.82
271.546	4.17
271.925	3.92
272.304	3.42
272.683	3.17
273.062	3.54
273.441	3.21
273.82	3.86
274.199	3.21
274.578	3.8
274.957	3.62
275.336	4.03
275.715	3.97
276.093	3.33
276.472	3.39
276.851	3.81
277.229	3.21
277.608	3.13
277.986	3.31
278.365	3.89
278.743	4.09
279.122	3.28
279.5	3.8
279.878	3.32
280.257	3.81
280.635	3.69
281.013	3.34
281.391	3.39
281.769	4.1
282.147	2.93
282.525	2.91
282.903	3.03
283.281	4.21
283.659	3.71
284.037	3.48
284.415	3.36
284.792	3.95
285.17	3.63
285.548	3.12
285.925	3.51
286.303	4.15
286.68	3.59
287.058	3.69
287.435	3.57
287.813	3.37
288.19	3.26
288.567	3.47
288.945	3.34
289.322	3.24
289.699	3.41
290.076	3.3
290.453	3.28
290.83	3.48
291.207	3.58
291.584	3.36
291.961	3.39
292.338	3.5
292.715	3.33
293.092	3.29
293.469	3.23
293.845	3.33
294.222	3.76
294.599	3.69
294.975	3.36
295.352	3.5
295.728	3.41
296.105	3.25
296.481	3.5
296.858	3.27
297.234	3.29
297.61	3.21
297.986	3.77
298.363	3.38
298.739	3.74
299.115	3.42
299.491	3.93
299.867	3.42
300.243	3.22
300.619	3.15
300.995	3.85
301.371	3.62
301.746	3.37
302.122	3.44
302.498	3.19
302.874	3.61
303.249	3.41
303.625	3.22
304	3.43
304.376	3.91
304.751	3.55
305.127	3.04
305.502	3.47
305.878	3.2
306.253	3.16
306.628	3.56
307.003	3.43
307.378	3.28
307.754	3.33
308.129	3.45
308.504	3.55
308.879	3.4
309.254	3.79
309.629	3.39
310.003	3.55
310.378	3.78
310.753	3.56
311.128	2.83
311.502	3.56
311.877	3.26
312.252	3.15
312.626	3.82
313.001	3.54
313.375	3.85
313.75	3.71
314.124	3.61
314.498	3.42
314.873	3.15
315.247	4.05
315.621	3.62
315.995	3.49
316.369	3.48
316.743	3.48
317.117	3.18
317.491	3.39
317.865	2.8
318.239	3.34
318.613	3.19
318.987	3.38
319.361	3.31
319.734	2.97
320.108	3.48
320.482	3.91
320.855	3.4
321.229	3.31
321.602	3.62
321.976	3.11
322.349	3.89
322.723	3.8
323.096	3.41
323.469	3.49
323.843	3.39
324.216	3.28
324.589	3.71
324.962	3.09
325.335	3.27
325.708	3.47
326.081	3.59
326.454	3.51
326.827	3.78
327.2	3.13
327.573	4.04
327.945	3.35
328.318	3.54
328.691	3.66
329.063	2.93
329.436	3.25
329.809	3.76
330.181	4.03
330.553	3.9
330.926	3.86
331.298	3.53
331.671	3.67
332.043	3.47
332.415	3.18
332.787	3.71
333.159	3.22
333.532	3.77
333.904	3.48
334.276	3.76
334.648	3.6
335.02	3.42
335.391	2.95
335.763	3.59
336.135	3.87
336.507	3.16
336.879	3.61
337.25	3.6
337.622	3.94
337.993	3.39
338.365	3.42
338.736	3.79
339.108	3.63
339.479	3.1
339.851	3.95
340.222	4.1
340.593	4.08
340.964	3.6
341.336	3.76
341.707	3.37
342.078	3.19
342.449	3.47
342.82	3.49
343.191	3.63
343.562	3.31
343.933	3.55
344.303	3.93
344.674	3.48
345.045	3.58
345.416	3.92
345.786	3.18
346.157	3.61
346.527	3.86
346.898	3.28
347.268	3.77
347.639	3.85
348.009	3.69
348.38	3.28
348.75	3.46
349.12	3.85
349.49	3.61
349.861	3.92
350.231	3.79
350.601	3.53
350.971	3.23
351.341	4.06
351.711	3.57
352.081	3.64
352.45	3.3
352.82	3.43
353.19	3.64
353.56	3.55
353.929	3.67
354.299	3.73
354.669	3.59
355.038	4.03
355.408	3.72
355.777	4.04
356.147	3.45
356.516	3.38
356.885	3.46
357.254	3.72
357.624	3.28
357.993	3.51
358.362	3.78
358.731	3.94
359.1	3.61
359.469	3.63
359.838	3.61
360.207	3.73
360.576	4.02
360.945	3.71
361.314	3.57
361.682	3.32
362.051	3.66
362.42	3.53
362.788	3.65
363.157	3.5
363.525	3.54
363.894	3.53
364.262	3.72
364.631	3.98
364.999	3.76
365.367	3.51
365.735	3.64
366.104	3.48
366.472	3.61
366.84	3.43
367.208	4.09
367.576	3.93
367.944	3.86
368.312	3.29
368.68	4.08
369.048	3.63
369.416	3.77
369.783	3.53
370.151	4.12
370.519	4.18
370.886	3.88
371.254	4.3
371.621	3.93
371.989	3.65
372.356	3.48
372.724	3.48
373.091	3.58
373.458	3.48
373.826	3.84
374.193	3.78
374.56	3.79
374.927	3.56
375.294	3.84
375.661	4.13
376.028	3.54
376.395	3.82
376.762	3.52
377.129	3.74
377.496	4.01
377.863	4
378.229	3.75
378.596	4.05
378.963	3.81
379.329	3.96
379.696	3.85
380.062	3.86
380.429	3.58
380.795	4.19
381.161	3.54
381.528	3.43
381.894	3.53
382.26	3.84
382.626	3.81
382.993	4.2
383.359	3.91
383.725	3.77
384.091	3.83
384.457	3.86
384.823	3.98
385.188	3.93
385.554	4.03
385.92	3.79
386.286	3.79
386.651	3.57
387.017	3.97
387.383	3.6
387.748	4
388.114	4.26
388.479	3.74
388.845	3.51
389.21	4.19
389.575	4.18
389.94	4.14
390.306	3.78
390.671	4.03
391.036	3.65
391.401	3.96
391.766	3.91
392.131	4.2
392.496	4.05
392.861	3.79
393.226	3.77
393.591	3.91
393.956	3.84
394.32	4.04
394.685	3.94
395.05	3.89
395.414	3.99
395.779	4.09
396.143	3.7
396.508	3.76
396.872	3.85
397.236	4.22
397.601	4.1
397.965	3.8
398.329	4.02
398.694	3.42
399.058	3.76
399.422	3.96
399.786	3.71
400.15	3.96
400.514	4.06
400.878	3.97
401.242	4.13
401.605	3.92
401.969	3.82
402.333	3.66
402.697	4.22
403.06	3.97
403.424	3.98
403.787	4.26
404.151	3.92
404.514	4.14
404.878	4.02
405.241	4.06
405.604	3.88
405.968	4.07
406.331	4.1
406.694	3.99
407.057	3.96
407.42	4.12
407.783	4.05
408.146	4.22
408.509	4.15
408.872	4
409.235	4.21
409.598	4.01
409.961	4.05
410.323	3.98
410.686	3.96
411.049	4.07
411.411	3.97
411.774	3.91
412.136	3.98
412.499	4.25
412.861	3.7
413.223	4.16
413.586	4.26
413.948	4.09
414.31	4.07
414.672	4
415.035	4.09
415.397	4.14
415.759	3.94
416.121	4.21
416.483	4
416.845	4.33
417.206	3.98
417.568	3.91
417.93	4.15
418.292	3.86
418.653	3.87
419.015	4.05
419.377	3.87
419.738	4.06
420.1	3.98
420.461	3.88
420.822	4
421.184	3.97
421.545	4
421.906	4.07
422.267	3.98
422.629	3.96
422.99	3.89
423.351	3.89
423.712	4.06
424.073	4.09
424.434	4.18
424.795	4.05
425.155	3.91
425.516	3.92
425.877	3.95
426.238	3.91
426.598	4.01
426.959	4.14
427.32	3.95
427.68	3.98
428.041	4.06
428.401	3.85
428.761	4.25
429.122	4.09
429.482	4.13
429.842	4.07
430.202	4.01
430.563	3.97
430.923	4.03
431.283	4.18
431.643	4.24
432.003	4.11
432.363	4.25
432.722	4.19
433.082	4.08
433.442	4.06
433.802	4
434.161	4.09
434.521	4.03
434.881	4.14
435.24	4.02
435.6	4.04
435.959	4.07
436.319	4.17
436.678	4.14
437.037	4.28
437.396	4.07
437.756	4.13
438.115	4.07
438.474	4.13
438.833	4.23
439.192	4.06
439.551	4.07
439.91	4.16
440.269	4.07
440.628	4.05
440.987	4.15
441.345	4.15
441.704	4.1
442.063	3.98
442.421	4.03
442.78	4.22
443.138	4.08
443.497	4.02
443.855	4.12
444.214	3.97
444.572	4.22
444.93	4.08
445.288	4.11
445.647	3.97
446.005	4.08
446.363	4.18
446.721	4.19
447.079	4.13
447.437	4.15
447.795	4.21
448.153	4.08
448.51	4.17
448.868	4.1
449.226	4.18
449.584	4.17
449.941	4.19
450.299	4.11
450.656	4.07
451.014	4.19
451.371	4.2
451.729	4.22
452.086	4.28
452.443	4.37
452.801	4.11
453.158	4.3
453.515	4.28
453.872	4.26
454.229	3.92
454.586	4.12
454.943	4.3
455.3	4.27
455.657	4.18
456.014	4.21
456.371	4.24
456.727	4.32
457.084	4.43
457.441	4.23
457.797	4.1
458.154	4.34
458.51	4.08
458.867	4.16
459.223	4.06
459.58	4.14
459.936	4.21
460.292	4.28
460.648	4.06
461.005	4.08
461.361	4.08
461.717	4.12
462.073	4.3
462.429	4.21
462.785	4.29
463.141	4.3
463.496	4.4
463.852	4.21
464.208	4.4
464.564	4.15
464.919	4.24
465.275	4.15
465.631	4.43
465.986	4.32
466.342	4.15
466.697	4.11
467.052	4.38
467.408	4.33
467.763	4.25
468.118	4.16
468.473	4.39
468.829	4.21
469.184	4.37
469.539	4.24
469.894	4.44
470.249	4.26
470.603	4.36
470.958	4.58
471.313	4.56
471.668	4.33
472.023	4.43
472.377	4.3
472.732	4.32
473.086	4.36
473.441	4.3
473.795	4.44
474.15	4.38
474.504	4.34
474.859	4.08
475.213	4.44
475.567	4.35
475.921	4.53
476.275	4.42
476.63	4.33
476.984	4.29
477.338	4.43
477.692	4.44
478.045	4.38
478.399	4.35
478.753	4.28
479.107	4.32
479.461	4.31
479.814	4.32
480.168	4.41
480.521	4.45
480.875	4.32
481.228	4.44
481.582	4.38
481.935	4.61
482.289	4.47
482.642	4.49
482.995	4.21
483.348	4.32
483.701	4.33
484.055	4.28
484.408	4.35
484.761	4.22
485.114	4.09
485.466	4.02
485.819	4.1
486.172	4.13
486.525	4.16
486.878	4.26
487.23	4.24
487.583	4.29
487.936	4.22
488.288	4.22
488.641	4.19
488.993	4.16
489.345	4.12
489.698	4.22
490.05	4.15
490.402	4.26
490.754	4.26
491.107	4.22
491.459	4.34
491.811	4.3
492.163	4.36
492.515	4.3
492.866	4.19
493.218	4.2
493.57	4.27
493.922	4.29
494.274	4.41
494.625	4.5
494.977	4.33
495.328	4.38
495.68	4.38
496.031	4.4
496.383	4.47
496.734	4.34
497.086	4.45
497.437	4.53
497.788	4.58
498.139	4.45
498.49	4.56
498.842	4.5
499.193	4.49
499.544	4.56
499.894	4.34
500.245	4.49
500.596	4.52
500.947	4.44
501.298	4.55
501.648	4.56
501.999	4.64
502.35	4.4
502.7	4.75
503.051	4.44
503.401	4.68
503.752	4.53
504.102	4.49
504.452	4.49
504.803	4.47
505.153	4.71
505.503	4.58
505.853	4.57
506.203	4.6
506.553	4.59
506.903	4.63
507.253	4.58
507.603	4.68
507.953	4.58
508.303	4.66
508.652	4.48
509.002	4.69
509.352	4.58
509.701	4.44
510.051	4.65
510.4	4.57
510.75	4.55
511.099	4.42
511.449	4.57
511.798	4.63
512.147	4.53
512.496	4.69
512.846	4.54
513.195	4.66
513.544	4.66
513.893	4.55
514.242	4.5
514.591	4.59
514.939	4.75
515.288	4.68
515.637	4.59
515.986	4.65
516.334	4.77
516.683	4.77
517.032	4.67
517.38	4.61
517.729	4.66
518.077	4.68
518.426	4.72
518.774	4.64
519.122	4.65
519.47	4.6
519.819	4.61
520.167	4.55
520.515	4.61
520.863	4.64
521.211	4.64
521.559	4.62
521.907	4.68
522.255	4.71
522.602	4.68
522.95	4.81
523.298	4.74
523.645	4.72
523.993	4.76
524.341	4.76
524.688	4.71
525.036	4.62
525.383	4.79
525.73	4.74
526.078	4.86
526.425	4.68
526.772	4.71
527.119	4.72
527.466	4.81
527.814	4.7
528.161	4.76
528.508	4.82
528.854	4.7
529.201	4.61
529.548	4.66
529.895	4.56
530.242	4.53
530.588	4.54
530.935	4.62
531.282	4.63
531.628	4.68
531.975	4.68
532.321	4.77
532.667	4.78
533.014	4.86
533.36	4.9
533.706	4.79
534.052	4.85
534.399	4.82
534.745	4.71
535.091	4.73
535.437	4.77
535.783	4.76
536.129	4.83
536.474	4.91
536.82	4.86
537.166	4.91
537.512	4.9
537.857	4.89
538.203	4.93
538.549	4.94
538.894	4.9
539.239	4.98
539.585	4.86
539.93	5.05
540.276	5.02
540.621	5.03
540.966	4.93
541.311	5
541.656	4.94
542.001	5.03
542.346	4.93
542.691	4.88
543.036	4.9
543.381	4.85
543.726	4.93
544.071	4.98
544.415	4.98
544.76	5
545.105	5.08
545.449	4.99
545.794	5.1
546.138	5.04
546.483	5.15
546.827	5.1
547.171	5.23
547.516	5.15
547.86	5.22
548.204	5.19
548.548	5.09
548.892	5.22
549.236	5.24
549.58	5.42
549.924	5.35
550.268	5.37
550.612	5.35
550.956	5.46
551.3	5.53
551.643	5.38
551.987	5.38
552.33	5.64
552.674	5.37
553.017	5.43
553.361	5.5
553.704	5.51
554.048	5.53
554.391	5.38
554.734	5.44
555.077	5.4
555.42	5.44
555.764	5.44
556.107	5.63
556.45	5.67
556.793	5.64
557.135	5.56
557.478	5.52
557.821	5.67
558.164	5.57
558.507	5.33
558.849	5.71
559.192	5.61
559.534	5.61
559.877	5.57
560.219	5.67
560.562	5.69
560.904	5.95
561.246	5.63
561.589	5.71
561.931	5.67
562.273	5.62
562.615	5.66
562.957	5.55
563.299	5.54
563.641	5.87
563.983	5.44
564.325	5.96
564.667	5.96
565.008	5.81
565.35	5.63
565.692	5.7
566.033	5.89
566.375	5.81
566.716	5.68
567.058	5.8
567.399	5.76
567.741	5.96
568.082	5.87
568.423	5.66
568.764	6.02
569.105	5.93
569.447	5.99
569.788	6.01
570.129	6.1
570.47	5.87
570.811	5.86
571.151	6.02
571.492	6.04
571.833	6.06
572.174	6.16
572.514	6.11
572.855	6.26
573.195	5.95
573.536	6.13
573.876	5.97
574.217	5.95
574.557	6.2
574.898	6.19
575.238	6.16
575.578	6.38
575.918	6.23
576.258	6.28
576.598	6.19
576.938	6.08
577.278	6.09
577.618	6.21
577.958	6.3
578.298	6.37
578.638	6.16
578.977	6.45
579.317	6.35
579.657	6.36
579.996	6.44
580.336	6.54
580.675	6.26
581.014	6.64
581.354	6.4
581.693	6.67
582.032	6.74
582.372	6.54
582.711	6.5
583.05	6.53
583.389	6.63
583.728	6.73
584.067	6.46
584.406	6.77
584.745	6.66
585.083	6.75
585.422	6.77
585.761	6.72
586.1	6.79
586.438	6.6
586.777	6.61
587.115	6.61
587.454	6.69
587.792	6.98
588.13	6.73
588.469	6.67
588.807	6.97
589.145	6.9
589.483	6.44
589.821	7.01
590.159	6.72
590.497	6.91
590.835	7.04
591.173	7.06
591.511	6.97
591.849	7.11
592.187	6.95
592.524	7.11
592.862	6.87
593.2	7.1
593.537	7
593.875	7.18
594.212	7.11
594.55	7.21
594.887	7.43
595.224	7.32
595.561	7.12
595.899	7.32
596.236	7.59
596.573	7.16
596.91	7.25
597.247	7.66
597.584	7.45
597.921	7.35
598.258	7.52
598.594	7.26
598.931	7.25
599.268	7.22
599.604	7.38
599.941	7.54
600.277	7.47
600.614	7.44
600.95	7.54
601.287	7.39
601.623	7.42
601.959	7.56
602.296	7.63
602.632	7.64
602.968	7.58
603.304	7.5
603.64	7.73
603.976	7.56
604.312	7.62
604.648	7.71
604.984	7.97
605.319	7.72
605.655	7.64
605.991	7.57
606.326	7.79
606.662	7.6
606.998	7.99
607.333	7.82
607.668	7.7
608.004	7.56
608.339	7.6
608.674	7.94
609.01	8.2
609.345	8.12
609.68	8.11
610.015	8.17
610.35	8.06
610.685	7.89
611.02	7.88
611.355	8.1
611.689	8.22
612.024	8.01
612.359	8.44
612.694	8.38
613.028	8.21
613.363	8.26
613.697	8.36
614.032	8.31
614.366	8.12
614.7	8.61
615.035	8.48
615.369	8.58
615.703	8.5
616.037	8.55
616.371	8.4
616.705	8.56
617.039	8.54
617.373	8.67
617.707	8.58
618.041	8.29
618.375	8.3
618.709	8.61
619.042	8.66
619.376	8.89
619.71	8.87
620.043	9.33
620.377	8.61
620.71	8.98
621.043	8.82
621.377	8.87
621.71	9.26
622.043	9.02
622.376	8.81
622.709	9.37
623.043	9.09
623.376	8.99
623.709	9.35
624.041	8.99
624.374	9.15
624.707	9.24
625.04	8.98
625.373	9.24
625.705	9.48
626.038	9.62
626.37	9.31
626.703	9.36
627.035	9.36
627.368	9.57
627.7	9.24
628.032	9.16
628.365	9.18
628.697	9.46
629.029	8.92
629.361	9.36
629.693	9.45
630.025	9.52
630.357	9.53
630.689	9.32
631.021	9.69
631.353	9.65
631.684	9.43
632.016	9.45
632.348	9.64
632.679	9.77
633.011	9.76
633.342	9.68
633.674	9.38
634.005	9.76
634.336	10.11
634.668	9.9
634.999	9.39
635.33	9.85
635.661	9.62
635.992	9.89
636.323	9.95
636.654	9.82
636.985	9.73
637.316	9.88
637.647	10.24
637.977	9.69
638.308	10.44
638.639	9.79
638.969	10.16
639.3	10.1
639.63	10.22
639.961	10.18
640.291	9.83
640.622	10.36
640.952	10.57
641.282	9.98
641.612	9.98
641.943	9.89
642.273	10.22
642.603	10.32
642.933	10.87
643.263	10.84
643.592	10.8
643.922	11.04
644.252	10.16
644.582	10.87
644.911	10.76
645.241	10.7
645.571	10.66
645.9	10.7
646.23	11.16
646.559	10.38
646.888	10.91
647.218	10.91
647.547	10.8
647.876	10.61
648.205	10.77
648.534	11.24
648.863	10.98
649.192	10.89
649.521	11.04
649.85	10.96
650.179	11.28
650.508	10.91
650.837	11.33
651.165	11.2
651.494	10.91
651.822	11.28
652.151	10.84
652.479	11.22
652.808	11.1
653.136	10.81
653.465	11.19
653.793	11.43
654.121	11.07
654.449	11.16
654.777	10.7
655.105	10.93
655.433	11.8
655.761	11.26
656.089	11.55
656.417	11.56
656.745	11.91
657.073	10.96
657.4	11.26
657.728	10.74
658.056	11.6
658.383	11.56
658.711	11.48
659.038	11.85
659.365	12.18
659.693	11.56
660.02	11.71
660.347	11.78
660.674	11.58
661.001	11.78
661.329	11.56
661.656	11.77
661.982	11.31
662.309	11.84
662.636	11.69
662.963	12
663.29	12.43
663.616	11.77
663.943	11.9
664.27	11.94
664.596	11.13
664.923	12.06
665.249	12.03
665.576	12
665.902	11.73
666.228	12.57
666.554	12.84
666.881	11.99
667.207	11.81
667.533	11.98
667.859	11.88
668.185	12.03
668.511	12.76
668.837	12.23
669.162	12.98
669.488	12.03
669.814	12.19
670.139	11.88
670.465	13.27
670.791	12.57
671.116	12.47
671.442	12.12
671.767	12.9
672.092	12.76
672.418	12.75
672.743	13.26
673.068	11.81
673.393	12.71
673.718	12.6
674.043	12.74
674.368	12.51
674.693	12.64
675.018	13.2
675.343	13.02
675.667	12.56
675.992	12.21
676.317	12.23
676.641	13.45
676.966	13.17
677.29	13.03
677.615	12.84
677.939	13.78
678.264	12.86
678.588	13.24
678.912	13.43
679.236	13.41
679.56	12.95
679.885	13.09
680.209	13.7
680.532	13.93
680.856	12.98
681.18	13.91
681.504	13.23
681.828	13.12
682.152	13.4
682.475	13.63
682.799	13.58
683.122	13.92
683.446	12.8
683.769	14.12
684.093	13.78
684.416	13.41
684.739	13.45
685.062	13.63
685.386	14
685.709	13.43
686.032	13.74
686.355	13.98
686.678	13.86
687.001	13.49
687.324	13.99
687.646	14.19
687.969	14.85
688.292	14.03
688.614	14.53
