Data from 0006_chest_Reflection__0__392.txt Node

Date: Thu Dec 15 19:38:42 CST 2022
User: ToomeyLab
Spectrometer: FLMS14357
Trigger mode: 0
Integration Time (sec): 1.000000E-2
Scans to average: 100
Electric dark correction enabled: true
Nonlinearity correction enabled: false
Boxcar width: 0
XAxis mode: Wavelengths
Number of Pixels in Spectrum: 2048
>>>>>Begin Spectral Data<<<<<
189.047	89.65
189.435	89.65
189.823	89.65
190.211	-652.69
190.599	23.4
190.987	-7.56
191.375	1090.16
191.763	131.96
192.151	61.94
192.538	360.87
192.926	60.47
193.314	44.6
193.702	22.11
194.089	141.24
194.477	374.51
194.864	35.08
195.252	-10.4
195.639	298.46
196.027	82.56
196.414	30.06
196.801	11
197.189	134.72
197.576	-73.13
197.963	-123.42
198.351	-19.2
198.738	-34.13
199.125	-60.4
199.512	-18.79
199.899	-49.4
200.286	-76.7
200.673	105.23
201.06	-72.67
201.447	-14.7
201.833	-6.11
202.22	5.93
202.607	16.29
202.994	-21.35
203.38	54.73
203.767	31.31
204.154	13.71
204.54	12.44
204.927	19.61
205.313	33.99
205.699	19.81
206.086	5.51
206.472	30.83
206.858	-59.97
207.245	-23.72
207.631	-9.15
208.017	50.75
208.403	-16.73
208.789	16.24
209.175	-48.4
209.561	-248.68
209.947	-26.77
210.333	-5.7
210.719	12.64
211.105	40.98
211.491	26.27
211.876	-96.86
212.262	43.41
212.648	-14.62
213.034	-27.79
213.419	-1.28
213.805	-207.99
214.19	-40.18
214.576	-3.46
214.961	43.08
215.346	-37.83
215.732	-14.03
216.117	18.03
216.502	-59.62
216.888	-1.05
217.273	24.73
217.658	-24.09
218.043	-36.09
218.428	-9.65
218.813	-8.28
219.198	-40.71
219.583	-25.02
219.968	-9.33
220.353	-19.8
220.738	-7.85
221.122	-15.19
221.507	-11.65
221.892	-18.81
222.276	-40.99
222.661	-18.08
223.046	-11.01
223.43	4.95
223.815	0.67
224.199	-12.36
224.583	2.24
224.968	-2.99
225.352	-9.92
225.736	-5.15
226.121	2.8
226.505	-0.02
226.889	3.38
227.273	4.02
227.657	3.23
228.041	6.57
228.425	0.58
228.809	1.27
229.193	5.7
229.577	4.77
229.961	3.58
230.344	5.03
230.728	4.7
231.112	6.1
231.495	3.56
231.879	3.71
232.263	4.86
232.646	4.01
233.03	5.16
233.413	4.31
233.797	2.39
234.18	3.49
234.563	3.54
234.946	4.85
235.33	4.02
235.713	3.95
236.096	6.54
236.479	5.32
236.862	3.95
237.245	2.31
237.628	6.34
238.011	5.05
238.394	3.8
238.777	4.39
239.16	5.38
239.543	4.96
239.925	3.61
240.308	4.63
240.691	4.33
241.073	3.06
241.456	3.85
241.838	4.43
242.221	4.59
242.603	4.88
242.986	4.37
243.368	5.09
243.75	4.79
244.133	5.08
244.515	4.89
244.897	4.91
245.279	5.22
245.661	4.43
246.043	4.51
246.425	5.4
246.807	4.71
247.189	4.49
247.571	4.55
247.953	4.5
248.335	4.93
248.717	4.84
249.098	4.8
249.48	4.53
249.862	4.78
250.243	5.3
250.625	4.94
251.006	5.46
251.388	4.24
251.769	3.56
252.151	5.17
252.532	3.62
252.913	4.57
253.295	4.36
253.676	4.49
254.057	4.11
254.438	3.84
254.819	4.79
255.2	5.5
255.581	4.65
255.962	5.5
256.343	4.4
256.724	3.48
257.105	5.04
257.486	4.29
257.867	4.31
258.247	4.77
258.628	4.98
259.009	4.68
259.389	3.33
259.77	5
260.15	5.07
260.531	4.45
260.911	4.3
261.292	4.87
261.672	4.61
262.052	4.68
262.432	4.16
262.813	4.54
263.193	3.97
263.573	4.34
263.953	3.87
264.333	4.44
264.713	5.02
265.093	3.88
265.473	5.27
265.853	4.68
266.233	4.63
266.612	3.84
266.992	4.58
267.372	4.55
267.752	4.5
268.131	3.97
268.511	4.33
268.89	4.58
269.27	3.94
269.649	4.42
270.029	4.61
270.408	3.77
270.787	4.07
271.167	4.57
271.546	4.98
271.925	4.29
272.304	4.25
272.683	4.17
273.062	4.13
273.441	3.75
273.82	4.27
274.199	4.17
274.578	4.59
274.957	4.01
275.336	4.49
275.715	4.25
276.093	3.58
276.472	3.91
276.851	4.21
277.229	3.96
277.608	3.69
277.986	4.4
278.365	4.09
278.743	3.83
279.122	4.15
279.5	3.83
279.878	3.75
280.257	4.08
280.635	4.32
281.013	3.65
281.391	4.04
281.769	4.12
282.147	4.11
282.525	4.09
282.903	4.05
283.281	4.63
283.659	4.34
284.037	4.55
284.415	3.91
284.792	3.83
285.17	4.23
285.548	3.93
285.925	3.98
286.303	4.52
286.68	4.47
287.058	4.11
287.435	3.99
287.813	4.12
288.19	4.1
288.567	4.21
288.945	3.84
289.322	4.09
289.699	3.98
290.076	3.92
290.453	3.88
290.83	4.19
291.207	3.88
291.584	4.69
291.961	3.95
292.338	4.29
292.715	3.84
293.092	4.3
293.469	4.4
293.845	4.21
294.222	4.77
294.599	3.66
294.975	3.69
295.352	4.26
295.728	4.56
296.105	4.28
296.481	4.5
296.858	4.36
297.234	3.72
297.61	4.05
297.986	4.65
298.363	4.22
298.739	4.67
299.115	4.18
299.491	4.6
299.867	4.46
300.243	4.24
300.619	3.92
300.995	4.5
301.371	4.79
301.746	4.87
302.122	4.35
302.498	3.77
302.874	4.08
303.249	4.24
303.625	3.66
304	4.45
304.376	4.76
304.751	4.44
305.127	3.97
305.502	4.3
305.878	4.53
306.253	4.07
306.628	4.5
307.003	4.17
307.378	4.57
307.754	4.42
308.129	4.49
308.504	4.5
308.879	4.4
309.254	4.72
309.629	4.36
310.003	4.27
310.378	4.73
310.753	4.69
311.128	4.33
311.502	4.58
311.877	4.38
312.252	4.51
312.626	4.91
313.001	4.77
313.375	4.67
313.75	4.73
314.124	4.64
314.498	4.73
314.873	4.46
315.247	4.38
315.621	4.21
315.995	4.54
316.369	3.69
316.743	4.39
317.117	4.22
317.491	4.49
317.865	4.57
318.239	5.56
318.613	4.72
318.987	4.25
319.361	4.81
319.734	4.74
320.108	4.8
320.482	4.92
320.855	4.76
321.229	4.41
321.602	4.85
321.976	3.84
322.349	5.22
322.723	5.36
323.096	4.4
323.469	4.74
323.843	4.38
324.216	4.54
324.589	4.92
324.962	4.24
325.335	4.5
325.708	4.53
326.081	4.54
326.454	4.82
326.827	4.98
327.2	4.5
327.573	5.12
327.945	4.77
328.318	4.78
328.691	4.56
329.063	4.56
329.436	4.46
329.809	4.9
330.181	5.48
330.553	5.03
330.926	4.75
331.298	4.33
331.671	4.91
332.043	4.46
332.415	4.61
332.787	4.83
333.159	4.68
333.532	4.93
333.904	4.92
334.276	4.77
334.648	4.98
335.02	4.65
335.391	4.73
335.763	4.52
336.135	4.72
336.507	4.62
336.879	4.84
337.25	4.78
337.622	5.08
337.993	4.76
338.365	4.75
338.736	5.2
339.108	4.75
339.479	4.75
339.851	4.78
340.222	5.03
340.593	4.89
340.964	5.19
341.336	4.91
341.707	4.66
342.078	4.64
342.449	4.78
342.82	4.96
343.191	4.54
343.562	4.95
343.933	4.57
344.303	4.76
344.674	4.82
345.045	4.97
345.416	5.03
345.786	4.7
346.157	4.94
346.527	5.05
346.898	4.67
347.268	5.06
347.639	5.04
348.009	4.9
348.38	5.09
348.75	5.02
349.12	5.16
349.49	5.22
349.861	5.35
350.231	5
350.601	5
350.971	4.86
351.341	5.14
351.711	4.58
352.081	4.74
352.45	4.6
352.82	4.55
353.19	4.62
353.56	4.91
353.929	4.99
354.299	4.99
354.669	5.22
355.038	5.36
355.408	4.83
355.777	5.22
356.147	4.74
356.516	4.83
356.885	5
357.254	5.07
357.624	4.45
357.993	5.15
358.362	4.89
358.731	5.37
359.1	4.98
359.469	5.15
359.838	5.29
360.207	4.85
360.576	5.46
360.945	5.17
361.314	4.78
361.682	4.85
362.051	4.95
362.42	5.11
362.788	5.01
363.157	4.95
363.525	5.22
363.894	4.96
364.262	5.02
364.631	5.34
364.999	5.2
365.367	5.17
365.735	5.03
366.104	5.29
366.472	5.09
366.84	5.35
367.208	5.49
367.576	5.15
367.944	5.34
368.312	4.93
368.68	5.33
369.048	5.22
369.416	5.03
369.783	5.03
370.151	5.57
370.519	5.57
370.886	5.37
371.254	5.71
371.621	5.59
371.989	5.29
372.356	5.14
372.724	5.45
373.091	4.86
373.458	5.12
373.826	5.49
374.193	5.26
374.56	5.2
374.927	5.26
375.294	5.77
375.661	5.53
376.028	5.19
376.395	5.18
376.762	5.24
377.129	5.66
377.496	5.54
377.863	5.12
378.229	5.34
378.596	5.43
378.963	5.54
379.329	5.48
379.696	5.2
380.062	5.38
380.429	5.16
380.795	5.67
381.161	5.2
381.528	5.26
381.894	5.34
382.26	5.49
382.626	5.57
382.993	5.5
383.359	5.42
383.725	5.04
384.091	5.4
384.457	5.36
384.823	5.36
385.188	5.55
385.554	5.68
385.92	5.37
386.286	5.25
386.651	5.34
387.017	5.78
387.383	5.41
387.748	5.44
388.114	5.59
388.479	5.19
388.845	5.32
389.21	5.85
389.575	5.66
389.94	5.56
390.306	5.55
390.671	5.48
391.036	5.44
391.401	5.27
391.766	5.59
392.131	5.74
392.496	5.7
392.861	5.38
393.226	5.34
393.591	5.57
393.956	5.69
394.32	5.83
394.685	5.43
395.05	5.62
395.414	5.39
395.779	5.77
396.143	5.53
396.508	5.5
396.872	5.64
397.236	5.65
397.601	5.56
397.965	5.54
398.329	5.6
398.694	5.49
399.058	5.56
399.422	5.45
399.786	5.54
400.15	5.63
400.514	5.78
400.878	5.52
401.242	5.47
401.605	5.53
401.969	5.62
402.333	5.52
402.697	5.9
403.06	5.55
403.424	5.49
403.787	5.48
404.151	5.6
404.514	5.61
404.878	5.37
405.241	5.66
405.604	5.74
405.968	5.64
406.331	5.78
406.694	5.75
407.057	5.46
407.42	5.58
407.783	5.87
408.146	5.57
408.509	5.96
408.872	5.66
409.235	5.98
409.598	5.66
409.961	5.68
410.323	5.58
410.686	5.62
411.049	5.81
411.411	5.75
411.774	5.69
412.136	5.7
412.499	5.94
412.861	5.31
413.223	5.52
413.586	5.69
413.948	5.96
414.31	5.97
414.672	5.6
415.035	5.82
415.397	5.65
415.759	5.64
416.121	5.75
416.483	5.58
416.845	5.74
417.206	5.64
417.568	5.81
417.93	5.77
418.292	5.76
418.653	5.62
419.015	5.71
419.377	5.56
419.738	5.75
420.1	5.73
420.461	5.73
420.822	5.78
421.184	5.59
421.545	5.71
421.906	5.82
422.267	5.68
422.629	5.69
422.99	5.71
423.351	5.72
423.712	5.76
424.073	5.82
424.434	5.92
424.795	5.74
425.155	5.64
425.516	5.63
425.877	5.77
426.238	5.6
426.598	5.74
426.959	5.86
427.32	5.71
427.68	5.8
428.041	5.97
428.401	5.75
428.761	5.97
429.122	5.95
429.482	5.78
429.842	5.95
430.202	5.96
430.563	5.79
430.923	5.98
431.283	6.15
431.643	5.93
432.003	5.88
432.363	5.93
432.722	5.81
433.082	5.87
433.442	5.9
433.802	5.91
434.161	5.78
434.521	5.85
434.881	5.81
435.24	5.9
435.6	5.98
435.959	6.02
436.319	5.85
436.678	5.97
437.037	5.94
437.396	5.88
437.756	5.88
438.115	6.04
438.474	6.2
438.833	5.97
439.192	5.88
439.551	5.94
439.91	6
440.269	5.92
440.628	5.89
440.987	6.07
441.345	5.98
441.704	5.92
442.063	5.86
442.421	5.9
442.78	5.99
443.138	5.97
443.497	5.96
443.855	5.88
444.214	5.87
444.572	6.23
444.93	6.16
445.288	6.11
445.647	5.84
446.005	6.07
446.363	5.98
446.721	6.05
447.079	5.86
447.437	5.91
447.795	6.04
448.153	5.95
448.51	5.97
448.868	6.02
449.226	5.93
449.584	5.96
449.941	6.06
450.299	5.97
450.656	6.03
451.014	6.2
451.371	6.07
451.729	6.17
452.086	6.11
452.443	6.19
452.801	6.26
453.158	6.35
453.515	6.08
453.872	6.1
454.229	5.92
454.586	6.02
454.943	6.32
455.3	6.11
455.657	6.04
456.014	6.02
456.371	6.2
456.727	6.19
457.084	6.31
457.441	6.16
457.797	6.17
458.154	6.26
458.51	5.96
458.867	6.15
459.223	6.14
459.58	6.18
459.936	6.15
460.292	6.21
460.648	6.1
461.005	6.06
461.361	6.07
461.717	6.17
462.073	6.13
462.429	6.18
462.785	6.26
463.141	6.11
463.496	6.09
463.852	6.36
464.208	6.13
464.564	6.27
464.919	6.24
465.275	6.19
465.631	6.52
465.986	6.36
466.342	6.12
466.697	6.16
467.052	6.46
467.408	6.35
467.763	6.27
468.118	6.19
468.473	6.31
468.829	6.27
469.184	6.27
469.539	6.15
469.894	6.28
470.249	6.24
470.603	6.48
470.958	6.3
471.313	6.43
471.668	6.42
472.023	6.38
472.377	6.31
472.732	6.31
473.086	6.37
473.441	6.43
473.795	6.58
474.15	6.52
474.504	6.48
474.859	6.19
475.213	6.44
475.567	6.32
475.921	6.4
476.275	6.44
476.63	6.53
476.984	6.31
477.338	6.6
477.692	6.51
478.045	6.35
478.399	6.6
478.753	6.46
479.107	6.47
479.461	6.38
479.814	6.43
480.168	6.34
480.521	6.57
480.875	6.46
481.228	6.41
481.582	6.42
481.935	6.57
482.289	6.51
482.642	6.63
482.995	6.48
483.348	6.39
483.701	6.39
484.055	6.38
484.408	6.35
484.761	6.23
485.114	6.15
485.466	6.16
485.819	6.19
486.172	6.21
486.525	6.26
486.878	6.26
487.23	6.31
487.583	6.33
487.936	6.34
488.288	6.36
488.641	6.29
488.993	6.24
489.345	6.31
489.698	6.26
490.05	6.29
490.402	6.32
490.754	6.38
491.107	6.34
491.459	6.51
491.811	6.54
492.163	6.45
492.515	6.33
492.866	6.33
493.218	6.39
493.57	6.44
493.922	6.45
494.274	6.57
494.625	6.49
494.977	6.55
495.328	6.69
495.68	6.56
496.031	6.62
496.383	6.66
496.734	6.6
497.086	6.92
497.437	6.68
497.788	6.78
498.139	6.71
498.49	6.62
498.842	6.74
499.193	6.65
499.544	6.68
499.894	6.59
500.245	6.7
500.596	6.72
500.947	6.68
501.298	6.76
501.648	6.74
501.999	6.88
502.35	6.6
502.7	6.97
503.051	6.85
503.401	6.83
503.752	6.69
504.102	6.83
504.452	6.77
504.803	6.71
505.153	7
505.503	6.91
505.853	6.92
506.203	6.85
506.553	6.83
506.903	6.8
507.253	6.77
507.603	7
507.953	6.94
508.303	6.95
508.652	6.82
509.002	6.93
509.352	7.02
509.701	6.83
510.051	6.92
510.4	6.92
510.75	6.85
511.099	6.76
511.449	7.03
511.798	6.99
512.147	6.89
512.496	6.91
512.846	6.91
513.195	6.97
513.544	7.05
513.893	7.04
514.242	7.08
514.591	7.05
514.939	7.08
515.288	7.09
515.637	6.95
515.986	7.02
516.334	7.16
516.683	7.14
517.032	7.06
517.38	7.02
517.729	7.03
518.077	7.13
518.426	7.13
518.774	7.04
519.122	7.07
519.47	7.04
519.819	7.16
520.167	7.07
520.515	7.08
520.863	7.05
521.211	7.06
521.559	7.08
521.907	7.24
522.255	7.13
522.602	7.21
522.95	7.28
523.298	7.19
523.645	7.27
523.993	7.22
524.341	7.21
524.688	7.32
525.036	7.27
525.383	7.38
525.73	7.31
526.078	7.34
526.425	7.18
526.772	7.21
527.119	7.25
527.466	7.29
527.814	7.3
528.161	7.28
528.508	7.33
528.854	7.2
529.201	7.14
529.548	7.21
529.895	7.1
530.242	7.1
530.588	7.11
530.935	7.13
531.282	7.1
531.628	7.26
531.975	7.24
532.321	7.34
532.667	7.39
533.014	7.37
533.36	7.43
533.706	7.52
534.052	7.49
534.399	7.46
534.745	7.34
535.091	7.38
535.437	7.41
535.783	7.41
536.129	7.39
536.474	7.51
536.82	7.47
537.166	7.41
537.512	7.49
537.857	7.51
538.203	7.54
538.549	7.49
538.894	7.59
539.239	7.65
539.585	7.66
539.93	7.64
540.276	7.7
540.621	7.83
540.966	7.78
541.311	7.73
541.656	7.74
542.001	7.74
542.346	7.65
542.691	7.6
543.036	7.6
543.381	7.63
543.726	7.71
544.071	7.65
544.415	7.72
544.76	7.72
545.105	7.77
545.449	7.76
545.794	7.78
546.138	7.82
546.483	7.93
546.827	7.86
547.171	7.94
547.516	8.09
547.86	7.98
548.204	8
548.548	7.93
548.892	8.01
549.236	7.97
549.58	8.06
549.924	8.09
550.268	8.21
550.612	8.21
550.956	8.42
551.3	8.48
551.643	8.3
551.987	8.39
552.33	8.46
552.674	8.39
553.017	8.32
553.361	8.45
553.704	8.39
554.048	8.34
554.391	8.22
554.734	8.39
555.077	8.38
555.42	8.29
555.764	8.38
556.107	8.41
556.45	8.58
556.793	8.38
557.135	8.4
557.478	8.49
557.821	8.6
558.164	8.7
558.507	8.47
558.849	8.82
559.192	8.71
559.534	8.61
559.877	8.57
560.219	8.57
560.562	8.62
560.904	8.9
561.246	8.51
561.589	8.94
561.931	8.73
562.273	8.7
562.615	8.73
562.957	8.72
563.299	8.81
563.641	8.98
563.983	8.75
564.325	9.09
564.667	8.91
565.008	8.82
565.35	8.94
565.692	8.9
566.033	8.95
566.375	9.01
566.716	8.87
567.058	9.08
567.399	9.1
567.741	9.11
568.082	9.07
568.423	9.05
568.764	9.14
569.105	9.04
569.447	9.09
569.788	8.98
570.129	9.32
570.47	9.26
570.811	9.14
571.151	9.39
571.492	9.24
571.833	9.44
572.174	9.4
572.514	9.22
572.855	9.41
573.195	9.38
573.536	9.54
573.876	9.41
574.217	9.26
574.557	9.4
574.898	9.17
575.238	9.52
575.578	9.49
575.918	9.66
576.258	9.8
576.598	9.52
576.938	9.46
577.278	9.64
577.618	9.71
577.958	9.77
578.298	9.8
578.638	9.83
578.977	9.99
579.317	9.82
579.657	9.94
579.996	9.87
580.336	9.96
580.675	9.99
581.014	10.1
581.354	9.95
581.693	10.14
582.032	10.06
582.372	10.1
582.711	10.23
583.05	9.83
583.389	10.32
583.728	10.11
584.067	9.97
584.406	10.1
584.745	10.08
585.083	10.27
585.422	10.4
585.761	10.18
586.1	10.52
586.438	10.28
586.777	10.46
587.115	10.3
587.454	10.17
587.792	10.51
588.13	10.47
588.469	10.55
588.807	10.68
589.145	10.72
589.483	10.3
589.821	10.47
590.159	10.86
590.497	10.39
590.835	10.71
591.173	10.7
591.511	10.76
591.849	10.9
592.187	10.39
592.524	11.23
592.862	10.58
593.2	10.86
593.537	10.69
593.875	10.78
594.212	10.74
594.55	10.87
594.887	11.03
595.224	10.88
595.561	11.15
595.899	11.23
596.236	11.2
596.573	10.83
596.91	11.07
597.247	11.25
597.584	11.17
597.921	10.9
598.258	11.25
598.594	11.2
598.931	11.05
599.268	11.14
599.604	11.08
599.941	11.15
600.277	11.41
600.614	11.23
600.95	11.23
601.287	10.95
601.623	11.11
601.959	11.77
602.296	11.39
602.632	11.54
602.968	11.57
603.304	11.46
603.64	11.69
603.976	11.61
604.312	11.35
604.648	11.59
604.984	11.94
605.319	11.82
605.655	11.66
605.991	11.83
606.326	11.81
606.662	11.6
606.998	12.06
607.333	11.85
607.668	11.85
608.004	11.88
608.339	11.84
608.674	11.96
609.01	12.03
609.345	11.99
609.68	12.16
610.015	12.14
610.35	12.36
610.685	12.03
611.02	12.2
611.355	12.21
611.689	12.03
612.024	12.37
612.359	12.36
612.694	12.53
613.028	12.38
613.363	12.27
613.697	12.82
614.032	12.52
614.366	12.57
614.7	12.56
615.035	12.55
615.369	12.48
615.703	12.81
616.037	12.78
616.371	12.71
616.705	12.74
617.039	12.99
617.373	13.12
617.707	12.81
618.041	12.5
618.375	12.56
618.709	13.19
619.042	12.88
619.376	12.95
619.71	12.88
620.043	13.32
620.377	12.88
620.71	13.11
621.043	13.07
621.377	13.29
621.71	13.38
622.043	13.64
622.376	13
622.709	13.63
623.043	13.17
623.376	13.14
623.709	13.22
624.041	13.3
624.374	13.46
624.707	13.84
625.04	13.48
625.373	13.44
625.705	13.75
626.038	13.66
626.37	13.14
626.703	13.98
627.035	13.52
627.368	13.93
627.7	13.59
628.032	13.55
628.365	13.99
628.697	14
629.029	13.73
629.361	14.21
629.693	14.01
630.025	14.11
630.357	13.93
630.689	14.07
631.021	14.29
631.353	14.19
631.684	14.06
632.016	13.83
632.348	13.97
632.679	14.63
633.011	14.74
633.342	14.46
633.674	14.16
634.005	14.28
634.336	14.16
634.668	13.97
634.999	14.41
635.33	14.49
635.661	14.5
635.992	14.71
636.323	14.52
636.654	14.56
636.985	14.49
637.316	14.55
637.647	14.99
637.977	14.89
638.308	15.19
638.639	14.77
638.969	14.56
639.3	14.91
639.63	14.68
639.961	15.07
640.291	14.66
640.622	14.66
640.952	15.01
641.282	14.2
641.612	14.91
641.943	15.06
642.273	15.09
642.603	15.06
642.933	15.47
643.263	15.69
643.592	15.87
643.922	15.53
644.252	15.02
644.582	15.54
644.911	15.53
645.241	15.04
645.571	15.66
645.9	15.61
646.23	15.82
646.559	14.77
646.888	15.8
647.218	15.87
647.547	15.67
647.876	15.73
648.205	15.43
648.534	15.85
648.863	15.32
649.192	15.94
649.521	16.02
649.85	15.4
650.179	16.22
650.508	15.75
650.837	15.97
651.165	16.41
651.494	16.3
651.822	15.85
652.151	16.22
652.479	16.51
652.808	16.16
653.136	15.9
653.465	15.8
653.793	16.5
654.121	15.92
654.449	16.05
654.777	15.9
655.105	15.74
655.433	16.82
655.761	16.35
656.089	16.28
656.417	16.88
656.745	16.91
657.073	16.6
657.4	16.87
657.728	16.68
658.056	17.05
658.383	16.89
658.711	16.77
659.038	17.32
659.365	17.31
659.693	17.16
660.02	16.71
660.347	17.23
660.674	16.86
661.001	16.93
661.329	16.99
661.656	17.03
661.982	16.82
662.309	17.01
662.636	17.29
662.963	17.52
663.29	17.51
663.616	17.19
663.943	17.31
664.27	17.39
664.596	17.32
664.923	17.27
665.249	18
665.576	17.31
665.902	17.2
666.228	17.7
666.554	18.06
666.881	17.45
667.207	18.26
667.533	17.88
667.859	17.84
668.185	17.98
668.511	17.79
668.837	17.53
669.162	18.45
669.488	17.57
669.814	18.06
670.139	17.24
670.465	18.68
670.791	17.5
671.116	17.86
671.442	17.57
671.767	18.2
672.092	17.97
672.418	17.9
672.743	18.49
673.068	17.64
673.393	18.17
673.718	17.92
674.043	18.01
674.368	18.42
674.693	18.67
675.018	18.08
675.343	18.58
675.667	18.89
675.992	18.69
676.317	18.26
676.641	19.22
676.966	19.1
677.29	18.4
677.615	18.89
677.939	19.07
678.264	18.48
678.588	18.88
678.912	19.09
679.236	18.56
679.56	18.51
679.885	19.43
680.209	19.24
680.532	19.39
680.856	19.69
681.18	19.54
681.504	19.35
681.828	18.9
682.152	19.2
682.475	19.12
682.799	18.91
683.122	19.63
683.446	19.53
683.769	19.49
684.093	19.23
684.416	19.29
684.739	19.28
685.062	19.71
