Data from 0006_forehead_Reflection__3__405.txt Node

Date: Thu Dec 15 19:42:40 CST 2022
User: ToomeyLab
Spectrometer: FLMS14357
Trigger mode: 0
Integration Time (sec): 1.000000E-2
Scans to average: 100
Electric dark correction enabled: true
Nonlinearity correction enabled: false
Boxcar width: 0
XAxis mode: Wavelengths
Number of Pixels in Spectrum: 2048
>>>>>Begin Spectral Data<<<<<
189.047	-48.07
189.435	-48.07
189.823	-48.07
190.211	-1501.81
190.599	18.23
190.987	-3475.82
191.375	-249.27
191.763	99.48
192.151	2709.39
192.538	121.07
192.926	72.56
193.314	105.89
193.702	-32.52
194.089	-276.15
194.477	79.32
194.864	127.7
195.252	150.21
195.639	130.87
196.027	134.65
196.414	-55.24
196.801	-33.39
197.189	296
197.576	-67.92
197.963	206.15
198.351	0.33
198.738	-73.14
199.125	-46.37
199.512	44
199.899	-18.74
200.286	16.32
200.673	33.86
201.06	-2.38
201.447	-41.51
201.833	-5.76
202.22	-8.4
202.607	-7.51
202.994	-18.31
203.38	6.83
203.767	12.34
204.154	37.46
204.54	5.38
204.927	-1.19
205.313	23.83
205.699	6.81
206.086	40.47
206.472	16.17
206.858	-39.16
207.245	-2.5
207.631	-4.53
208.017	20.53
208.403	-38.38
208.789	-0.94
209.175	-24.01
209.561	-44.31
209.947	-38
210.333	-13.22
210.719	19.69
211.105	40.42
211.491	-11.39
211.876	-41.94
212.262	-23.7
212.648	15.87
213.034	-23.04
213.419	19.42
213.805	-27.01
214.19	-80.73
214.576	-54.86
214.961	-4.7
215.346	-90.81
215.732	-41.9
216.117	-11.36
216.502	-24.63
216.888	4.31
217.273	-6.9
217.658	14.18
218.043	-19.8
218.428	-41.05
218.813	14.12
219.198	-23.3
219.583	-16.17
219.968	4.6
220.353	-9.01
220.738	0.7
221.122	10.83
221.507	6.09
221.892	-28.55
222.276	-32.24
222.661	-19.6
223.046	-12.05
223.43	8.52
223.815	-9.05
224.199	-5.18
224.583	-10.02
224.968	2.43
225.352	-15.89
225.736	5.64
226.121	-7.41
226.505	-13.2
226.889	3.57
227.273	-7.91
227.657	2.49
228.041	-1.89
228.425	-2.39
228.809	1.05
229.193	2.17
229.577	1.64
229.961	1.07
230.344	1.63
230.728	2.65
231.112	2.68
231.495	0.7
231.879	2.22
232.263	3.36
232.646	0.4
233.03	1.84
233.413	0.79
233.797	1.55
234.18	1.31
234.563	1.24
234.946	1.06
235.33	0.84
235.713	2.66
236.096	2.81
236.479	4.56
236.862	-0.07
237.245	1.41
237.628	0.96
238.011	1.81
238.394	-0.99
238.777	1.8
239.16	2.18
239.543	1.47
239.925	3.18
240.308	1.53
240.691	1.12
241.073	1.72
241.456	2.54
241.838	1.65
242.221	2.34
242.603	1.98
242.986	1.68
243.368	2.31
243.75	2.53
244.133	2.13
244.515	1.99
244.897	2.13
245.279	2.3
245.661	1.08
246.043	1.96
246.425	2.61
246.807	2.26
247.189	2.11
247.571	2.06
247.953	2.12
248.335	2.2
248.717	2.24
249.098	2.27
249.48	1.95
249.862	2.06
250.243	2.09
250.625	2.01
251.006	2.87
251.388	1.94
251.769	1.46
252.151	1.98
252.532	1.74
252.913	2.15
253.295	1.86
253.676	2.02
254.057	2.16
254.438	2.16
254.819	1.93
255.2	2.13
255.581	3.38
255.962	2.44
256.343	1.9
256.724	1.94
257.105	2.57
257.486	0.31
257.867	1.86
258.247	1.21
258.628	1.99
259.009	1.72
259.389	1.45
259.77	1.84
260.15	2.99
260.531	2.15
260.911	2.05
261.292	2.32
261.672	2.2
262.052	1.99
262.432	1.99
262.813	2
263.193	2.06
263.573	1.58
263.953	2.25
264.333	2.58
264.713	2.63
265.093	1.66
265.473	2.95
265.853	1.82
266.233	2.28
266.612	1.63
266.992	1.97
267.372	2.71
267.752	2.06
268.131	2.02
268.511	2.24
268.89	2.34
269.27	2.14
269.649	2.04
270.029	2.16
270.408	1.86
270.787	2.35
271.167	2.56
271.546	2.53
271.925	2.08
272.304	2.12
272.683	2.01
273.062	1.9
273.441	1.86
273.82	2.18
274.199	2.1
274.578	2.01
274.957	2.12
275.336	2.37
275.715	2.04
276.093	1.75
276.472	1.81
276.851	2.22
277.229	2.19
277.608	1.26
277.986	2.06
278.365	2.77
278.743	2.01
279.122	1.96
279.5	1.79
279.878	1.65
280.257	2.47
280.635	2.32
281.013	1.77
281.391	2.39
281.769	2.66
282.147	1.99
282.525	1.72
282.903	1.8
283.281	2.11
283.659	2.65
284.037	2.31
284.415	2.08
284.792	2.43
285.17	2.39
285.548	2.33
285.925	1.99
286.303	2.25
286.68	2.24
287.058	2.3
287.435	2.12
287.813	2.28
288.19	2.01
288.567	2.17
288.945	2.12
289.322	2.5
289.699	2.62
290.076	1.9
290.453	2.06
290.83	2.6
291.207	2.15
291.584	2.71
291.961	2.49
292.338	1.99
292.715	2.18
293.092	2.23
293.469	2.23
293.845	2.14
294.222	2.75
294.599	2.21
294.975	1.93
295.352	2.5
295.728	2.53
296.105	2.63
296.481	2.73
296.858	2.33
297.234	2.41
297.61	2.34
297.986	2.93
298.363	2.55
298.739	2.55
299.115	2.63
299.491	2.9
299.867	2.35
300.243	2.48
300.619	2.61
300.995	2.36
301.371	2.51
301.746	2.85
302.122	2.44
302.498	2.16
302.874	2.75
303.249	2.64
303.625	2.71
304	3.23
304.376	3.17
304.751	2.9
305.127	2.94
305.502	2.88
305.878	2.73
306.253	2.93
306.628	2.79
307.003	2.94
307.378	3.27
307.754	3.26
308.129	2.51
308.504	2.82
308.879	3.27
309.254	3.08
309.629	3.35
310.003	2.63
310.378	3.17
310.753	2.88
311.128	2.67
311.502	3.21
311.877	3.03
312.252	3.04
312.626	3.39
313.001	3.06
313.375	3.62
313.75	3.25
314.124	3.57
314.498	3.85
314.873	3.5
315.247	3.11
315.621	3.73
315.995	3.37
316.369	2.91
316.743	3.19
317.117	3.41
317.491	3.8
317.865	3.16
318.239	4
318.613	3.85
318.987	2.99
319.361	3.36
319.734	3.39
320.108	3.49
320.482	4.43
320.855	3.74
321.229	3.56
321.602	3.85
321.976	3.69
322.349	4.46
322.723	3.62
323.096	3.8
323.469	3.8
323.843	3.57
324.216	4.27
324.589	3.98
324.962	3.85
325.335	3.69
325.708	4.17
326.081	4.11
326.454	4.02
326.827	4.19
327.2	3.58
327.573	4.57
327.945	3.45
328.318	3.97
328.691	4.03
329.063	3.97
329.436	4.52
329.809	3.86
330.181	4.96
330.553	4.69
330.926	4.95
331.298	4.04
331.671	4.63
332.043	4.43
332.415	5.04
332.787	4.46
333.159	4.67
333.532	4.64
333.904	4.82
334.276	4.48
334.648	4.75
335.02	4.65
335.391	4.59
335.763	4.33
336.135	4.73
336.507	4.65
336.879	4.9
337.25	4.96
337.622	4.56
337.993	4.59
338.365	5.03
338.736	5.12
339.108	5.27
339.479	4.96
339.851	5.01
340.222	5.22
340.593	4.79
340.964	5.2
341.336	4.83
341.707	5.03
342.078	4.94
342.449	5.12
342.82	5.4
343.191	5.11
343.562	5.22
343.933	4.93
344.303	5.35
344.674	5.63
345.045	5.6
345.416	5.6
345.786	5.25
346.157	5.78
346.527	5.09
346.898	5.27
347.268	5.52
347.639	4.95
348.009	5.52
348.38	5.28
348.75	5.63
349.12	5.74
349.49	5.69
349.861	5.79
350.231	5.26
350.601	5.64
350.971	5.69
351.341	5.99
351.711	6.04
352.081	5.71
352.45	5.46
352.82	5.52
353.19	6.24
353.56	5.85
353.929	6.1
354.299	5.88
354.669	5.92
355.038	6.32
355.408	6.38
355.777	5.86
356.147	5.83
356.516	6.03
356.885	6.29
357.254	6.07
357.624	6.09
357.993	6.4
358.362	6.65
358.731	6.7
359.1	6.32
359.469	6.63
359.838	6.47
360.207	6.52
360.576	6.68
360.945	6.37
361.314	6.36
361.682	6.5
362.051	6.65
362.42	6.59
362.788	6.75
363.157	6.57
363.525	6.7
363.894	6.46
364.262	6.66
364.631	6.85
364.999	6.73
365.367	6.68
365.735	6.63
366.104	6.66
366.472	6.71
366.84	6.74
367.208	7.15
367.576	7
367.944	7.11
368.312	6.86
368.68	7.2
369.048	7.27
369.416	6.98
369.783	7.19
370.151	7.58
370.519	7.57
370.886	7.49
371.254	7.86
371.621	7.64
371.989	7.55
372.356	7.33
372.724	7.37
373.091	7.42
373.458	7.3
373.826	7.76
374.193	7.8
374.56	7.8
374.927	7.66
375.294	7.89
375.661	7.7
376.028	7.73
376.395	8.1
376.762	7.56
377.129	7.63
377.496	7.75
377.863	7.94
378.229	8.07
378.596	8.24
378.963	8.18
379.329	8.09
379.696	7.91
380.062	8.14
380.429	7.88
380.795	8.38
381.161	7.85
381.528	8.3
381.894	8.14
382.26	8.34
382.626	8.51
382.993	8.8
383.359	8.54
383.725	8.25
384.091	8.39
384.457	8.38
384.823	8.38
385.188	8.42
385.554	8.64
385.92	8.59
386.286	8.82
386.651	8.63
387.017	8.92
387.383	8.69
387.748	9.04
388.114	8.81
388.479	8.93
388.845	8.74
389.21	9.26
389.575	9.21
389.94	9.21
390.306	9.27
390.671	9.26
391.036	9.38
391.401	9.37
391.766	9.33
392.131	9.49
392.496	9.2
392.861	9.23
393.226	9.32
393.591	9.19
393.956	9.42
394.32	9.51
394.685	9.51
395.05	9.49
395.414	9.59
395.779	9.93
396.143	9.59
396.508	9.59
396.872	9.55
397.236	10.1
397.601	9.95
397.965	9.84
398.329	9.9
398.694	9.65
399.058	10.04
399.422	9.94
399.786	9.89
400.15	9.84
400.514	10
400.878	10
401.242	9.93
401.605	10.2
401.969	10.26
402.333	10.27
402.697	10.4
403.06	10.18
403.424	10.51
403.787	10.28
404.151	10.55
404.514	10.46
404.878	10.28
405.241	10.29
405.604	10.33
405.968	10.55
406.331	10.67
406.694	10.57
407.057	10.43
407.42	10.71
407.783	10.66
408.146	10.62
408.509	10.88
408.872	10.94
409.235	10.95
409.598	11.19
409.961	11.04
410.323	11.1
410.686	11.28
411.049	11.11
411.411	10.99
411.774	11.02
412.136	11.22
412.499	11.33
412.861	10.61
413.223	11.11
413.586	11.61
413.948	11.34
414.31	11.44
414.672	11.25
415.035	11.7
415.397	11.43
415.759	11.25
416.121	11.61
416.483	11.59
416.845	11.66
417.206	11.28
417.568	11.44
417.93	11.61
418.292	11.35
418.653	11.44
419.015	11.55
419.377	11.69
419.738	11.55
420.1	11.7
420.461	11.55
420.822	11.82
421.184	11.64
421.545	11.73
421.906	11.67
422.267	11.65
422.629	11.64
422.99	11.64
423.351	11.83
423.712	11.92
424.073	12
424.434	12.16
424.795	11.92
425.155	11.9
425.516	11.86
425.877	11.99
426.238	11.97
426.598	12.1
426.959	12.22
427.32	12.17
427.68	12.31
428.041	12.49
428.401	12.53
428.761	12.66
429.122	12.57
429.482	12.65
429.842	12.72
430.202	12.9
430.563	12.87
430.923	12.72
431.283	12.93
431.643	13.1
432.003	12.93
432.363	12.87
432.722	12.95
433.082	12.92
433.442	13.07
433.802	12.98
434.161	13.06
434.521	12.75
434.881	13.08
435.24	13.03
435.6	13.18
435.959	13.24
436.319	13.23
436.678	13.46
437.037	13.43
437.396	13.49
437.756	13.54
438.115	13.52
438.474	13.46
438.833	13.55
439.192	13.34
439.551	13.58
439.91	13.75
440.269	13.46
440.628	13.51
440.987	13.57
441.345	13.62
441.704	13.64
442.063	13.58
442.421	13.51
442.78	13.62
443.138	13.76
443.497	13.7
443.855	13.95
444.214	13.83
444.572	14.26
444.93	13.96
445.288	13.93
445.647	14.09
446.005	14.15
446.363	14.02
446.721	14
447.079	14.1
447.437	14.05
447.795	14.07
448.153	13.95
448.51	14.04
448.868	14.13
449.226	14.18
449.584	14.31
449.941	14.55
450.299	14.43
450.656	14.61
451.014	14.7
451.371	14.77
451.729	14.8
452.086	14.78
452.443	14.84
452.801	14.9
453.158	15.11
453.515	14.75
453.872	14.82
454.229	14.9
454.586	14.75
454.943	14.98
455.3	15.15
455.657	15.06
456.014	15.09
456.371	15.06
456.727	15.52
457.084	15.35
457.441	15.41
457.797	15.41
458.154	15.4
458.51	15.46
458.867	15.54
459.223	15.39
459.58	15.56
459.936	15.62
460.292	15.45
460.648	15.47
461.005	15.2
461.361	15.4
461.717	15.32
462.073	15.47
462.429	15.54
462.785	15.69
463.141	15.63
463.496	15.85
463.852	16.17
464.208	16.02
464.564	16.04
464.919	16.32
465.275	16.19
465.631	16.31
465.986	16.25
466.342	16.11
466.697	16.14
467.052	16.29
467.408	16.4
467.763	16.33
468.118	16.37
468.473	16.49
468.829	16.35
469.184	16.39
469.539	16.31
469.894	16.67
470.249	16.68
470.603	16.67
470.958	16.97
471.313	16.8
471.668	16.81
472.023	16.8
472.377	16.85
472.732	16.83
473.086	17.23
473.441	17.15
473.795	17.22
474.15	17.06
474.504	17.09
474.859	16.83
475.213	17.36
475.567	17.2
475.921	17.43
476.275	17.38
476.63	17.59
476.984	17.31
477.338	17.33
477.692	17.36
478.045	17.35
478.399	17.52
478.753	17.55
479.107	17.51
479.461	17.42
479.814	17.55
480.168	17.69
480.521	17.56
480.875	17.79
481.228	17.82
481.582	17.88
481.935	17.85
482.289	17.88
482.642	17.82
482.995	17.72
483.348	17.7
483.701	17.73
484.055	17.61
484.408	17.46
484.761	17.13
485.114	16.95
485.466	16.87
485.819	16.99
486.172	17.08
486.525	17.28
486.878	17.45
487.23	17.58
487.583	17.77
487.936	17.74
488.288	17.63
488.641	17.55
488.993	17.48
489.345	17.53
489.698	17.56
490.05	17.6
490.402	17.85
490.754	17.97
491.107	18.13
491.459	18.35
491.811	18.48
492.163	18.44
492.515	18.3
492.866	18.06
493.218	17.94
493.57	18.08
493.922	18.22
494.274	18.43
494.625	18.63
494.977	18.8
495.328	19.06
495.68	19.29
496.031	19.38
496.383	19.16
496.734	19.32
497.086	19.45
497.437	19.36
497.788	19.41
498.139	19.4
498.49	19.24
498.842	19.47
499.193	19.4
499.544	19.6
499.894	19.58
500.245	19.6
500.596	19.64
500.947	19.66
501.298	19.89
501.648	19.94
501.999	20.11
502.35	19.89
502.7	20.2
503.051	20.15
503.401	20.12
503.752	20.15
504.102	20.28
504.452	20.17
504.803	20.24
505.153	20.43
505.503	20.4
505.853	20.56
506.203	20.52
506.553	20.43
506.903	20.52
507.253	20.62
507.603	20.61
507.953	20.61
508.303	20.71
508.652	20.62
509.002	20.58
509.352	20.78
509.701	20.62
510.051	20.72
510.4	20.67
510.75	20.57
511.099	20.59
511.449	20.78
511.798	20.84
512.147	20.92
512.496	20.97
512.846	20.96
513.195	21.13
513.544	20.99
513.893	20.98
514.242	21.1
514.591	21.24
514.939	21.21
515.288	21.46
515.637	21.5
515.986	21.46
516.334	21.71
516.683	21.66
517.032	21.52
517.38	21.53
517.729	21.63
518.077	21.86
518.426	21.7
518.774	21.7
519.122	21.67
519.47	21.42
519.819	21.37
520.167	21.33
520.515	21.38
520.863	21.46
521.211	21.64
521.559	21.7
521.907	21.83
522.255	21.9
522.602	22.15
522.95	22.23
523.298	22.15
523.645	22.21
523.993	22.32
524.341	22.27
524.688	22.46
525.036	22.48
525.383	22.41
525.73	22.62
526.078	22.48
526.425	22.22
526.772	22.18
527.119	22.1
527.466	22.19
527.814	22.26
528.161	22.36
528.508	22.41
528.854	22.28
529.201	22.32
529.548	22
529.895	21.78
530.242	21.73
530.588	21.85
530.935	22.03
531.282	22.11
531.628	22.2
531.975	22.44
532.321	22.73
532.667	22.73
533.014	22.86
533.36	22.94
533.706	23.04
534.052	22.9
534.399	22.73
534.745	22.57
535.091	22.5
535.437	22.69
535.783	22.91
536.129	22.98
536.474	23.29
536.82	23.4
537.166	23.46
537.512	23.58
537.857	23.39
538.203	23.33
538.549	23.32
538.894	23.44
539.239	23.56
539.585	23.76
539.93	23.84
540.276	24.08
540.621	24.16
540.966	24.23
541.311	24.24
541.656	24.16
542.001	23.87
542.346	23.68
542.691	23.39
543.036	23.41
543.381	23.41
543.726	23.62
544.071	23.77
544.415	23.87
544.76	23.87
545.105	24.12
545.449	24.28
545.794	24.31
546.138	24.5
546.483	24.7
546.827	24.57
547.171	24.63
547.516	24.64
547.86	24.82
548.204	24.74
548.548	24.6
548.892	24.83
549.236	24.89
549.58	25.05
549.924	25.36
550.268	25.37
550.612	25.45
550.956	25.62
551.3	25.93
551.643	25.62
551.987	25.8
552.33	25.85
552.674	25.78
553.017	25.81
553.361	25.87
553.704	26.12
554.048	25.81
554.391	25.77
554.734	25.86
555.077	25.94
555.42	25.93
555.764	25.89
556.107	26.18
556.45	26.45
556.793	26.52
557.135	26.39
557.478	26.41
557.821	26.47
558.164	26.56
558.507	26.65
558.849	26.71
559.192	26.7
559.534	26.74
559.877	26.7
560.219	26.75
560.562	26.8
560.904	27
561.246	26.73
561.589	27.02
561.931	26.99
562.273	26.89
562.615	26.91
562.957	27.06
563.299	26.99
563.641	27.25
563.983	27.08
564.325	27.2
564.667	27.29
565.008	27.2
565.35	27.28
565.692	27.38
566.033	27.43
566.375	27.38
566.716	27.31
567.058	26.99
567.399	27.43
567.741	27.23
568.082	27.31
568.423	27.24
568.764	27.5
569.105	27.4
569.447	27.7
569.788	27.75
570.129	27.9
570.47	27.85
570.811	27.78
571.151	28.01
571.492	27.98
571.833	27.85
572.174	28.18
572.514	27.95
572.855	28.05
573.195	27.77
573.536	28.04
573.876	27.82
574.217	27.99
574.557	28.11
574.898	28.1
575.238	28.1
575.578	28.28
575.918	28.37
576.258	28.69
576.598	28.31
576.938	28.11
577.278	28.72
577.618	28.53
577.958	28.41
578.298	28.75
578.638	28.64
578.977	28.76
579.317	28.85
579.657	28.92
579.996	29.15
580.336	29.47
580.675	29.06
581.014	29.43
581.354	29.08
581.693	29.16
582.032	29.73
582.372	29.73
582.711	29.54
583.05	29.46
583.389	29.82
583.728	29.88
584.067	29.52
584.406	29.93
584.745	29.68
585.083	29.72
585.422	29.85
585.761	30.08
586.1	30.35
586.438	30.07
586.777	29.99
587.115	30.01
587.454	29.91
587.792	29.96
588.13	29.98
588.469	30.08
588.807	30.45
589.145	30.43
589.483	29.98
589.821	30.47
590.159	30.45
590.497	30.6
590.835	30.37
591.173	30.49
591.511	30.64
591.849	30.4
592.187	30.46
592.524	30.6
592.862	30.67
593.2	30.54
593.537	30.72
593.875	30.46
594.212	30.82
594.55	30.81
594.887	31.02
595.224	31.11
595.561	30.9
595.899	30.89
596.236	30.88
596.573	31.09
596.91	31.04
597.247	30.93
597.584	30.93
597.921	30.98
598.258	30.98
598.594	30.77
598.931	30.69
599.268	30.83
599.604	31.23
599.941	31.14
600.277	31.31
600.614	31.55
600.95	31.57
601.287	31.26
601.623	31.58
601.959	31.82
602.296	31.72
602.632	31.62
602.968	31.86
603.304	31.83
603.64	31.5
603.976	31.71
604.312	31.62
604.648	31.71
604.984	31.74
605.319	31.58
605.655	31.77
605.991	31.51
606.326	31.56
606.662	31.58
606.998	31.7
607.333	31.71
607.668	32.02
608.004	31.96
608.339	32.21
608.674	32.39
609.01	32.43
609.345	32.63
609.68	32.6
610.015	32.47
610.35	32.53
610.685	32.33
611.02	32.21
611.355	32.42
611.689	32.16
612.024	32.36
612.359	32.54
612.694	32.88
613.028	32.65
613.363	32.85
613.697	33.01
614.032	32.88
614.366	32.71
614.7	33.12
615.035	33.24
615.369	32.94
615.703	33.27
616.037	33.38
616.371	33.27
616.705	33.06
617.039	33.16
617.373	33.61
617.707	33.63
618.041	33.28
618.375	33.05
618.709	33.48
619.042	33.66
619.376	33.51
619.71	33.17
620.043	33.46
620.377	33.69
620.71	34.04
621.043	33.86
621.377	33.89
621.71	34.32
622.043	33.94
622.376	34.1
622.709	34.13
623.043	33.94
623.376	34.13
623.709	34.45
624.041	34.13
624.374	34.7
624.707	34.59
625.04	34.21
625.373	34.55
625.705	34.77
626.038	34.7
626.37	34.56
626.703	34.59
627.035	34.6
627.368	34.74
627.7	34.46
628.032	34.27
628.365	34.63
628.697	34.71
629.029	34.29
629.361	34.75
629.693	34.48
630.025	35.01
630.357	34.66
630.689	34.75
631.021	34.94
631.353	35.17
631.684	34.8
632.016	34.69
632.348	34.87
632.679	34.8
633.011	35.26
633.342	35.23
633.674	34.99
634.005	35.19
634.336	35.42
634.668	35.18
634.999	34.97
635.33	35.55
635.661	35.35
635.992	35.24
636.323	35.44
636.654	35.17
636.985	35.4
637.316	35.77
637.647	35.39
637.977	35.54
638.308	35.73
638.639	35.83
638.969	35.82
639.3	36.02
639.63	35.79
639.961	35.94
640.291	35.62
640.622	36.15
640.952	36.07
641.282	35.85
641.612	36.22
641.943	35.85
642.273	36.03
642.603	35.85
642.933	36.1
643.263	36.46
643.592	36.61
643.922	36.24
644.252	36.19
644.582	36.72
644.911	36.57
645.241	35.5
645.571	36.43
645.9	36.78
646.23	37.08
646.559	36.07
646.888	36.14
647.218	36.78
647.547	36.54
647.876	37.26
648.205	36.53
648.534	36.65
648.863	36.34
649.192	36.65
649.521	36.79
649.85	36.51
650.179	37.18
650.508	36.79
650.837	37.29
651.165	36.99
651.494	36.88
651.822	37.26
652.151	36.85
652.479	36.79
652.808	37.03
653.136	37.22
653.465	36.94
653.793	37.02
654.121	37.17
654.449	37.24
654.777	37.2
655.105	37.24
655.433	37.07
655.761	38.15
656.089	37
656.417	38.23
656.745	37.42
657.073	37.84
657.4	37.42
657.728	37.26
658.056	37.67
658.383	37.8
658.711	38.03
659.038	38.03
659.365	37.7
659.693	37.84
660.02	38.04
660.347	37.91
660.674	37.52
661.001	37.52
661.329	37.84
661.656	38
661.982	37.73
662.309	38.1
662.636	38.35
662.963	38.29
663.29	37.62
663.616	38.28
663.943	38.61
664.27	38.36
664.596	38.22
664.923	38.57
665.249	38.59
665.576	38.43
665.902	38.07
666.228	38.99
666.554	38.15
666.881	38.27
667.207	38.53
667.533	38.58
667.859	37.63
668.185	38.93
668.511	39.37
668.837	38.81
669.162	38.63
669.488	38.84
669.814	38.56
670.139	37.96
670.465	39.06
670.791	38.78
671.116	38.87
671.442	38.5
671.767	39.1
672.092	39.21
672.418	38.99
672.743	39.09
673.068	38.8
673.393	38.93
673.718	38.9
