Data from 0006_forehead_Reflection__2__404.txt Node

Date: Thu Dec 15 19:42:29 CST 2022
User: ToomeyLab
Spectrometer: FLMS14357
Trigger mode: 0
Integration Time (sec): 1.000000E-2
Scans to average: 100
Electric dark correction enabled: true
Nonlinearity correction enabled: false
Boxcar width: 0
XAxis mode: Wavelengths
Number of Pixels in Spectrum: 2048
>>>>>Begin Spectral Data<<<<<
189.047	-31.39
189.435	-31.39
189.823	-31.39
190.211	-1224.77
190.599	26.2
190.987	-1114.29
191.375	-501.65
191.763	89.16
192.151	2459.15
192.538	-458.28
192.926	65.1
193.314	336.41
193.702	41.42
194.089	380.87
194.477	122.22
194.864	157.44
195.252	108.12
195.639	94.48
196.027	121.87
196.414	840.56
196.801	71.67
197.189	125.46
197.576	7.11
197.963	340.62
198.351	33.72
198.738	-0.67
199.125	-51.59
199.512	26.18
199.899	-13.93
200.286	34.8
200.673	41.06
201.06	14.36
201.447	18.83
201.833	8.95
202.22	-6.35
202.607	-17.13
202.994	28.77
203.38	58.13
203.767	-11.89
204.154	41.7
204.54	32.81
204.927	7.7
205.313	15.25
205.699	32.29
206.086	53.95
206.472	32.97
206.858	3.66
207.245	3.09
207.631	35.26
208.017	37.42
208.403	-0.19
208.789	10.58
209.175	-9.05
209.561	-25.53
209.947	-22.14
210.333	-48.05
210.719	20.03
211.105	20.12
211.491	49.25
211.876	0.91
212.262	10.61
212.648	29.92
213.034	16.34
213.419	-13.96
213.805	1.33
214.19	-40.63
214.576	19.79
214.961	1.98
215.346	-26.45
215.732	-3.95
216.117	46.24
216.502	-5.81
216.888	17.5
217.273	21.44
217.658	-27.02
218.043	-22.02
218.428	-31.75
218.813	26.32
219.198	-18.15
219.583	-23.7
219.968	-10.65
220.353	-10.43
220.738	-1.31
221.122	-7.95
221.507	-16.99
221.892	-12.1
222.276	-28.46
222.661	-9.22
223.046	-9.19
223.43	22.54
223.815	-7.73
224.199	10.25
224.583	-3.75
224.968	3.06
225.352	-7.46
225.736	8.75
226.121	-0.5
226.505	-4.7
226.889	1.85
227.273	-0.42
227.657	2.09
228.041	0.64
228.425	-2.82
228.809	-2.45
229.193	-0.27
229.577	0.99
229.961	0.14
230.344	2.35
230.728	2.92
231.112	2.38
231.495	1.72
231.879	3.18
232.263	1.7
232.646	1.55
233.03	2.64
233.413	2.06
233.797	1.59
234.18	2.64
234.563	1.22
234.946	0.39
235.33	0.6
235.713	1.46
236.096	2.52
236.479	2.52
236.862	1.11
237.245	1.65
237.628	4.18
238.011	3.02
238.394	1.82
238.777	1.37
239.16	4.2
239.543	2.72
239.925	2.54
240.308	0.91
240.691	1.94
241.073	1.73
241.456	1.92
241.838	1.93
242.221	2.31
242.603	2.18
242.986	1.95
243.368	2.18
243.75	2.12
244.133	2.22
244.515	2.14
244.897	2.07
245.279	2
245.661	1.54
246.043	1.52
246.425	1.94
246.807	2.34
247.189	1.81
247.571	2.13
247.953	1.94
248.335	2.14
248.717	2.09
249.098	2.04
249.48	1.96
249.862	1.91
250.243	2.52
250.625	2.66
251.006	2.98
251.388	2.3
251.769	1.49
252.151	1.91
252.532	2.21
252.913	1.56
253.295	2.52
253.676	2.12
254.057	2.05
254.438	1.84
254.819	2.02
255.2	1.91
255.581	2.39
255.962	2.38
256.343	2.04
256.724	2.97
257.105	2.51
257.486	1
257.867	1.75
258.247	2.54
258.628	2.58
259.009	1.88
259.389	1.45
259.77	2.1
260.15	2.63
260.531	2.37
260.911	1.79
261.292	2.14
261.672	1.97
262.052	2.28
262.432	2.01
262.813	2.3
263.193	2.07
263.573	2.66
263.953	1.87
264.333	2.41
264.713	2.78
265.093	2.02
265.473	2.34
265.853	2.33
266.233	2.33
266.612	1.92
266.992	1.97
267.372	1.92
267.752	2.39
268.131	2.29
268.511	2.07
268.89	2.78
269.27	2.03
269.649	2.05
270.029	1.82
270.408	1.41
270.787	2.07
271.167	2.19
271.546	2.58
271.925	2.36
272.304	2.18
272.683	2
273.062	1.91
273.441	2.11
273.82	2.3
274.199	2.2
274.578	2.25
274.957	1.74
275.336	2.13
275.715	2.93
276.093	1.82
276.472	1.94
276.851	2.08
277.229	2.17
277.608	1.8
277.986	2.13
278.365	2.59
278.743	1.9
279.122	1.23
279.5	1.75
279.878	1.87
280.257	1.87
280.635	2.45
281.013	1.97
281.391	2.13
281.769	2.38
282.147	2.05
282.525	1.79
282.903	2.08
283.281	2.4
283.659	2
284.037	1.97
284.415	1.89
284.792	2.28
285.17	2.18
285.548	1.69
285.925	1.89
286.303	2.71
286.68	2.44
287.058	2.16
287.435	1.9
287.813	2.29
288.19	1.92
288.567	2.2
288.945	2.15
289.322	2.21
289.699	2.3
290.076	1.87
290.453	1.79
290.83	2.34
291.207	1.89
291.584	2.49
291.961	2.33
292.338	2.09
292.715	2.17
293.092	2.63
293.469	2.26
293.845	2.31
294.222	2.83
294.599	1.92
294.975	1.87
295.352	2.5
295.728	2.5
296.105	2.59
296.481	2.33
296.858	1.99
297.234	2.23
297.61	2.41
297.986	2.54
298.363	2.44
298.739	2.66
299.115	2.62
299.491	2.53
299.867	2.12
300.243	2.11
300.619	2.33
300.995	2.38
301.371	2.82
301.746	2.55
302.122	2.23
302.498	2.52
302.874	2.82
303.249	2.72
303.625	2.51
304	3.03
304.376	3.22
304.751	2.84
305.127	2.5
305.502	2.67
305.878	2.94
306.253	2.59
306.628	2.92
307.003	2.56
307.378	2.57
307.754	2.7
308.129	2.83
308.504	2.71
308.879	2.76
309.254	3.01
309.629	2.85
310.003	2.9
310.378	3.5
310.753	3.21
311.128	3.2
311.502	3.2
311.877	2.75
312.252	2.97
312.626	3.51
313.001	3.05
313.375	3.23
313.75	3.42
314.124	3.44
314.498	3.57
314.873	3.24
315.247	3.05
315.621	3.11
315.995	3.46
316.369	2.89
316.743	3.45
317.117	3.48
317.491	3.61
317.865	3.37
318.239	3.65
318.613	2.76
318.987	3.16
319.361	4.03
319.734	3.37
320.108	3.93
320.482	3.9
320.855	3.35
321.229	3.63
321.602	3.7
321.976	3.35
322.349	4.41
322.723	3.96
323.096	3.92
323.469	3.5
323.843	3.42
324.216	3.73
324.589	4.15
324.962	3.69
325.335	3.8
325.708	4.19
326.081	3.78
326.454	4.11
326.827	4.19
327.2	4.17
327.573	4.63
327.945	3.98
328.318	3.86
328.691	3.79
329.063	3.95
329.436	4.14
329.809	4.62
330.181	4.69
330.553	4.64
330.926	4.74
331.298	4.35
331.671	4.71
332.043	4.24
332.415	4.49
332.787	4.58
333.159	4.17
333.532	4.88
333.904	4.77
334.276	4.76
334.648	4.98
335.02	4.45
335.391	3.85
335.763	4.81
336.135	5.03
336.507	4.38
336.879	4.45
337.25	4.88
337.622	4.81
337.993	5.01
338.365	4.63
338.736	4.74
339.108	5.27
339.479	4.96
339.851	5.26
340.222	5.31
340.593	4.75
340.964	4.76
341.336	4.81
341.707	4.91
342.078	4.65
342.449	5.19
342.82	5.15
343.191	4.86
343.562	5.09
343.933	5.18
344.303	5.56
344.674	5
345.045	5.15
345.416	5.59
345.786	4.99
346.157	5.32
346.527	5.08
346.898	5.17
347.268	5.5
347.639	5.34
348.009	5.51
348.38	5.33
348.75	5.76
349.12	5.54
349.49	5.32
349.861	5.94
350.231	5.59
350.601	5.58
350.971	5.53
351.341	5.97
351.711	5.84
352.081	5.84
352.45	5.49
352.82	5.52
353.19	5.9
353.56	6.01
353.929	5.89
354.299	6.1
354.669	6.1
355.038	6.28
355.408	5.92
355.777	5.98
356.147	6.04
356.516	5.91
356.885	5.86
357.254	6.04
357.624	5.97
357.993	6.31
358.362	6.4
358.731	6.46
359.1	6.46
359.469	6.61
359.838	6.28
360.207	6.45
360.576	6.36
360.945	6.58
361.314	6.5
361.682	6.07
362.051	6.32
362.42	6.69
362.788	6.81
363.157	6.4
363.525	6.71
363.894	6.72
364.262	6.71
364.631	6.91
364.999	6.64
365.367	6.91
365.735	6.65
366.104	6.84
366.472	6.74
366.84	6.88
367.208	6.92
367.576	6.64
367.944	6.92
368.312	6.47
368.68	7.11
369.048	7.15
369.416	7.01
369.783	7.2
370.151	7.48
370.519	7.69
370.886	7.44
371.254	7.6
371.621	7.35
371.989	7.81
372.356	7.2
372.724	7.32
373.091	7.27
373.458	7.4
373.826	7.66
374.193	7.3
374.56	7.65
374.927	7.49
375.294	7.69
375.661	7.58
376.028	7.92
376.395	7.64
376.762	7.44
377.129	7.59
377.496	7.75
377.863	7.94
378.229	7.98
378.596	8.07
378.963	7.85
379.329	8.05
379.696	8.03
380.062	8.08
380.429	7.86
380.795	8.35
381.161	7.95
381.528	7.95
381.894	8.02
382.26	8.46
382.626	8.48
382.993	8.48
383.359	8.44
383.725	8.28
384.091	8.48
384.457	8.62
384.823	8.6
385.188	8.82
385.554	8.75
385.92	8.48
386.286	8.58
386.651	8.72
387.017	8.86
387.383	8.68
387.748	8.9
388.114	8.98
388.479	8.97
388.845	8.84
389.21	8.92
389.575	9.08
389.94	9.29
390.306	9.23
390.671	9.2
391.036	9.07
391.401	9.12
391.766	9.08
392.131	9.26
392.496	9.26
392.861	9.28
393.226	9.09
393.591	9.33
393.956	9.54
394.32	9.44
394.685	9.63
395.05	9.35
395.414	9.43
395.779	9.59
396.143	9.45
396.508	9.72
396.872	9.63
397.236	9.91
397.601	10.02
397.965	9.86
398.329	9.68
398.694	9.71
399.058	9.73
399.422	9.74
399.786	10.02
400.15	10.02
400.514	10.14
400.878	10.01
401.242	10.22
401.605	10.04
401.969	9.91
402.333	10.25
402.697	10.32
403.06	10.17
403.424	10.62
403.787	10.3
404.151	10.34
404.514	10.63
404.878	10.37
405.241	10.44
405.604	10.63
405.968	10.52
406.331	10.57
406.694	10.49
407.057	10.76
407.42	10.61
407.783	10.87
408.146	10.61
408.509	10.75
408.872	10.65
409.235	10.77
409.598	11.01
409.961	11.08
410.323	10.8
410.686	10.79
411.049	11.25
411.411	10.89
411.774	10.86
412.136	11.12
412.499	11.41
412.861	10.86
413.223	11.17
413.586	11.34
413.948	11.43
414.31	11.35
414.672	11.48
415.035	11.57
415.397	11.38
415.759	11.08
416.121	11.58
416.483	11.4
416.845	11.64
417.206	11.49
417.568	11.48
417.93	11.62
418.292	11.35
418.653	11.36
419.015	11.55
419.377	11.53
419.738	11.64
420.1	11.55
420.461	11.56
420.822	11.63
421.184	11.62
421.545	11.66
421.906	11.74
422.267	11.64
422.629	11.64
422.99	11.67
423.351	11.62
423.712	11.98
424.073	11.94
424.434	11.99
424.795	11.85
425.155	11.89
425.516	11.82
425.877	11.97
426.238	11.98
426.598	11.98
426.959	12.21
427.32	12.16
427.68	12.28
428.041	12.44
428.401	12.4
428.761	12.48
429.122	12.49
429.482	12.62
429.842	12.55
430.202	12.85
430.563	12.75
430.923	12.61
431.283	12.93
431.643	12.87
432.003	12.82
432.363	12.92
432.722	12.91
433.082	12.88
433.442	12.98
433.802	13.06
434.161	13.07
434.521	13.13
434.881	13.14
435.24	13.14
435.6	13.16
435.959	13.15
436.319	13.18
436.678	13.32
437.037	13.24
437.396	13.39
437.756	13.4
438.115	13.38
438.474	13.34
438.833	13.34
439.192	13.35
439.551	13.42
439.91	13.75
440.269	13.62
440.628	13.59
440.987	13.67
441.345	13.55
441.704	13.5
442.063	13.53
442.421	13.6
442.78	13.72
443.138	13.68
443.497	13.71
443.855	13.93
444.214	13.84
444.572	14.13
444.93	13.99
445.288	14.19
445.647	13.93
446.005	14.04
446.363	13.99
446.721	14.19
447.079	14.06
447.437	13.97
447.795	14.03
448.153	13.97
448.51	14.15
448.868	14.04
449.226	14.21
449.584	14.23
449.941	14.25
450.299	14.36
450.656	14.61
451.014	14.58
451.371	14.64
451.729	14.81
452.086	14.85
452.443	14.81
452.801	14.69
453.158	15.11
453.515	14.8
453.872	14.88
454.229	14.78
454.586	14.76
454.943	15.2
455.3	15.13
455.657	15.01
456.014	15.19
456.371	15.18
456.727	15.32
457.084	15.44
457.441	15.26
457.797	15.55
458.154	15.34
458.51	15.32
458.867	15.58
459.223	15.31
459.58	15.6
459.936	15.41
460.292	15.32
460.648	15.32
461.005	15.2
461.361	15.2
461.717	15.31
462.073	15.45
462.429	15.57
462.785	15.82
463.141	15.82
463.496	16.01
463.852	16.12
464.208	15.98
464.564	16.05
464.919	16.11
465.275	16.09
465.631	16.31
465.986	16.24
466.342	16.13
466.697	16.33
467.052	16.4
467.408	16.46
467.763	16.44
468.118	16.35
468.473	16.26
468.829	16.5
469.184	16.67
469.539	16.46
469.894	16.82
470.249	16.67
470.603	17.01
470.958	16.91
471.313	16.75
471.668	16.91
472.023	16.93
472.377	16.8
472.732	17.11
473.086	17.11
473.441	17.2
473.795	17.42
474.15	17.05
474.504	17.32
474.859	17
475.213	17.37
475.567	17.2
475.921	17.39
476.275	17.61
476.63	17.66
476.984	17.34
477.338	17.62
477.692	17.5
478.045	17.48
478.399	17.41
478.753	17.59
479.107	17.72
479.461	17.56
479.814	17.61
480.168	17.62
480.521	17.83
480.875	17.69
481.228	17.8
481.582	17.63
481.935	17.89
482.289	17.96
482.642	17.95
482.995	17.72
483.348	17.77
483.701	17.84
484.055	17.61
484.408	17.53
484.761	17.21
485.114	17.01
485.466	16.96
485.819	17.12
486.172	17.19
486.525	17.3
486.878	17.46
487.23	17.65
487.583	17.76
487.936	17.76
488.288	17.77
488.641	17.64
488.993	17.61
489.345	17.54
489.698	17.68
490.05	17.72
490.402	17.96
490.754	18.04
491.107	18.18
491.459	18.44
491.811	18.45
492.163	18.6
492.515	18.4
492.866	18.11
493.218	18.07
493.57	18.19
493.922	18.3
494.274	18.58
494.625	18.73
494.977	18.97
495.328	19.04
495.68	19.25
496.031	19.23
496.383	19.42
496.734	19.4
497.086	19.46
497.437	19.4
497.788	19.45
498.139	19.58
498.49	19.47
498.842	19.43
499.193	19.41
499.544	19.62
499.894	19.66
500.245	19.8
500.596	19.86
500.947	19.89
501.298	19.84
501.648	19.97
501.999	20.06
502.35	20.12
502.7	20.25
503.051	20.25
503.401	20.32
503.752	20.41
504.102	20.35
504.452	20.37
504.803	20.37
505.153	20.6
505.503	20.47
505.853	20.54
506.203	20.55
506.553	20.51
506.903	20.62
507.253	20.62
507.603	20.8
507.953	20.82
508.303	20.76
508.652	20.64
509.002	20.97
509.352	20.86
509.701	20.74
510.051	20.88
510.4	20.85
510.75	20.83
511.099	20.8
511.449	21
511.798	20.96
512.147	21.16
512.496	21.16
512.846	21.17
513.195	21.04
513.544	21.08
513.893	21.26
514.242	21.18
514.591	21.29
514.939	21.35
515.288	21.48
515.637	21.53
515.986	21.43
516.334	21.77
516.683	21.8
517.032	21.82
517.38	21.66
517.729	21.79
518.077	21.87
518.426	21.73
518.774	21.81
519.122	21.8
519.47	21.71
519.819	21.6
520.167	21.58
520.515	21.51
520.863	21.65
521.211	21.81
521.559	21.74
521.907	21.91
522.255	22.01
522.602	22.13
522.95	22.39
523.298	22.46
523.645	22.5
523.993	22.38
524.341	22.39
524.688	22.55
525.036	22.49
525.383	22.57
525.73	22.6
526.078	22.71
526.425	22.54
526.772	22.5
527.119	22.22
527.466	22.36
527.814	22.32
528.161	22.47
528.508	22.5
528.854	22.39
529.201	22.36
529.548	22.16
529.895	21.89
530.242	21.91
530.588	21.99
530.935	22.15
531.282	22.22
531.628	22.32
531.975	22.51
532.321	22.78
532.667	22.88
533.014	22.97
533.36	23.07
533.706	23.16
534.052	23.13
534.399	22.92
534.745	22.72
535.091	22.84
535.437	22.93
535.783	22.98
536.129	23.13
536.474	23.45
536.82	23.57
537.166	23.51
537.512	23.71
537.857	23.53
538.203	23.47
538.549	23.54
538.894	23.6
539.239	23.81
539.585	23.89
539.93	24.03
540.276	24.19
540.621	24.23
540.966	24.36
541.311	24.28
541.656	24.1
542.001	24.07
542.346	23.84
542.691	23.59
543.036	23.59
543.381	23.63
543.726	23.89
544.071	23.87
544.415	24.05
544.76	24.1
545.105	24.27
545.449	24.44
545.794	24.45
546.138	24.72
546.483	24.85
546.827	24.76
547.171	24.93
547.516	24.96
547.86	24.79
548.204	25.05
548.548	25
548.892	25.06
549.236	25.08
549.58	25.26
549.924	25.51
550.268	25.49
550.612	25.57
550.956	25.71
551.3	26.1
551.643	25.92
551.987	25.96
552.33	26.26
552.674	26.06
553.017	26.08
553.361	26.16
553.704	26.15
554.048	25.94
554.391	26.12
554.734	25.85
555.077	26.15
555.42	26.19
555.764	26.25
556.107	26.33
556.45	26.59
556.793	26.58
557.135	26.69
557.478	26.72
557.821	26.82
558.164	26.77
558.507	26.79
558.849	26.88
559.192	26.94
559.534	26.92
559.877	26.99
560.219	27.06
560.562	27.06
560.904	27.23
561.246	27.15
561.589	27.33
561.931	27.38
562.273	27.49
562.615	27.15
562.957	27.25
563.299	27.24
563.641	27.38
563.983	27.36
564.325	27.44
564.667	27.54
565.008	27.62
565.35	27.71
565.692	27.71
566.033	27.83
566.375	27.61
566.716	27.43
567.058	27.77
567.399	27.73
567.741	27.72
568.082	27.74
568.423	27.59
568.764	27.75
569.105	27.96
569.447	27.94
569.788	28.06
570.129	28.17
570.47	28.11
570.811	28.14
571.151	28.21
571.492	28.25
571.833	28.25
572.174	28.39
572.514	28.15
572.855	28.47
573.195	28.23
573.536	28.37
573.876	28.2
574.217	28.21
574.557	28.3
574.898	28.42
575.238	28.4
575.578	28.61
575.918	28.68
576.258	28.95
576.598	28.52
576.938	28.51
577.278	28.79
577.618	28.78
577.958	28.98
578.298	28.95
578.638	29.07
578.977	29.14
579.317	29.33
579.657	29.16
579.996	29.38
580.336	29.75
580.675	29.32
581.014	29.67
581.354	29.35
581.693	29.57
582.032	29.98
582.372	30.03
582.711	29.86
583.05	29.84
583.389	30.02
583.728	30.04
584.067	29.86
584.406	30.24
584.745	30
585.083	29.94
585.422	30.15
585.761	30.33
586.1	30.23
586.438	30.16
586.777	30.43
587.115	30.51
587.454	30.51
587.792	30.6
588.13	30.51
588.469	30.37
588.807	30.68
589.145	30.62
589.483	30.65
589.821	30.76
590.159	30.75
590.497	30.64
590.835	30.73
591.173	30.74
591.511	30.73
591.849	30.88
592.187	30.69
592.524	30.86
592.862	30.92
593.2	30.93
593.537	31.23
593.875	31.12
594.212	31.01
594.55	31.23
594.887	31.17
595.224	31.6
595.561	31.48
595.899	31.28
596.236	31.28
596.573	31.07
596.91	31.23
597.247	31.38
597.584	31.38
597.921	31.24
598.258	31.43
598.594	31.12
598.931	31.2
599.268	31.21
599.604	31.41
599.941	31.44
600.277	31.77
600.614	31.73
600.95	31.94
601.287	31.98
601.623	31.77
601.959	32.17
602.296	31.85
602.632	32.1
602.968	32.39
603.304	32.03
603.64	31.83
603.976	32.26
604.312	31.99
604.648	32.22
604.984	32.15
605.319	32.18
605.655	31.99
605.991	31.98
606.326	31.97
606.662	32.04
606.998	32.18
607.333	32.29
607.668	32.1
608.004	32.39
608.339	32.59
608.674	32.83
609.01	32.92
609.345	32.8
609.68	32.8
610.015	33.01
610.35	32.92
610.685	32.64
611.02	32.61
611.355	32.77
611.689	32.86
612.024	32.89
612.359	33.09
612.694	33.05
613.028	33.27
613.363	33.29
613.697	33.63
614.032	33.56
614.366	33.56
614.7	33.65
615.035	33.8
615.369	33.61
615.703	33.83
616.037	33.57
616.371	33.52
616.705	34
617.039	33.52
617.373	33.75
617.707	33.66
618.041	33.84
618.375	33.69
618.709	33.84
619.042	34.03
619.376	34.46
619.71	34.28
620.043	34.2
620.377	34.3
620.71	34.37
621.043	34.44
621.377	34.29
621.71	34.26
622.043	34.49
622.376	35.13
622.709	34.63
623.043	34.75
623.376	34.6
623.709	34.98
624.041	34.65
624.374	34.69
624.707	34.97
625.04	35.05
625.373	35.03
625.705	34.76
626.038	34.87
626.37	34.74
626.703	34.84
627.035	34.86
627.368	35.17
627.7	35.04
628.032	34.65
628.365	34.95
628.697	34.92
629.029	34.74
629.361	35.17
629.693	34.93
630.025	35.52
630.357	34.99
630.689	35.31
631.021	35.23
631.353	35.83
631.684	35.17
632.016	35.1
632.348	35.08
632.679	35.6
633.011	35.31
633.342	35.61
633.674	35.54
634.005	35.66
634.336	35.74
634.668	35.97
634.999	35.46
635.33	35.61
635.661	35.46
635.992	35.57
636.323	35.99
636.654	35.98
636.985	35.69
637.316	36.18
637.647	35.46
637.977	35.71
638.308	36.34
638.639	35.96
638.969	35.4
639.3	36.21
639.63	36.47
639.961	36.34
640.291	36.21
640.622	36.54
640.952	36.72
641.282	36.12
641.612	36.58
641.943	36.27
642.273	36.55
642.603	36.93
642.933	36.56
643.263	36.72
643.592	36.82
643.922	36.91
644.252	36.89
644.582	36.81
644.911	37.48
645.241	36.82
645.571	37.32
645.9	37.52
646.23	37.3
646.559	36.66
646.888	36.91
647.218	37.45
647.547	37.45
647.876	37.48
648.205	37.26
648.534	37.32
648.863	37.13
649.192	37.63
649.521	37.44
649.85	37.12
650.179	37.63
650.508	37.59
650.837	37.75
651.165	37.79
651.494	38
651.822	38.15
652.151	37.21
652.479	38.37
652.808	37.57
653.136	37.37
653.465	37.5
653.793	37.57
654.121	37.97
654.449	37.75
654.777	37.58
655.105	37.73
655.433	38.09
655.761	37.73
656.089	37.95
656.417	38.64
656.745	38.6
657.073	38.05
657.4	38.16
657.728	37.9
658.056	38.91
658.383	38.56
658.711	38.24
659.038	38.26
659.365	38.23
659.693	38.47
660.02	38.82
660.347	38.68
660.674	38.2
661.001	38.57
661.329	38.34
661.656	38.43
661.982	38.13
662.309	38.64
662.636	38.69
662.963	38.54
663.29	38.83
663.616	38.56
663.943	38.94
664.27	38.62
664.596	38.91
664.923	39.01
665.249	39.03
665.576	38.64
665.902	39.02
666.228	39.09
666.554	40.1
666.881	38.98
667.207	39.72
667.533	39.15
667.859	39.74
668.185	39.38
668.511	39.26
668.837	39.06
669.162	39.6
669.488	39.32
669.814	39.67
670.139	38.73
670.465	39.35
670.791	39.5
671.116	39.18
671.442	39.56
671.767	39.48
672.092	39.5
672.418	40.18
672.743	40.04
673.068	39.74
673.393	39.56
