Data from 0006_crown_Reflection__1__398.txt Node

Date: Thu Dec 15 19:41:06 CST 2022
User: ToomeyLab
Spectrometer: FLMS14357
Trigger mode: 0
Integration Time (sec): 1.000000E-2
Scans to average: 100
Electric dark correction enabled: true
Nonlinearity correction enabled: false
Boxcar width: 0
XAxis mode: Wavelengths
Number of Pixels in Spectrum: 2048
>>>>>Begin Spectral Data<<<<<
189.047	-19.78
189.435	-19.78
189.823	-19.78
190.211	525.08
190.599	77.5
190.987	-3048.35
191.375	-189.12
191.763	161.24
192.151	2564.32
192.538	-112.45
192.926	40.07
193.314	24.35
193.702	566.26
194.089	143.91
194.477	80.95
194.864	79.07
195.252	99.21
195.639	143.17
196.027	286.96
196.414	-54.55
196.801	5.06
197.189	210.11
197.576	-26.1
197.963	278.66
198.351	-27.91
198.738	-63.33
199.125	-80.78
199.512	28.55
199.899	-19.06
200.286	-4.51
200.673	27
201.06	-16.56
201.447	-59.37
201.833	2.27
202.22	-15.8
202.607	-22.73
202.994	2.54
203.38	-43.03
203.767	-30.49
204.154	4.35
204.54	19.41
204.927	13.55
205.313	16.37
205.699	40.05
206.086	5.56
206.472	73.02
206.858	-16.37
207.245	-18.51
207.631	31.54
208.017	19.31
208.403	-43.23
208.789	-21.46
209.175	-40.3
209.561	-54.77
209.947	22.8
210.333	-36.17
210.719	-3.25
211.105	21.47
211.491	-16.73
211.876	-34.83
212.262	-3.36
212.648	-12.45
213.034	-28.77
213.419	-17.69
213.805	-41.87
214.19	-53.13
214.576	-62.33
214.961	-7.39
215.346	-29.63
215.732	-10.5
216.117	16.55
216.502	-9.11
216.888	-15.92
217.273	-7.87
217.658	-28.32
218.043	-41.1
218.428	-41.78
218.813	-6.47
219.198	-48.52
219.583	-6.63
219.968	-8.49
220.353	-35.09
220.738	6.76
221.122	-8.6
221.507	-22.6
221.892	-38.69
222.276	-53.28
222.661	-10.71
223.046	-11.6
223.43	7.68
223.815	-2.01
224.199	9.54
224.583	-4.19
224.968	-12.63
225.352	-11.22
225.736	2.67
226.121	-7.77
226.505	1.54
226.889	0.31
227.273	-3.36
227.657	2.08
228.041	2.49
228.425	-2.56
228.809	-3.31
229.193	3.87
229.577	2.28
229.961	1.9
230.344	4.24
230.728	4.42
231.112	4.35
231.495	2.88
231.879	3.02
232.263	3.17
232.646	1.72
233.03	4.99
233.413	3.21
233.797	1.58
234.18	3.64
234.563	2.6
234.946	1.27
235.33	2.23
235.713	3.77
236.096	4.06
236.479	4.31
236.862	2.2
237.245	2.21
237.628	4.07
238.011	2.24
238.394	3.37
238.777	3.38
239.16	3.4
239.543	1.57
239.925	2.86
240.308	1.13
240.691	2.6
241.073	2.61
241.456	2.98
241.838	2.99
242.221	3.15
242.603	2.97
242.986	3.78
243.368	3.48
243.75	3.52
244.133	3.81
244.515	3.23
244.897	3.17
245.279	2.83
245.661	2.79
246.043	2.86
246.425	3.9
246.807	2.77
247.189	2.89
247.571	2.58
247.953	3.06
248.335	3.27
248.717	3.39
249.098	3.01
249.48	3.09
249.862	3.12
250.243	3.61
250.625	3.37
251.006	4.47
251.388	2.81
251.769	2.12
252.151	3.69
252.532	2.84
252.913	3.1
253.295	2.79
253.676	2.91
254.057	3.27
254.438	3.24
254.819	2.74
255.2	2.44
255.581	2.85
255.962	3.24
256.343	3.91
256.724	3.13
257.105	3.4
257.486	2.56
257.867	2.2
258.247	2.36
258.628	3.07
259.009	2.81
259.389	2.34
259.77	2.62
260.15	3.44
260.531	3.21
260.911	3.08
261.292	3.17
261.672	3.07
262.052	3.22
262.432	2.93
262.813	3.23
263.193	2.66
263.573	2.96
263.953	3.03
264.333	3.34
264.713	2.84
265.093	2.52
265.473	3.91
265.853	3.69
266.233	3.31
266.612	2.78
266.992	3.3
267.372	3.17
267.752	2.86
268.131	2.59
268.511	2.26
268.89	3.03
269.27	2.46
269.649	2.55
270.029	2.28
270.408	2.25
270.787	2.55
271.167	3.34
271.546	3.21
271.925	3.1
272.304	2.86
272.683	2.72
273.062	2.93
273.441	2.81
273.82	2.89
274.199	2.97
274.578	2.95
274.957	2.6
275.336	3.22
275.715	3.14
276.093	2.77
276.472	2.3
276.851	3.09
277.229	2.77
277.608	2.27
277.986	2.9
278.365	3.17
278.743	2.92
279.122	2.77
279.5	2.1
279.878	2.42
280.257	2.71
280.635	2.5
281.013	2.36
281.391	2.52
281.769	2.99
282.147	2.37
282.525	2.62
282.903	2.47
283.281	2.88
283.659	3.07
284.037	3.23
284.415	2.44
284.792	3.17
285.17	2.63
285.548	2.72
285.925	2.57
286.303	3.11
286.68	2.82
287.058	2.66
287.435	2.53
287.813	2.39
288.19	2.41
288.567	2.98
288.945	2.5
289.322	2.9
289.699	2.94
290.076	2.84
290.453	2.18
290.83	2.76
291.207	2.89
291.584	2.87
291.961	2.65
292.338	2.28
292.715	2.6
293.092	2.8
293.469	2.45
293.845	2.48
294.222	2.62
294.599	2.11
294.975	2.22
295.352	2.31
295.728	2.85
296.105	2.49
296.481	2.51
296.858	2.43
297.234	2.44
297.61	2.79
297.986	2.82
298.363	2.8
298.739	2.88
299.115	2.54
299.491	2.94
299.867	2.53
300.243	2.54
300.619	2.46
300.995	2.59
301.371	2.81
301.746	2.77
302.122	2.12
302.498	2.56
302.874	2.8
303.249	2.56
303.625	1.82
304	2.72
304.376	2.81
304.751	2.55
305.127	2.27
305.502	2.18
305.878	2.41
306.253	2.01
306.628	2.46
307.003	2.29
307.378	2.15
307.754	2.49
308.129	2.1
308.504	2.6
308.879	2.74
309.254	2.81
309.629	2.64
310.003	2.29
310.378	2.68
310.753	2.5
311.128	2.17
311.502	2.62
311.877	2.09
312.252	2.56
312.626	2.81
313.001	2.42
313.375	2.34
313.75	2.89
314.124	2.62
314.498	3.11
314.873	2.58
315.247	2.79
315.621	2.34
315.995	2.46
316.369	2
316.743	2.07
317.117	2.32
317.491	2.49
317.865	1.79
318.239	2.8
318.613	2.42
318.987	2.31
319.361	2.15
319.734	2.23
320.108	2.95
320.482	2.52
320.855	2.43
321.229	2.85
321.602	2.24
321.976	1.62
322.349	2.91
322.723	2.28
323.096	2.27
323.469	2.17
323.843	1.75
324.216	2.35
324.589	2.63
324.962	2.6
325.335	2.41
325.708	2.49
326.081	2.41
326.454	2.72
326.827	2.66
327.2	2.1
327.573	2.65
327.945	1.86
328.318	1.99
328.691	2.19
329.063	2.47
329.436	1.53
329.809	2.37
330.181	2.82
330.553	2.73
330.926	2.88
331.298	2.42
331.671	2.56
332.043	2.61
332.415	2.75
332.787	2.63
333.159	2.23
333.532	2.35
333.904	2.51
334.276	2.49
334.648	2.53
335.02	2.53
335.391	2.01
335.763	2.51
336.135	2.45
336.507	2.15
336.879	2.64
337.25	2.68
337.622	2.73
337.993	2.34
338.365	2.51
338.736	2.12
339.108	2.19
339.479	2.53
339.851	2.59
340.222	2.93
340.593	2.37
340.964	2.68
341.336	1.99
341.707	2.23
342.078	2.34
342.449	2.31
342.82	2.41
343.191	2.26
343.562	2.11
343.933	2.17
344.303	2.57
344.674	2.48
345.045	2.6
345.416	2.68
345.786	2.41
346.157	2.7
346.527	2.52
346.898	2.37
347.268	2.25
347.639	2.4
348.009	2.64
348.38	2.21
348.75	2.42
349.12	2.88
349.49	2.39
349.861	2.84
350.231	2.65
350.601	2.39
350.971	2.33
351.341	2.68
351.711	2.95
352.081	2.54
352.45	2.51
352.82	2.04
353.19	2.54
353.56	2.36
353.929	2.55
354.299	2.48
354.669	2.65
355.038	2.78
355.408	2.26
355.777	2.82
356.147	2.6
356.516	2.47
356.885	2.47
357.254	2.8
357.624	2.28
357.993	2.57
358.362	2.52
358.731	2.95
359.1	2.6
359.469	2.81
359.838	2.65
360.207	2.45
360.576	2.85
360.945	2.6
361.314	2.57
361.682	2.41
362.051	2.53
362.42	2.56
362.788	2.68
363.157	2.42
363.525	2.74
363.894	2.37
364.262	2.65
364.631	2.73
364.999	2.78
365.367	2.6
365.735	2.39
366.104	2.53
366.472	2.53
366.84	2.59
367.208	2.99
367.576	2.47
367.944	2.79
368.312	2.76
368.68	2.66
369.048	2.74
369.416	2.43
369.783	2.48
370.151	2.69
370.519	2.98
370.886	2.82
371.254	2.63
371.621	2.49
371.989	2.75
372.356	2.61
372.724	2.6
373.091	2.6
373.458	2.67
373.826	2.8
374.193	2.79
374.56	2.69
374.927	2.62
375.294	2.78
375.661	2.64
376.028	2.47
376.395	2.65
376.762	2.7
377.129	2.63
377.496	2.62
377.863	2.86
378.229	2.84
378.596	2.94
378.963	2.88
379.329	2.62
379.696	2.59
380.062	2.83
380.429	2.58
380.795	2.92
381.161	2.58
381.528	2.37
381.894	2.59
382.26	2.9
382.626	2.84
382.993	3.05
383.359	2.5
383.725	2.3
384.091	2.69
384.457	2.61
384.823	2.93
385.188	2.95
385.554	2.81
385.92	2.49
386.286	2.81
386.651	2.77
387.017	2.92
387.383	2.86
387.748	2.92
388.114	2.72
388.479	2.71
388.845	2.54
389.21	3.08
389.575	3.27
389.94	3.08
390.306	2.83
390.671	2.85
391.036	2.56
391.401	2.79
391.766	2.77
392.131	3.02
392.496	2.87
392.861	2.62
393.226	2.79
393.591	2.83
393.956	2.81
394.32	2.85
394.685	2.86
395.05	2.76
395.414	2.87
395.779	3.08
396.143	2.82
396.508	2.89
396.872	2.64
397.236	3.12
397.601	2.98
397.965	2.78
398.329	3
398.694	2.76
399.058	2.76
399.422	2.69
399.786	2.77
400.15	3.01
400.514	2.84
400.878	2.77
401.242	3.01
401.605	2.85
401.969	2.97
402.333	2.71
402.697	2.98
403.06	3.04
403.424	2.78
403.787	2.89
404.151	3.12
404.514	2.91
404.878	2.75
405.241	2.95
405.604	2.99
405.968	3.04
406.331	3.02
406.694	3.05
407.057	2.84
407.42	3.04
407.783	2.97
408.146	3.08
408.509	3.14
408.872	2.96
409.235	3.23
409.598	2.84
409.961	3.03
410.323	2.89
410.686	3
411.049	3.11
411.411	2.87
411.774	2.86
412.136	3
412.499	3.15
412.861	2.82
413.223	2.9
413.586	3.01
413.948	3.01
414.31	2.99
414.672	2.77
415.035	3.22
415.397	3.08
415.759	2.74
416.121	3.07
416.483	2.94
416.845	3.08
417.206	2.93
417.568	3
417.93	2.96
418.292	2.87
418.653	2.79
419.015	2.97
419.377	2.96
419.738	3.05
420.1	2.9
420.461	2.9
420.822	3.07
421.184	3.01
421.545	3.12
421.906	2.98
422.267	2.94
422.629	3
422.99	2.9
423.351	3
423.712	3.06
424.073	3.07
424.434	3.09
424.795	2.97
425.155	2.89
425.516	2.98
425.877	3.04
426.238	3.01
426.598	3.03
426.959	3
427.32	3
427.68	3.08
428.041	2.99
428.401	2.94
428.761	3.05
429.122	3.16
429.482	2.92
429.842	2.9
430.202	3.08
430.563	2.97
430.923	3.06
431.283	3.19
431.643	3.18
432.003	3.1
432.363	3.17
432.722	2.99
433.082	3.02
433.442	3.24
433.802	3.04
434.161	3.06
434.521	3.06
434.881	3.11
435.24	3.07
435.6	3.12
435.959	3.07
436.319	3.13
436.678	3.17
437.037	3.13
437.396	3.1
437.756	3.01
438.115	3.16
438.474	2.91
438.833	3.14
439.192	3.01
439.551	3.02
439.91	3.04
440.269	3.06
440.628	3.06
440.987	3.13
441.345	3.15
441.704	3.02
442.063	3.07
442.421	3.09
442.78	3.11
443.138	3.16
443.497	3
443.855	3.08
444.214	2.9
444.572	3.27
444.93	3.13
445.288	3.16
445.647	3.03
446.005	3.1
446.363	3.04
446.721	3.13
447.079	3.08
447.437	3.12
447.795	3.13
448.153	3.12
448.51	3.1
448.868	3.07
449.226	3.12
449.584	3.14
449.941	3.12
450.299	3.15
450.656	3.23
451.014	3.22
451.371	3.21
451.729	3.13
452.086	3.12
452.443	3.36
452.801	3.35
453.158	3.4
453.515	3.1
453.872	3.16
454.229	3.03
454.586	3
454.943	3.18
455.3	3.19
455.657	3.17
456.014	3.22
456.371	3.15
456.727	3.22
457.084	3.33
457.441	3.28
457.797	3.08
458.154	3.21
458.51	3.17
458.867	3.28
459.223	3.21
459.58	3.15
459.936	3.21
460.292	3.24
460.648	3.06
461.005	3.02
461.361	3.12
461.717	3.04
462.073	3.2
462.429	3.25
462.785	3.41
463.141	3.18
463.496	3.28
463.852	3.23
464.208	3.19
464.564	3.16
464.919	3.18
465.275	3.26
465.631	3.47
465.986	3.29
466.342	3.19
466.697	3.23
467.052	3.23
467.408	3.28
467.763	3.15
468.118	3.09
468.473	3.37
468.829	3.2
469.184	3.32
469.539	3.27
469.894	3.33
470.249	3.21
470.603	3.36
470.958	3.46
471.313	3.29
471.668	3.38
472.023	3.31
472.377	3.32
472.732	3.31
473.086	3.2
473.441	3.26
473.795	3.46
474.15	3.25
474.504	3.28
474.859	3.02
475.213	3.35
475.567	3.14
475.921	3.32
476.275	3.3
476.63	3.31
476.984	3.01
477.338	3.25
477.692	3.16
478.045	3.16
478.399	3.32
478.753	3.25
479.107	3.23
479.461	3.22
479.814	3.25
480.168	3.29
480.521	3.33
480.875	3.29
481.228	3.26
481.582	3.35
481.935	3.43
482.289	3.35
482.642	3.44
482.995	3.26
483.348	3.25
483.701	3.33
484.055	3.26
484.408	3.28
484.761	3.1
485.114	3.05
485.466	3.01
485.819	3.07
486.172	3.13
486.525	3.19
486.878	3.24
487.23	3.26
487.583	3.25
487.936	3.25
488.288	3.2
488.641	3.15
488.993	3.13
489.345	3.1
489.698	3.21
490.05	3.16
490.402	3.22
490.754	3.23
491.107	3.24
491.459	3.27
491.811	3.28
492.163	3.27
492.515	3.15
492.866	3.17
493.218	3.15
493.57	3.21
493.922	3.26
494.274	3.31
494.625	3.41
494.977	3.31
495.328	3.37
495.68	3.34
496.031	3.32
496.383	3.32
496.734	3.33
497.086	3.39
497.437	3.35
497.788	3.43
498.139	3.29
498.49	3.35
498.842	3.41
499.193	3.25
499.544	3.41
499.894	3.28
500.245	3.47
500.596	3.4
500.947	3.35
501.298	3.36
501.648	3.33
501.999	3.39
502.35	3.29
502.7	3.52
503.051	3.43
503.401	3.43
503.752	3.43
504.102	3.33
504.452	3.3
504.803	3.4
505.153	3.4
505.503	3.37
505.853	3.52
506.203	3.5
506.553	3.37
506.903	3.55
507.253	3.38
507.603	3.43
507.953	3.37
508.303	3.49
508.652	3.23
509.002	3.39
509.352	3.47
509.701	3.24
510.051	3.42
510.4	3.53
510.75	3.31
511.099	3.33
511.449	3.46
511.798	3.41
512.147	3.33
512.496	3.49
512.846	3.43
513.195	3.42
513.544	3.48
513.893	3.4
514.242	3.38
514.591	3.27
514.939	3.52
515.288	3.54
515.637	3.46
515.986	3.4
516.334	3.39
516.683	3.5
517.032	3.47
517.38	3.31
517.729	3.34
518.077	3.44
518.426	3.51
518.774	3.44
519.122	3.4
519.47	3.35
519.819	3.4
520.167	3.38
520.515	3.43
520.863	3.38
521.211	3.39
521.559	3.36
521.907	3.43
522.255	3.54
522.602	3.5
522.95	3.52
523.298	3.61
523.645	3.41
523.993	3.44
524.341	3.48
524.688	3.35
525.036	3.39
525.383	3.43
525.73	3.39
526.078	3.49
526.425	3.45
526.772	3.38
527.119	3.39
527.466	3.44
527.814	3.44
528.161	3.44
528.508	3.52
528.854	3.47
529.201	3.42
529.548	3.28
529.895	3.28
530.242	3.25
530.588	3.25
530.935	3.3
531.282	3.35
531.628	3.38
531.975	3.37
532.321	3.43
532.667	3.42
533.014	3.53
533.36	3.46
533.706	3.46
534.052	3.4
534.399	3.39
534.745	3.39
535.091	3.32
535.437	3.38
535.783	3.39
536.129	3.32
536.474	3.49
536.82	3.56
537.166	3.44
537.512	3.39
537.857	3.42
538.203	3.36
538.549	3.33
538.894	3.42
539.239	3.5
539.585	3.58
539.93	3.54
540.276	3.51
540.621	3.61
540.966	3.51
541.311	3.55
541.656	3.34
542.001	3.38
542.346	3.34
542.691	3.31
543.036	3.36
543.381	3.38
543.726	3.38
544.071	3.37
544.415	3.45
544.76	3.45
545.105	3.44
545.449	3.45
545.794	3.5
546.138	3.54
546.483	3.47
546.827	3.48
547.171	3.59
547.516	3.46
547.86	3.46
548.204	3.51
548.548	3.43
548.892	3.53
549.236	3.43
549.58	3.4
549.924	3.58
550.268	3.68
550.612	3.6
550.956	3.72
551.3	3.7
551.643	3.58
551.987	3.68
552.33	3.88
552.674	3.53
553.017	3.67
553.361	3.59
553.704	3.68
554.048	3.55
554.391	3.58
554.734	3.38
555.077	3.59
555.42	3.54
555.764	3.54
556.107	3.65
556.45	3.57
556.793	3.78
557.135	3.63
557.478	3.66
557.821	3.7
558.164	3.53
558.507	3.51
558.849	3.63
559.192	3.48
559.534	3.52
559.877	3.55
560.219	3.53
560.562	3.58
560.904	3.71
561.246	3.52
561.589	3.81
561.931	3.64
562.273	3.54
562.615	3.65
562.957	3.68
563.299	3.57
563.641	3.63
563.983	3.67
564.325	3.76
564.667	3.6
565.008	3.48
565.35	3.5
565.692	3.65
566.033	3.43
566.375	3.66
566.716	3.65
567.058	3.61
567.399	3.7
567.741	3.61
568.082	3.53
568.423	3.57
568.764	3.53
569.105	3.64
569.447	3.51
569.788	3.55
570.129	3.56
570.47	3.57
570.811	3.5
571.151	3.72
571.492	3.69
571.833	3.45
572.174	3.76
572.514	3.48
572.855	3.69
573.195	3.56
573.536	3.67
573.876	3.56
574.217	3.5
574.557	3.54
574.898	3.57
575.238	3.62
575.578	3.53
575.918	3.64
576.258	3.77
576.598	3.49
576.938	3.5
577.278	3.54
577.618	3.61
577.958	3.7
578.298	3.5
578.638	3.63
578.977	3.6
579.317	3.79
579.657	3.67
579.996	3.66
580.336	3.78
580.675	3.61
581.014	3.7
581.354	3.5
581.693	3.81
582.032	3.72
582.372	3.85
582.711	3.64
583.05	3.64
583.389	3.67
583.728	3.68
584.067	3.74
584.406	3.65
584.745	3.51
585.083	3.67
585.422	3.73
585.761	3.85
586.1	3.72
586.438	3.53
586.777	3.82
587.115	3.91
587.454	3.56
587.792	3.55
588.13	3.76
588.469	3.47
588.807	3.69
589.145	3.81
589.483	3.55
589.821	3.68
590.159	3.81
590.497	3.63
590.835	3.91
591.173	3.74
591.511	3.85
591.849	3.88
592.187	3.53
592.524	3.81
592.862	3.62
593.2	3.74
593.537	3.55
593.875	3.73
594.212	3.79
594.55	3.63
594.887	3.74
595.224	3.79
595.561	3.72
595.899	3.65
596.236	3.72
596.573	3.68
596.91	3.76
597.247	3.93
597.584	3.7
597.921	3.58
598.258	3.74
598.594	3.71
598.931	3.37
599.268	3.63
599.604	3.8
599.941	3.63
600.277	3.81
600.614	3.91
600.95	3.69
601.287	3.45
601.623	3.54
601.959	3.78
602.296	3.82
602.632	3.83
602.968	3.73
603.304	3.77
603.64	3.51
603.976	3.55
604.312	3.47
604.648	3.67
604.984	3.72
605.319	3.68
605.655	3.6
605.991	3.49
606.326	3.62
606.662	3.5
606.998	3.78
607.333	3.7
607.668	3.66
608.004	3.59
608.339	3.63
608.674	3.74
609.01	3.86
609.345	3.82
609.68	3.68
610.015	3.8
610.35	3.76
610.685	3.32
611.02	3.64
611.355	3.69
611.689	3.56
612.024	3.74
612.359	3.83
612.694	3.55
613.028	3.45
613.363	3.41
613.697	3.87
614.032	3.79
614.366	3.6
614.7	3.7
615.035	3.53
615.369	3.56
615.703	3.59
616.037	3.8
616.371	3.69
616.705	3.76
617.039	3.76
617.373	3.86
617.707	3.65
618.041	3.58
618.375	3.16
618.709	3.69
619.042	3.46
619.376	3.96
619.71	3.46
620.043	3.63
620.377	3.56
620.71	3.28
621.043	3.56
621.377	3.89
621.71	3.86
622.043	3.54
622.376	3.64
622.709	4.15
623.043	3.73
623.376	3.48
623.709	3.97
624.041	3.87
624.374	3.64
624.707	3.64
625.04	3.91
625.373	3.93
625.705	3.9
626.038	3.88
626.37	3.58
626.703	3.6
627.035	3.67
627.368	3.77
627.7	3.71
628.032	3.82
628.365	3.91
628.697	4.03
629.029	3.9
629.361	3.89
629.693	3.73
630.025	3.78
630.357	3.75
630.689	4.06
631.021	4.07
631.353	3.99
631.684	3.34
632.016	3.35
632.348	3.47
632.679	3.87
633.011	3.91
633.342	3.98
633.674	3.74
634.005	3.77
634.336	3.81
634.668	3.52
634.999	3.6
635.33	3.6
635.661	3.68
635.992	3.83
636.323	3.98
636.654	3.6
636.985	3.46
637.316	3.66
637.647	3.81
637.977	3.74
638.308	4.04
638.639	3.92
638.969	3.57
639.3	3.94
639.63	3.91
639.961	3.8
640.291	3.86
640.622	3.95
640.952	4.14
641.282	3.55
641.612	3.69
641.943	3.61
642.273	3.68
642.603	4.09
642.933	4.41
643.263	3.57
643.592	3.87
643.922	4.22
644.252	3.38
644.582	3.89
644.911	3.75
645.241	3.4
645.571	3.62
645.9	4.17
646.23	3.99
646.559	3.43
646.888	4.39
647.218	3.87
647.547	3.55
647.876	3.61
648.205	3.48
648.534	3.76
648.863	3.6
649.192	3.41
649.521	3.8
649.85	4.13
650.179	3.8
650.508	3.76
650.837	4
651.165	3.78
651.494	4.03
651.822	3.9
652.151	3.54
652.479	3.96
652.808	3.98
653.136	3.43
653.465	3.19
653.793	3.74
654.121	3.71
654.449	3.53
654.777	3.37
655.105	3.59
655.433	4.03
655.761	4.08
656.089	3.65
656.417	3.91
656.745	4.37
657.073	3.99
657.4	3.89
657.728	3.56
658.056	3.62
658.383	3.81
658.711	3.72
659.038	4.27
659.365	3.76
659.693	3.91
660.02	4.01
660.347	4.02
660.674	3.76
661.001	3.85
661.329	3.77
661.656	3.57
661.982	3.59
662.309	3.6
662.636	4.13
662.963	3.83
663.29	4.02
663.616	3.34
663.943	4.11
664.27	3.63
664.596	3.54
664.923	4.26
665.249	3.7
665.576	3.23
665.902	3.71
666.228	3.95
666.554	4.48
666.881	3.8
667.207	4.15
667.533	3.81
667.859	4.19
668.185	3.87
668.511	4.43
668.837	3.8
669.162	3.57
669.488	3.34
669.814	3.91
670.139	3.25
670.465	4.2
670.791	3.21
671.116	3.85
671.442	3.55
671.767	3.19
672.092	3.82
672.418	3.65
672.743	3.7
673.068	3.5
673.393	3.66
673.718	3.27
674.043	3.5
674.368	3.33
674.693	3.95
675.018	4.28
675.343	3.98
675.667	3.68
675.992	3.87
676.317	3.34
676.641	4.01
676.966	4.04
677.29	3.73
677.615	3.48
677.939	3.88
678.264	3.53
678.588	3.47
678.912	4.23
679.236	3.97
679.56	3.47
679.885	3.55
680.209	4.35
680.532	3.8
680.856	3.8
681.18	4.32
681.504	3.82
681.828	3.74
682.152	3.63
682.475	4.18
682.799	3.96
683.122	4.04
683.446	3.18
683.769	4.6
684.093	3.7
684.416	3.53
684.739	3.53
685.062	4.27
685.386	4.04
685.709	4.35
686.032	3.87
686.355	3.9
686.678	4.27
687.001	3.53
687.324	4.28
687.646	3.77
687.969	3.92
688.292	3.61
688.614	4.32
688.937	4.29
689.26	4.53
689.582	4.3
689.904	4.01
690.227	3.91
690.549	3.94
690.871	4.14
691.194	3.36
691.516	3.86
691.838	4.26
692.16	3.95
