Data from 0006_crown_Reflection__4__401.txt Node

Date: Thu Dec 15 19:41:36 CST 2022
User: ToomeyLab
Spectrometer: FLMS14357
Trigger mode: 0
Integration Time (sec): 1.000000E-2
Scans to average: 100
Electric dark correction enabled: true
Nonlinearity correction enabled: false
Boxcar width: 0
XAxis mode: Wavelengths
Number of Pixels in Spectrum: 2048
>>>>>Begin Spectral Data<<<<<
189.047	31.65
189.435	31.65
189.823	31.65
190.211	-634.14
190.599	98.6
190.987	-1339.56
191.375	-192.52
191.763	176.17
192.151	512.21
192.538	-727.09
192.926	-23.78
193.314	86.96
193.702	101.69
194.089	498.69
194.477	72.21
194.864	103.97
195.252	57.77
195.639	158.55
196.027	120.64
196.414	236.78
196.801	26.75
197.189	9.58
197.576	-27.12
197.963	204.33
198.351	3.49
198.738	-100.3
199.125	-56.65
199.512	18.34
199.899	-25.1
200.286	-174.05
200.673	22.86
201.06	-23.46
201.447	-35.85
201.833	-11.21
202.22	-25.36
202.607	-53.53
202.994	14.58
203.38	9.99
203.767	-31.84
204.154	4.01
204.54	-34.05
204.927	14.22
205.313	18.8
205.699	-2.87
206.086	42.89
206.472	30.61
206.858	-21.29
207.245	-4.08
207.631	-24.4
208.017	50.33
208.403	-38.45
208.789	6.02
209.175	-13.78
209.561	-74.62
209.947	-31.34
210.333	-54.21
210.719	15.39
211.105	23.93
211.491	8.16
211.876	-11.78
212.262	3.07
212.648	14.42
213.034	3.56
213.419	-2.29
213.805	-15.55
214.19	-63.58
214.576	-46.93
214.961	2.9
215.346	-76.2
215.732	-15.21
216.117	7.09
216.502	-2.8
216.888	-11.79
217.273	-22.4
217.658	-5.39
218.043	-6.88
218.428	-29.99
218.813	16.25
219.198	-39.8
219.583	-3.05
219.968	-2
220.353	-42.31
220.738	-2.58
221.122	-19.11
221.507	-8.2
221.892	-14.26
222.276	-29.48
222.661	-17.42
223.046	-7.59
223.43	8.08
223.815	5.33
224.199	-1.7
224.583	-4.25
224.968	-11.97
225.352	-3.28
225.736	4.66
226.121	-6.96
226.505	-2.88
226.889	-1.73
227.273	-2.74
227.657	7.81
228.041	-0.14
228.425	0.81
228.809	3.03
229.193	5.36
229.577	4.53
229.961	4.77
230.344	6.18
230.728	5.07
231.112	5.71
231.495	3.71
231.879	3.67
232.263	6.13
232.646	2.96
233.03	6.74
233.413	3.82
233.797	3.31
234.18	6.1
234.563	4.24
234.946	2.31
235.33	5.04
235.713	6.76
236.096	4.89
236.479	4.9
236.862	3.49
237.245	4.31
237.628	5.41
238.011	3.22
238.394	6.59
238.777	4.34
239.16	5
239.543	5.26
239.925	5.58
240.308	3.26
240.691	3.58
241.073	3.72
241.456	4.94
241.838	4.32
242.221	4.52
242.603	5.4
242.986	4.88
243.368	5.29
243.75	5.34
244.133	5.46
244.515	5.36
244.897	5.1
245.279	4.98
245.661	6.24
246.043	5.32
246.425	5.17
246.807	4.71
247.189	5.43
247.571	4.94
247.953	5.27
248.335	4.98
248.717	5.33
249.098	5.17
249.48	5.1
249.862	5.37
250.243	5.08
250.625	5.19
251.006	5.85
251.388	4.72
251.769	3.98
252.151	5.19
252.532	4.16
252.913	4.86
253.295	5.27
253.676	5.11
254.057	4.94
254.438	5.01
254.819	5.25
255.2	4.91
255.581	5
255.962	5.89
256.343	3.8
256.724	4.47
257.105	5.03
257.486	4.21
257.867	4.42
258.247	5.45
258.628	5.16
259.009	4.96
259.389	4.61
259.77	4.61
260.15	5.36
260.531	4.94
260.911	4.68
261.292	4.91
261.672	4.89
262.052	5.11
262.432	4.75
262.813	4.7
263.193	5.12
263.573	4.96
263.953	4.33
264.333	4.93
264.713	5.17
265.093	4.2
265.473	4.93
265.853	4.71
266.233	4.79
266.612	3.31
266.992	4.98
267.372	5.37
267.752	4.75
268.131	4.43
268.511	4.64
268.89	4.94
269.27	4.08
269.649	4.27
270.029	4.26
270.408	4.13
270.787	4.58
271.167	4.91
271.546	5.06
271.925	4.95
272.304	4.74
272.683	4.52
273.062	5.03
273.441	4.39
273.82	4.57
274.199	4.29
274.578	4.5
274.957	4.46
275.336	4.85
275.715	4.59
276.093	3.85
276.472	4.49
276.851	4.47
277.229	4.49
277.608	4.15
277.986	4.58
278.365	4.6
278.743	4.3
279.122	4.21
279.5	4.24
279.878	4.52
280.257	4.4
280.635	4.08
281.013	4.25
281.391	4.17
281.769	4.69
282.147	4.09
282.525	3.69
282.903	4.35
283.281	4.54
283.659	4.69
284.037	3.98
284.415	4.24
284.792	4.33
285.17	3.95
285.548	4.25
285.925	4.22
286.303	4.39
286.68	4.31
287.058	4.38
287.435	4.21
287.813	4.28
288.19	4.08
288.567	4.29
288.945	3.61
289.322	4.36
289.699	4.22
290.076	4.12
290.453	3.96
290.83	3.88
291.207	4.1
291.584	4.47
291.961	4.2
292.338	3.94
292.715	4.01
293.092	4.53
293.469	4.36
293.845	4.28
294.222	4.19
294.599	3.87
294.975	4.03
295.352	4.29
295.728	4.06
296.105	4.06
296.481	3.93
296.858	3.89
297.234	3.98
297.61	3.83
297.986	4.5
298.363	4.42
298.739	4.39
299.115	3.92
299.491	4.29
299.867	3.95
300.243	3.66
300.619	4.11
300.995	3.96
301.371	3.98
301.746	4
302.122	3.33
302.498	3.8
302.874	4.37
303.249	3.89
303.625	3.53
304	4.14
304.376	4.11
304.751	3.92
305.127	3.67
305.502	4.14
305.878	3.95
306.253	3.53
306.628	4.12
307.003	3.85
307.378	3.83
307.754	4.15
308.129	3.66
308.504	3.76
308.879	3.67
309.254	4.57
309.629	3.63
310.003	3.83
310.378	4.41
310.753	3.67
311.128	3.5
311.502	3.95
311.877	3.74
312.252	3.66
312.626	3.84
313.001	3.85
313.375	3.7
313.75	3.66
314.124	4.16
314.498	3.86
314.873	3.19
315.247	3.71
315.621	3.68
315.995	3.56
316.369	3.2
316.743	3.29
317.117	2.98
317.491	4.24
317.865	3.58
318.239	3.88
318.613	3.59
318.987	3.33
319.361	3.62
319.734	4.09
320.108	4.11
320.482	4.43
320.855	3.78
321.229	2.99
321.602	3.52
321.976	3.21
322.349	4.11
322.723	3.67
323.096	3.2
323.469	3.88
323.843	3.22
324.216	3.36
324.589	3.87
324.962	3.86
325.335	3.23
325.708	3.71
326.081	3.45
326.454	3.86
326.827	3.85
327.2	3.16
327.573	3.82
327.945	3.4
328.318	3.58
328.691	3.46
329.063	3.36
329.436	3.7
329.809	3.9
330.181	3.74
330.553	3.72
330.926	4.23
331.298	3.52
331.671	3.81
332.043	3.35
332.415	3.94
332.787	4.06
333.159	3.05
333.532	3.66
333.904	3.83
334.276	3.73
334.648	3.76
335.02	3.63
335.391	3.63
335.763	3.38
336.135	4.04
336.507	3.41
336.879	3.54
337.25	4.26
337.622	3.47
337.993	3.69
338.365	3.63
338.736	3.54
339.108	4.09
339.479	3.43
339.851	3.53
340.222	4.01
340.593	3.08
340.964	4.01
341.336	3.64
341.707	3.66
342.078	3.01
342.449	3.9
342.82	3.41
343.191	3.75
343.562	3.55
343.933	3.67
344.303	3.97
344.674	3.58
345.045	3.71
345.416	4.27
345.786	3.32
346.157	3.89
346.527	3.58
346.898	3.59
347.268	3.62
347.639	3.65
348.009	3.84
348.38	3.71
348.75	3.82
349.12	3.98
349.49	3.99
349.861	3.65
350.231	3.44
350.601	3.66
350.971	2.97
351.341	3.64
351.711	3.61
352.081	3.4
352.45	3.1
352.82	3.19
353.19	3.41
353.56	3.25
353.929	3.97
354.299	3.99
354.669	3.75
355.038	3.79
355.408	3.61
355.777	3.66
356.147	3.7
356.516	3.54
356.885	3.74
357.254	3.44
357.624	3.64
357.993	3.88
358.362	3.89
358.731	3.85
359.1	3.8
359.469	3.89
359.838	3.72
360.207	3.52
360.576	3.91
360.945	3.74
361.314	3.84
361.682	3.7
362.051	3.81
362.42	3.96
362.788	4.14
363.157	3.59
363.525	3.64
363.894	3.66
364.262	3.82
364.631	4.06
364.999	4.15
365.367	3.68
365.735	3.87
366.104	3.86
366.472	3.6
366.84	3.72
367.208	4.03
367.576	4.06
367.944	3.93
368.312	3.58
368.68	3.86
369.048	3.83
369.416	3.47
369.783	3.73
370.151	4.35
370.519	4.1
370.886	3.98
371.254	4.03
371.621	4.14
371.989	4.3
372.356	3.71
372.724	3.74
373.091	3.92
373.458	3.88
373.826	3.86
374.193	3.88
374.56	3.73
374.927	3.81
375.294	4.13
375.661	4
376.028	3.88
376.395	4.15
376.762	3.37
377.129	3.78
377.496	3.99
377.863	3.89
378.229	4.25
378.596	4.06
378.963	4.15
379.329	4.08
379.696	3.84
380.062	4.03
380.429	3.63
380.795	4.37
381.161	3.79
381.528	3.87
381.894	3.98
382.26	4
382.626	3.87
382.993	4.4
383.359	4.07
383.725	3.98
384.091	4.14
384.457	3.92
384.823	4.12
385.188	4.11
385.554	4.21
385.92	3.96
386.286	3.95
386.651	4.09
387.017	4.38
387.383	4.08
387.748	4.29
388.114	4.27
388.479	4.07
388.845	3.89
389.21	4.42
389.575	4.33
389.94	4.7
390.306	4.07
390.671	4.02
391.036	4.04
391.401	4.24
391.766	4.17
392.131	4.36
392.496	4.21
392.861	4.21
393.226	3.93
393.591	4.29
393.956	4.32
394.32	4.22
394.685	4.17
395.05	4.27
395.414	4.4
395.779	4.37
396.143	4.07
396.508	4.07
396.872	4.02
397.236	4.59
397.601	4.29
397.965	4.33
398.329	4.23
398.694	4.27
399.058	4.18
399.422	4.22
399.786	4.34
400.15	4.23
400.514	4.38
400.878	4.08
401.242	4.43
401.605	4.3
401.969	4.14
402.333	4.26
402.697	4.42
403.06	4.42
403.424	4.47
403.787	4.14
404.151	4.36
404.514	4.27
404.878	4.11
405.241	4.39
405.604	4.37
405.968	4.35
406.331	4.31
406.694	4.42
407.057	4.37
407.42	4.46
407.783	4.44
408.146	4.24
408.509	4.29
408.872	4.32
409.235	4.46
409.598	4.45
409.961	4.42
410.323	4.22
410.686	4.39
411.049	4.46
411.411	4.28
411.774	4.41
412.136	4.37
412.499	4.74
412.861	4.18
413.223	4.22
413.586	4.31
413.948	4.41
414.31	4.52
414.672	4.37
415.035	4.58
415.397	4.2
415.759	4.25
416.121	4.51
416.483	4.49
416.845	4.51
417.206	4.46
417.568	4.31
417.93	4.64
418.292	4.32
418.653	4.22
419.015	4.44
419.377	4.38
419.738	4.41
420.1	4.5
420.461	4.28
420.822	4.45
421.184	4.46
421.545	4.42
421.906	4.5
422.267	4.37
422.629	4.37
422.99	4.42
423.351	4.4
423.712	4.54
424.073	4.47
424.434	4.51
424.795	4.52
425.155	4.42
425.516	4.36
425.877	4.44
426.238	4.4
426.598	4.43
426.959	4.54
427.32	4.41
427.68	4.47
428.041	4.62
428.401	4.49
428.761	4.55
429.122	4.63
429.482	4.51
429.842	4.48
430.202	4.68
430.563	4.54
430.923	4.63
431.283	4.58
431.643	4.62
432.003	4.63
432.363	4.67
432.722	4.66
433.082	4.5
433.442	4.7
433.802	4.67
434.161	4.66
434.521	4.56
434.881	4.65
435.24	4.57
435.6	4.62
435.959	4.74
436.319	4.69
436.678	4.76
437.037	4.66
437.396	4.86
437.756	4.69
438.115	4.63
438.474	4.63
438.833	4.66
439.192	4.61
439.551	4.59
439.91	4.71
440.269	4.65
440.628	4.45
440.987	4.74
441.345	4.6
441.704	4.56
442.063	4.63
442.421	4.66
442.78	4.56
443.138	4.66
443.497	4.6
443.855	4.73
444.214	4.47
444.572	4.88
444.93	4.77
445.288	4.63
445.647	4.65
446.005	4.64
446.363	4.59
446.721	4.66
447.079	4.51
447.437	4.71
447.795	4.68
448.153	4.56
448.51	4.7
448.868	4.65
449.226	4.68
449.584	4.67
449.941	4.67
450.299	4.6
450.656	4.73
451.014	4.87
451.371	4.64
451.729	4.84
452.086	4.78
452.443	4.81
452.801	4.76
453.158	4.82
453.515	4.59
453.872	4.72
454.229	4.68
454.586	4.61
454.943	4.79
455.3	4.78
455.657	4.64
456.014	4.68
456.371	4.92
456.727	4.9
457.084	5.01
457.441	4.94
457.797	4.91
458.154	4.89
458.51	4.71
458.867	4.73
459.223	4.77
459.58	4.66
459.936	4.78
460.292	4.75
460.648	4.74
461.005	4.7
461.361	4.65
461.717	4.66
462.073	4.72
462.429	4.84
462.785	4.84
463.141	4.81
463.496	4.85
463.852	4.96
464.208	4.76
464.564	4.92
464.919	4.94
465.275	4.94
465.631	5.01
465.986	5.02
466.342	4.61
466.697	4.83
467.052	4.97
467.408	4.84
467.763	4.89
468.118	4.76
468.473	4.91
468.829	4.77
469.184	4.93
469.539	4.75
469.894	4.95
470.249	4.96
470.603	5.1
470.958	5.05
471.313	4.92
471.668	4.93
472.023	4.92
472.377	4.86
472.732	5.01
473.086	4.97
473.441	4.82
473.795	5.19
474.15	4.77
474.504	4.78
474.859	4.67
475.213	5.08
475.567	4.93
475.921	4.87
476.275	4.93
476.63	5.23
476.984	4.81
477.338	5.06
477.692	4.98
478.045	5
478.399	5.05
478.753	4.87
479.107	4.97
479.461	4.93
479.814	4.95
480.168	4.9
480.521	5.03
480.875	4.93
481.228	5.02
481.582	4.93
481.935	5.06
482.289	4.98
482.642	5.15
482.995	4.84
483.348	4.83
483.701	4.91
484.055	4.9
484.408	4.87
484.761	4.72
485.114	4.64
485.466	4.58
485.819	4.67
486.172	4.73
486.525	4.79
486.878	4.84
487.23	4.84
487.583	4.84
487.936	4.82
488.288	4.82
488.641	4.77
488.993	4.73
489.345	4.73
489.698	4.79
490.05	4.76
490.402	4.85
490.754	4.86
491.107	4.89
491.459	4.95
491.811	5.01
492.163	4.92
492.515	4.9
492.866	4.8
493.218	4.75
493.57	4.84
493.922	4.95
494.274	4.98
494.625	4.97
494.977	5.04
495.328	5.07
495.68	5.03
496.031	5.14
496.383	5.03
496.734	5.01
497.086	5.09
497.437	5.06
497.788	5.06
498.139	4.95
498.49	5.05
498.842	5.15
499.193	4.96
499.544	5.05
499.894	5.13
500.245	5.12
500.596	5.06
500.947	5.02
501.298	5.09
501.648	5.13
501.999	5.16
502.35	5.08
502.7	5.17
503.051	5.12
503.401	5.16
503.752	5.1
504.102	5.07
504.452	5.02
504.803	5.05
505.153	5.18
505.503	5.14
505.853	5.24
506.203	5.3
506.553	5.19
506.903	5.14
507.253	5.22
507.603	5.15
507.953	5.12
508.303	5.13
508.652	4.96
509.002	5.25
509.352	5.14
509.701	4.97
510.051	5.17
510.4	5.12
510.75	5.04
511.099	5.1
511.449	5.14
511.798	5.19
512.147	5.24
512.496	5.26
512.846	5.08
513.195	5.23
513.544	5.23
513.893	5.17
514.242	5.1
514.591	5.13
514.939	5.06
515.288	5.26
515.637	5.18
515.986	5.16
516.334	5.13
516.683	5.16
517.032	5.21
517.38	5.2
517.729	5.22
518.077	5.17
518.426	5.3
518.774	5.1
519.122	5.09
519.47	5.1
519.819	5.14
520.167	5.08
520.515	5.12
520.863	5.09
521.211	5.07
521.559	5.12
521.907	5.19
522.255	5.24
522.602	5.16
522.95	5.27
523.298	5.23
523.645	5.31
523.993	5.17
524.341	5.34
524.688	5.15
525.036	5.27
525.383	5.26
525.73	5.06
526.078	5.34
526.425	5.15
526.772	5.24
527.119	5.19
527.466	5.24
527.814	5.19
528.161	5.24
528.508	5.27
528.854	5.19
529.201	5.13
529.548	5.04
529.895	4.95
530.242	4.93
530.588	4.94
530.935	5.04
531.282	5.07
531.628	5.13
531.975	5.14
532.321	5.14
532.667	5.18
533.014	5.28
533.36	5.26
533.706	5.29
534.052	5.28
534.399	5.12
534.745	5.09
535.091	5.07
535.437	5.11
535.783	5.14
536.129	5.18
536.474	5.26
536.82	5.24
537.166	5.21
537.512	5.24
537.857	5.26
538.203	5.16
538.549	5.11
538.894	5.2
539.239	5.22
539.585	5.34
539.93	5.33
540.276	5.25
540.621	5.39
540.966	5.25
541.311	5.33
541.656	5.22
542.001	5.18
542.346	5.17
542.691	5.03
543.036	5.08
543.381	5.11
543.726	5.19
544.071	5.23
544.415	5.22
544.76	5.2
545.105	5.17
545.449	5.15
545.794	5.23
546.138	5.28
546.483	5.42
546.827	5.26
547.171	5.29
547.516	5.32
547.86	5.33
548.204	5.32
548.548	5.23
548.892	5.28
549.236	5.28
549.58	5.4
549.924	5.51
550.268	5.4
550.612	5.42
550.956	5.4
551.3	5.48
551.643	5.39
551.987	5.56
552.33	5.57
552.674	5.41
553.017	5.47
553.361	5.52
553.704	5.48
554.048	5.43
554.391	5.4
554.734	5.29
555.077	5.31
555.42	5.29
555.764	5.47
556.107	5.51
556.45	5.44
556.793	5.45
557.135	5.48
557.478	5.45
557.821	5.46
558.164	5.49
558.507	5.4
558.849	5.66
559.192	5.51
559.534	5.46
559.877	5.43
560.219	5.48
560.562	5.44
560.904	5.55
561.246	5.36
561.589	5.57
561.931	5.43
562.273	5.36
562.615	5.39
562.957	5.27
563.299	5.49
563.641	5.51
563.983	5.29
564.325	5.52
564.667	5.39
565.008	5.39
565.35	5.31
565.692	5.32
566.033	5.31
566.375	5.36
566.716	5.28
567.058	5.4
567.399	5.47
567.741	5.34
568.082	5.44
568.423	5.44
568.764	5.47
569.105	5.4
569.447	5.34
569.788	5.33
570.129	5.48
570.47	5.42
570.811	5.32
571.151	5.59
571.492	5.36
571.833	5.32
572.174	5.5
572.514	5.38
572.855	5.48
573.195	5.41
573.536	5.48
573.876	5.32
574.217	5.35
574.557	5.44
574.898	5.39
575.238	5.48
575.578	5.33
575.918	5.41
576.258	5.49
576.598	5.44
576.938	5.15
577.278	5.46
577.618	5.41
577.958	5.52
578.298	5.47
578.638	5.34
578.977	5.46
579.317	5.52
579.657	5.32
579.996	5.53
580.336	5.54
580.675	5.27
581.014	5.71
581.354	5.36
581.693	5.45
582.032	5.68
582.372	5.52
582.711	5.64
583.05	5.46
583.389	5.54
583.728	5.61
584.067	5.48
584.406	5.36
584.745	5.42
585.083	5.4
585.422	5.68
585.761	5.62
586.1	5.61
586.438	5.39
586.777	5.42
587.115	5.65
587.454	5.36
587.792	5.41
588.13	5.43
588.469	5.68
588.807	5.52
589.145	5.56
589.483	5.34
589.821	5.31
590.159	5.45
590.497	5.5
590.835	5.56
591.173	5.62
591.511	5.5
591.849	5.57
592.187	5.29
592.524	5.67
592.862	5.29
593.2	5.6
593.537	5.56
593.875	5.53
594.212	5.29
594.55	5.31
594.887	5.67
595.224	5.75
595.561	5.43
595.899	5.52
596.236	5.59
596.573	5.44
596.91	5.38
597.247	5.6
597.584	5.62
597.921	5.26
598.258	5.58
598.594	5.34
598.931	5.36
599.268	5.21
599.604	5.52
599.941	5.34
600.277	5.37
600.614	5.52
600.95	5.37
601.287	5.28
601.623	5.32
601.959	5.55
602.296	5.41
602.632	5.37
602.968	5.54
603.304	5.39
603.64	5.57
603.976	5.38
604.312	5.38
604.648	5.54
604.984	5.53
605.319	5.53
605.655	5.42
605.991	5.36
606.326	5.37
606.662	5.16
606.998	5.57
607.333	5.36
607.668	5.28
608.004	5.32
608.339	5.38
608.674	5.4
609.01	5.78
609.345	5.31
609.68	5.42
610.015	5.62
610.35	5.47
610.685	4.97
611.02	5.28
611.355	5.35
611.689	5.42
612.024	5.41
612.359	5.32
612.694	5.64
613.028	5.41
613.363	5.39
613.697	5.42
614.032	5.63
614.366	5.48
614.7	5.49
615.035	5.55
615.369	5.48
615.703	5.6
616.037	5.5
616.371	5.37
616.705	5.5
617.039	5.43
617.373	5.57
617.707	5.73
618.041	5.31
618.375	4.91
618.709	5.54
619.042	5.37
619.376	5.47
619.71	5.27
620.043	5.88
620.377	5.63
620.71	5.36
621.043	5.37
621.377	5.68
621.71	5.66
622.043	5.27
622.376	5.65
622.709	5.77
623.043	5.59
623.376	5.41
623.709	5.8
624.041	5.1
624.374	5.36
624.707	5.36
625.04	5.48
625.373	5.46
625.705	5.47
626.038	5.49
626.37	5.32
626.703	5.47
627.035	5.28
627.368	5.72
627.7	5.32
628.032	5.26
628.365	5.4
628.697	5.67
629.029	5.55
629.361	5.5
629.693	5.42
630.025	5.82
630.357	5.53
630.689	5.68
631.021	5.57
631.353	5.58
631.684	5.28
632.016	5.33
632.348	5.64
632.679	5.56
633.011	5.37
633.342	5.45
633.674	5.17
634.005	5.63
634.336	5.48
634.668	5.27
634.999	5.19
635.33	5.6
635.661	5.4
635.992	5.51
636.323	5.78
636.654	5.59
636.985	5.32
637.316	5.57
637.647	5.94
637.977	5.24
638.308	5.64
638.639	5.34
638.969	5.28
639.3	5.42
639.63	5.24
639.961	5.49
640.291	5.53
640.622	5.23
640.952	5.45
641.282	5.29
641.612	5.4
641.943	5.2
642.273	5.45
642.603	5.71
642.933	5.61
643.263	5.75
643.592	5.75
643.922	5.75
644.252	5.43
644.582	5.68
644.911	5.44
645.241	5.37
645.571	5.41
645.9	5.77
646.23	5.64
646.559	5.09
646.888	5.61
647.218	5.36
647.547	5.25
647.876	5.18
648.205	5.5
648.534	5.5
648.863	5.29
649.192	5.7
649.521	5.65
649.85	5.43
650.179	5.78
650.508	5.23
650.837	5.46
651.165	5.55
651.494	5.5
651.822	5.47
652.151	5.28
652.479	5.62
652.808	5.45
653.136	5.21
653.465	5.13
653.793	5.16
654.121	5.69
654.449	5.32
654.777	5.06
655.105	5.13
655.433	5.83
655.761	5.68
656.089	5.44
656.417	5.92
656.745	5.89
657.073	4.9
657.4	5.4
657.728	5.33
658.056	5.78
658.383	5.35
658.711	5.89
659.038	5.21
659.365	5.66
659.693	5.33
660.02	5.4
660.347	5.3
660.674	5.37
661.001	5.6
661.329	5.3
661.656	5.19
661.982	5.48
662.309	5.36
662.636	5.37
662.963	5.33
663.29	5.68
663.616	5.66
663.943	5.25
664.27	5.42
664.596	5.01
664.923	5.92
665.249	5.2
665.576	5.22
665.902	5.64
666.228	5.74
666.554	5.57
666.881	5.18
667.207	5.56
667.533	5.25
667.859	5.63
668.185	5.6
668.511	5.77
668.837	5.42
669.162	5.14
669.488	5.16
669.814	5.85
670.139	4.93
670.465	6.08
670.791	5.11
671.116	5.44
671.442	4.9
671.767	5.38
672.092	5.34
672.418	5.46
672.743	5.75
673.068	5.13
673.393	5.11
673.718	5.06
674.043	5.21
674.368	5.36
674.693	5.56
675.018	5.92
675.343	5.64
675.667	5.3
675.992	5.69
676.317	4.97
676.641	5.83
676.966	5.54
677.29	5.46
677.615	4.95
677.939	5.27
678.264	5.09
678.588	5.92
678.912	6.25
679.236	5.07
679.56	5.09
679.885	5.19
680.209	5.43
680.532	5.9
680.856	5.35
681.18	5.88
681.504	5.2
681.828	5.44
682.152	5.53
682.475	5.84
682.799	4.83
683.122	5.41
683.446	5.27
683.769	5.71
684.093	5.68
684.416	5.37
684.739	5.75
685.062	5.64
685.386	6.05
685.709	5.87
686.032	5.55
686.355	5.56
686.678	5.56
687.001	5.35
687.324	5.51
687.646	5.45
687.969	5.46
688.292	5.47
688.614	5.52
688.937	5.75
689.26	6.41
689.582	6.01
689.904	6.21
690.227	5.42
690.549	5.87
690.871	5.12
691.194	5.19
691.516	5.58
