Data from 0006_crown_Reflection__2__399.txt Node

Date: Thu Dec 15 19:41:16 CST 2022
User: ToomeyLab
Spectrometer: FLMS14357
Trigger mode: 0
Integration Time (sec): 1.000000E-2
Scans to average: 100
Electric dark correction enabled: true
Nonlinearity correction enabled: false
Boxcar width: 0
XAxis mode: Wavelengths
Number of Pixels in Spectrum: 2048
>>>>>Begin Spectral Data<<<<<
189.047	196.07
189.435	196.07
189.823	196.07
190.211	-1319.94
190.599	12.67
190.987	-2023.08
191.375	110.5
191.763	31.06
192.151	406.1
192.538	-689.6
192.926	91.62
193.314	218.87
193.702	268.32
194.089	155.05
194.477	37.48
194.864	108.38
195.252	40.05
195.639	52.98
196.027	163.08
196.414	680.14
196.801	28.92
197.189	31.1
197.576	-37.18
197.963	294.08
198.351	12.37
198.738	-50.54
199.125	-80.02
199.512	14.35
199.899	-24.31
200.286	-152.44
200.673	32.2
201.06	-22.12
201.447	-27.61
201.833	-15.55
202.22	-30.07
202.607	-21.92
202.994	-42.01
203.38	71.49
203.767	-51.95
204.154	7.43
204.54	22.19
204.927	18.7
205.313	7.23
205.699	-1.77
206.086	23.21
206.472	43.23
206.858	-0.38
207.245	-6.61
207.631	-18.86
208.017	10.16
208.403	-41.93
208.789	-18.9
209.175	-33.7
209.561	-57.84
209.947	-1.73
210.333	-24.51
210.719	7.23
211.105	20.51
211.491	-33.17
211.876	-38.39
212.262	4.95
212.648	-2.79
213.034	3.69
213.419	18.2
213.805	-26.93
214.19	-13.19
214.576	-25.3
214.961	-39.6
215.346	-35.25
215.732	-9.2
216.117	-13.85
216.502	-0.22
216.888	-11.86
217.273	-32.12
217.658	-48.25
218.043	-46.11
218.428	-33.02
218.813	-0.01
219.198	-0.48
219.583	-23.99
219.968	-22.62
220.353	-32.54
220.738	-7.25
221.122	-17.89
221.507	-12.94
221.892	-23.43
222.276	-28.21
222.661	1.32
223.046	-22.01
223.43	6.85
223.815	0.19
224.199	4.72
224.583	-11.01
224.968	-3.29
225.352	-5.38
225.736	4.24
226.121	0.08
226.505	-12.05
226.889	-1.91
227.273	-1.63
227.657	2.1
228.041	2.66
228.425	3.18
228.809	1.8
229.193	5.43
229.577	5.02
229.961	4.48
230.344	5.41
230.728	5.68
231.112	6.02
231.495	3.79
231.879	3.51
232.263	3.77
232.646	3.85
233.03	5.13
233.413	5.03
233.797	3.3
234.18	1.96
234.563	3.05
234.946	1.22
235.33	3.47
235.713	5.63
236.096	4.88
236.479	4.82
236.862	2.4
237.245	2.95
237.628	4.6
238.011	4.92
238.394	3.97
238.777	4.68
239.16	5.85
239.543	5.25
239.925	4.64
240.308	2.35
240.691	4.04
241.073	2.95
241.456	4.68
241.838	4.64
242.221	4.59
242.603	5.77
242.986	4.57
243.368	5.01
243.75	4.69
244.133	5
244.515	4.78
244.897	4.62
245.279	4.41
245.661	5.1
246.043	4.96
246.425	5.01
246.807	4.89
247.189	4.58
247.571	4.12
247.953	4.91
248.335	4.42
248.717	4.65
249.098	4.81
249.48	4.65
249.862	4.71
250.243	4.76
250.625	4.92
251.006	5.1
251.388	3.83
251.769	5.3
252.151	4.51
252.532	3.48
252.913	4.24
253.295	4.04
253.676	5.24
254.057	4.68
254.438	4.91
254.819	4.27
255.2	4.22
255.581	4.41
255.962	4.1
256.343	4.21
256.724	5.06
257.105	4.37
257.486	3.24
257.867	4.03
258.247	4.35
258.628	4.63
259.009	3.56
259.389	3.61
259.77	3.97
260.15	4.83
260.531	4.55
260.911	4.37
261.292	4.44
261.672	4.45
262.052	4.57
262.432	4.11
262.813	4.23
263.193	4.19
263.573	4.13
263.953	4.41
264.333	4.63
264.713	4.65
265.093	4.08
265.473	4.67
265.853	4.69
266.233	4.31
266.612	3.33
266.992	4.06
267.372	4.39
267.752	4.22
268.131	4.44
268.511	4.31
268.89	4.58
269.27	3.81
269.649	3.83
270.029	4.02
270.408	3.92
270.787	4.26
271.167	4.22
271.546	4.75
271.925	4.61
272.304	4.29
272.683	3.95
273.062	4.33
273.441	3.89
273.82	4.34
274.199	4.08
274.578	4.33
274.957	4.01
275.336	4.33
275.715	4.52
276.093	4.28
276.472	4.12
276.851	4.08
277.229	4.03
277.608	3.63
277.986	4.35
278.365	4.38
278.743	4.54
279.122	3.53
279.5	4.11
279.878	3.65
280.257	4.06
280.635	3.91
281.013	3.61
281.391	4.15
281.769	4.17
282.147	3.93
282.525	3.36
282.903	3.8
283.281	4.1
283.659	4.06
284.037	3.84
284.415	4.05
284.792	4.04
285.17	3.83
285.548	3.72
285.925	4.03
286.303	4.39
286.68	3.96
287.058	3.88
287.435	3.85
287.813	4.09
288.19	3.57
288.567	3.84
288.945	3.67
289.322	3.86
289.699	3.82
290.076	3.91
290.453	3.56
290.83	4.23
291.207	3.97
291.584	4.06
291.961	3.87
292.338	3.77
292.715	3.53
293.092	4.16
293.469	3.69
293.845	3.98
294.222	3.63
294.599	3.6
294.975	3.3
295.352	3.68
295.728	4.15
296.105	3.94
296.481	4.22
296.858	3.81
297.234	3.68
297.61	3.91
297.986	4.42
298.363	3.95
298.739	4
299.115	4.04
299.491	3.99
299.867	3.51
300.243	3.83
300.619	3.31
300.995	3.74
301.371	3.98
301.746	3.88
302.122	3.35
302.498	3.38
302.874	3.85
303.249	3.33
303.625	3.37
304	3.75
304.376	3.83
304.751	3.91
305.127	3.66
305.502	3.58
305.878	3.44
306.253	3.32
306.628	3.44
307.003	3.06
307.378	3.59
307.754	4.03
308.129	3.3
308.504	3.74
308.879	3.5
309.254	3.74
309.629	3.21
310.003	3.62
310.378	3.87
310.753	3.86
311.128	3.41
311.502	3.52
311.877	3.48
312.252	3.53
312.626	3.73
313.001	3.95
313.375	3.67
313.75	3.83
314.124	3.82
314.498	3.99
314.873	3.57
315.247	3.46
315.621	2.88
315.995	3.49
316.369	3.35
316.743	3.56
317.117	3.31
317.491	3.24
317.865	3.07
318.239	3.55
318.613	3.24
318.987	2.78
319.361	3.48
319.734	3.05
320.108	3.48
320.482	3.77
320.855	3.42
321.229	3.36
321.602	3.26
321.976	3.18
322.349	4.02
322.723	3.49
323.096	3.62
323.469	3.58
323.843	3.16
324.216	3.29
324.589	3.05
324.962	3.03
325.335	3.66
325.708	3.29
326.081	3.13
326.454	3.45
326.827	3.35
327.2	3.11
327.573	3.41
327.945	3.12
328.318	3.27
328.691	3.59
329.063	3.13
329.436	2.81
329.809	3.46
330.181	3.95
330.553	3.28
330.926	4.05
331.298	3.23
331.671	3.84
332.043	3.37
332.415	3.45
332.787	3.55
333.159	3.29
333.532	3.53
333.904	3.74
334.276	3.06
334.648	3.62
335.02	3.11
335.391	2.97
335.763	3.01
336.135	3.56
336.507	3.33
336.879	3.41
337.25	3.31
337.622	3.58
337.993	3.27
338.365	3.55
338.736	3.42
339.108	3.48
339.479	3.29
339.851	3.41
340.222	3.73
340.593	3.69
340.964	3.51
341.336	2.74
341.707	3.46
342.078	3.21
342.449	3.48
342.82	3.44
343.191	3.46
343.562	3.56
343.933	3.3
344.303	3.34
344.674	3.14
345.045	3.46
345.416	3.5
345.786	3.38
346.157	3.7
346.527	3.31
346.898	2.86
347.268	3.48
347.639	3.38
348.009	3.62
348.38	3.27
348.75	3.32
349.12	3.57
349.49	3.47
349.861	3.5
350.231	3.24
350.601	3.36
350.971	3.4
351.341	3.55
351.711	3.28
352.081	3.11
352.45	3.01
352.82	3.01
353.19	3.29
353.56	3.3
353.929	3.28
354.299	3.84
354.669	3.67
355.038	3.77
355.408	3.35
355.777	3.59
356.147	3.51
356.516	3.29
356.885	3.42
357.254	3.22
357.624	3.02
357.993	3.38
358.362	3.27
358.731	3.67
359.1	3.68
359.469	3.69
359.838	3.29
360.207	3.27
360.576	3.65
360.945	3.5
361.314	3.49
361.682	3.42
362.051	3.6
362.42	3.72
362.788	3.65
363.157	3.42
363.525	3.7
363.894	3.38
364.262	3.55
364.631	3.72
364.999	3.4
365.367	3.45
365.735	3.45
366.104	3.63
366.472	3.45
366.84	3.54
367.208	3.58
367.576	3.57
367.944	3.81
368.312	3.52
368.68	4.1
369.048	3.6
369.416	3.81
369.783	3.46
370.151	4.08
370.519	3.75
370.886	3.65
371.254	3.99
371.621	3.99
371.989	3.7
372.356	3.67
372.724	3.46
373.091	3.5
373.458	3.58
373.826	3.65
374.193	3.63
374.56	3.6
374.927	3.7
375.294	3.87
375.661	3.63
376.028	3.7
376.395	3.77
376.762	3.54
377.129	3.49
377.496	3.55
377.863	3.73
378.229	3.83
378.596	3.99
378.963	3.91
379.329	3.93
379.696	3.62
380.062	3.73
380.429	3.48
380.795	3.83
381.161	3.68
381.528	3.61
381.894	3.69
382.26	3.73
382.626	3.79
382.993	3.88
383.359	3.44
383.725	3.55
384.091	3.88
384.457	3.66
384.823	3.56
385.188	3.68
385.554	3.87
385.92	3.56
386.286	3.79
386.651	3.82
387.017	4.09
387.383	3.56
387.748	3.71
388.114	4.03
388.479	3.83
388.845	3.77
389.21	4.22
389.575	3.79
389.94	3.95
390.306	3.77
390.671	3.67
391.036	3.94
391.401	3.96
391.766	3.92
392.131	3.87
392.496	3.81
392.861	3.76
393.226	3.89
393.591	4
393.956	4.03
394.32	3.96
394.685	3.73
395.05	3.87
395.414	3.67
395.779	3.98
396.143	3.94
396.508	3.81
396.872	3.86
397.236	4.13
397.601	3.82
397.965	3.77
398.329	3.91
398.694	3.87
399.058	3.89
399.422	3.97
399.786	3.83
400.15	3.86
400.514	4.13
400.878	4.1
401.242	3.99
401.605	3.93
401.969	3.85
402.333	3.63
402.697	4.11
403.06	3.83
403.424	4.05
403.787	3.97
404.151	3.77
404.514	4.08
404.878	3.82
405.241	3.88
405.604	3.84
405.968	3.99
406.331	4.26
406.694	3.9
407.057	3.93
407.42	3.78
407.783	4.16
408.146	3.96
408.509	4.07
408.872	3.92
409.235	3.98
409.598	4
409.961	4.32
410.323	3.95
410.686	4.06
411.049	3.91
411.411	3.85
411.774	3.88
412.136	4.04
412.499	4.22
412.861	3.66
413.223	3.92
413.586	4.03
413.948	3.98
414.31	4.03
414.672	4.09
415.035	4.04
415.397	3.96
415.759	3.89
416.121	4.14
416.483	3.95
416.845	3.89
417.206	4.06
417.568	4.14
417.93	4.14
418.292	3.97
418.653	3.86
419.015	4.05
419.377	3.98
419.738	4.29
420.1	4.05
420.461	3.93
420.822	4.02
421.184	4.09
421.545	4.1
421.906	4.06
422.267	4.05
422.629	4.01
422.99	4.03
423.351	4.02
423.712	4.05
424.073	4.04
424.434	4.19
424.795	4.05
425.155	4.03
425.516	3.98
425.877	4.05
426.238	3.99
426.598	4.03
426.959	4.11
427.32	3.99
427.68	4.04
428.041	4.16
428.401	4
428.761	4.19
429.122	4.24
429.482	4.19
429.842	4.11
430.202	4.29
430.563	4.05
430.923	4.19
431.283	4.15
431.643	4.2
432.003	3.97
432.363	4.16
432.722	4.08
433.082	4.08
433.442	4.27
433.802	4.04
434.161	4.17
434.521	4.14
434.881	4.29
435.24	4.17
435.6	4.28
435.959	4.21
436.319	4.08
436.678	4.24
437.037	4.26
437.396	4.11
437.756	4.15
438.115	4.3
438.474	4.16
438.833	4.12
439.192	4.26
439.551	4.14
439.91	4.23
440.269	4.23
440.628	4.13
440.987	4.25
441.345	4.19
441.704	4.21
442.063	4.11
442.421	4.23
442.78	4.14
443.138	4.11
443.497	4.22
443.855	4.22
444.214	4.19
444.572	4.39
444.93	4.06
445.288	4.18
445.647	4.14
446.005	4.08
446.363	4.19
446.721	4.22
447.079	4.19
447.437	4.2
447.795	4.23
448.153	4.21
448.51	4.31
448.868	4.16
449.226	4.19
449.584	4.22
449.941	4.18
450.299	4.17
450.656	4.26
451.014	4.35
451.371	4.27
451.729	4.29
452.086	4.26
452.443	4.24
452.801	4.35
453.158	4.37
453.515	4.21
453.872	4.26
454.229	4.24
454.586	4.22
454.943	4.29
455.3	4.25
455.657	4.27
456.014	4.31
456.371	4.33
456.727	4.27
457.084	4.37
457.441	4.36
457.797	4.21
458.154	4.47
458.51	4.24
458.867	4.3
459.223	4.18
459.58	4.15
459.936	4.32
460.292	4.22
460.648	4.2
461.005	4.25
461.361	4.22
461.717	4.2
462.073	4.31
462.429	4.36
462.785	4.4
463.141	4.37
463.496	4.39
463.852	4.49
464.208	4.32
464.564	4.34
464.919	4.28
465.275	4.33
465.631	4.48
465.986	4.53
466.342	4.26
466.697	4.41
467.052	4.56
467.408	4.49
467.763	4.26
468.118	4.32
468.473	4.44
468.829	4.2
469.184	4.42
469.539	4.31
469.894	4.46
470.249	4.45
470.603	4.49
470.958	4.39
471.313	4.46
471.668	4.5
472.023	4.41
472.377	4.36
472.732	4.52
473.086	4.45
473.441	4.46
473.795	4.62
474.15	4.37
474.504	4.39
474.859	4.28
475.213	4.38
475.567	4.24
475.921	4.47
476.275	4.51
476.63	4.49
476.984	4.25
477.338	4.51
477.692	4.36
478.045	4.46
478.399	4.33
478.753	4.42
479.107	4.47
479.461	4.46
479.814	4.29
480.168	4.35
480.521	4.47
480.875	4.34
481.228	4.41
481.582	4.46
481.935	4.56
482.289	4.4
482.642	4.5
482.995	4.41
483.348	4.37
483.701	4.44
484.055	4.37
484.408	4.39
484.761	4.26
485.114	4.17
485.466	4.13
485.819	4.17
486.172	4.19
486.525	4.28
486.878	4.35
487.23	4.39
487.583	4.41
487.936	4.34
488.288	4.29
488.641	4.24
488.993	4.26
489.345	4.25
489.698	4.23
490.05	4.27
490.402	4.26
490.754	4.35
491.107	4.32
491.459	4.41
491.811	4.45
492.163	4.45
492.515	4.35
492.866	4.27
493.218	4.24
493.57	4.34
493.922	4.35
494.274	4.44
494.625	4.49
494.977	4.51
495.328	4.56
495.68	4.44
496.031	4.48
496.383	4.59
496.734	4.42
497.086	4.53
497.437	4.62
497.788	4.63
498.139	4.55
498.49	4.47
498.842	4.52
499.193	4.41
499.544	4.51
499.894	4.57
500.245	4.57
500.596	4.56
500.947	4.47
501.298	4.42
501.648	4.58
501.999	4.59
502.35	4.37
502.7	4.6
503.051	4.42
503.401	4.55
503.752	4.39
504.102	4.46
504.452	4.42
504.803	4.54
505.153	4.64
505.503	4.5
505.853	4.56
506.203	4.63
506.553	4.53
506.903	4.5
507.253	4.61
507.603	4.63
507.953	4.5
508.303	4.55
508.652	4.47
509.002	4.66
509.352	4.67
509.701	4.42
510.051	4.65
510.4	4.6
510.75	4.52
511.099	4.45
511.449	4.66
511.798	4.53
512.147	4.54
512.496	4.58
512.846	4.56
513.195	4.66
513.544	4.62
513.893	4.61
514.242	4.51
514.591	4.45
514.939	4.68
515.288	4.62
515.637	4.53
515.986	4.68
516.334	4.74
516.683	4.51
517.032	4.63
517.38	4.58
517.729	4.64
518.077	4.6
518.426	4.62
518.774	4.55
519.122	4.54
519.47	4.54
519.819	4.55
520.167	4.49
520.515	4.6
520.863	4.57
521.211	4.55
521.559	4.59
521.907	4.64
522.255	4.52
522.602	4.71
522.95	4.68
523.298	4.74
523.645	4.66
523.993	4.61
524.341	4.68
524.688	4.62
525.036	4.64
525.383	4.61
525.73	4.61
526.078	4.72
526.425	4.68
526.772	4.62
527.119	4.58
527.466	4.6
527.814	4.47
528.161	4.61
528.508	4.66
528.854	4.58
529.201	4.61
529.548	4.51
529.895	4.42
530.242	4.39
530.588	4.44
530.935	4.43
531.282	4.51
531.628	4.6
531.975	4.56
532.321	4.66
532.667	4.64
533.014	4.63
533.36	4.65
533.706	4.61
534.052	4.66
534.399	4.58
534.745	4.51
535.091	4.5
535.437	4.6
535.783	4.55
536.129	4.52
536.474	4.64
536.82	4.67
537.166	4.63
537.512	4.68
537.857	4.53
538.203	4.61
538.549	4.58
538.894	4.7
539.239	4.73
539.585	4.7
539.93	4.72
540.276	4.66
540.621	4.71
540.966	4.7
541.311	4.7
541.656	4.56
542.001	4.69
542.346	4.57
542.691	4.48
543.036	4.54
543.381	4.54
543.726	4.63
544.071	4.6
544.415	4.67
544.76	4.55
545.105	4.65
545.449	4.67
545.794	4.67
546.138	4.72
546.483	4.75
546.827	4.66
547.171	4.67
547.516	4.72
547.86	4.74
548.204	4.82
548.548	4.69
548.892	4.78
549.236	4.78
549.58	4.84
549.924	4.83
550.268	4.82
550.612	4.83
550.956	4.86
551.3	4.95
551.643	4.81
551.987	4.97
552.33	4.92
552.674	4.69
553.017	4.83
553.361	4.79
553.704	4.81
554.048	4.76
554.391	4.95
554.734	4.67
555.077	4.84
555.42	4.59
555.764	4.72
556.107	4.79
556.45	4.69
556.793	4.92
557.135	4.87
557.478	4.8
557.821	4.97
558.164	4.83
558.507	4.7
558.849	4.79
559.192	4.88
559.534	4.77
559.877	4.83
560.219	4.71
560.562	4.64
560.904	4.95
561.246	4.86
561.589	5.02
561.931	5.05
562.273	4.83
562.615	4.79
562.957	4.74
563.299	4.76
563.641	4.65
563.983	4.65
564.325	4.82
564.667	4.7
565.008	4.74
565.35	4.72
565.692	4.87
566.033	4.76
566.375	4.81
566.716	4.68
567.058	4.74
567.399	4.87
567.741	4.85
568.082	4.89
568.423	4.65
568.764	4.79
569.105	4.73
569.447	4.64
569.788	4.79
570.129	4.83
570.47	4.86
570.811	4.81
571.151	4.89
571.492	4.86
571.833	4.88
572.174	4.79
572.514	4.71
572.855	4.98
573.195	4.77
573.536	4.8
573.876	4.63
574.217	4.84
574.557	4.74
574.898	4.71
575.238	4.85
575.578	4.96
575.918	4.79
576.258	4.94
576.598	4.98
576.938	4.81
577.278	4.8
577.618	4.87
577.958	4.78
578.298	4.79
578.638	4.84
578.977	4.84
579.317	4.74
579.657	4.76
579.996	5.05
580.336	5.05
580.675	4.76
581.014	4.88
581.354	4.81
581.693	4.87
582.032	4.96
582.372	4.9
582.711	5.02
583.05	4.84
583.389	5.14
583.728	4.87
584.067	4.64
584.406	5
584.745	4.84
585.083	4.72
585.422	5.01
585.761	5.05
586.1	4.91
586.438	4.67
586.777	4.88
587.115	4.97
587.454	4.66
587.792	4.89
588.13	4.79
588.469	4.82
588.807	4.87
589.145	4.98
589.483	4.66
589.821	4.76
590.159	4.91
590.497	4.9
590.835	4.89
591.173	4.93
591.511	5.04
591.849	4.82
592.187	4.98
592.524	5.06
592.862	4.65
593.2	5.15
593.537	4.92
593.875	4.81
594.212	4.95
594.55	4.97
594.887	4.96
595.224	5.06
595.561	4.94
595.899	4.87
596.236	4.85
596.573	4.67
596.91	4.72
597.247	4.98
597.584	4.93
597.921	4.87
598.258	5
598.594	4.89
598.931	4.77
599.268	4.72
599.604	4.82
599.941	4.96
600.277	4.86
600.614	4.79
600.95	4.61
601.287	4.67
601.623	4.35
601.959	5.17
602.296	4.88
602.632	4.69
602.968	4.72
603.304	5.06
603.64	4.93
603.976	4.68
604.312	4.82
604.648	4.77
604.984	4.93
605.319	4.68
605.655	4.68
605.991	4.94
606.326	4.86
606.662	4.64
606.998	4.91
607.333	4.87
607.668	4.78
608.004	4.79
608.339	4.51
608.674	4.95
609.01	5.19
609.345	4.74
609.68	4.52
610.015	4.78
610.35	4.89
610.685	4.58
611.02	4.76
611.355	4.73
611.689	4.86
612.024	4.88
612.359	4.93
612.694	5.03
613.028	5.03
613.363	4.73
613.697	4.69
614.032	4.72
614.366	4.68
614.7	5.01
615.035	4.82
615.369	4.88
615.703	4.84
616.037	4.89
616.371	4.5
616.705	4.81
617.039	4.68
617.373	4.96
617.707	4.79
618.041	4.7
618.375	4.56
618.709	4.98
619.042	4.72
619.376	4.86
619.71	4.23
620.043	5.16
620.377	4.91
620.71	4.92
621.043	5.14
621.377	5.01
621.71	4.93
622.043	4.99
622.376	4.69
622.709	5.32
623.043	4.74
623.376	4.49
623.709	5.21
624.041	5.14
624.374	5.09
624.707	5.01
625.04	4.73
625.373	4.68
625.705	4.93
626.038	4.83
626.37	4.79
626.703	4.86
627.035	4.92
627.368	4.94
627.7	5.02
628.032	4.85
628.365	5.17
628.697	4.98
629.029	4.89
629.361	5.33
629.693	5.02
630.025	4.93
630.357	5.11
630.689	4.88
631.021	5.01
631.353	5.04
631.684	4.98
632.016	4.61
632.348	4.82
632.679	5.05
633.011	5.02
633.342	5.08
633.674	5.12
634.005	5.12
634.336	5
634.668	4.97
634.999	4.85
635.33	5.2
635.661	4.85
635.992	4.61
636.323	5.03
636.654	4.76
636.985	4.61
637.316	4.89
637.647	5.02
637.977	4.82
638.308	5.11
638.639	5.01
638.969	4.5
639.3	4.96
639.63	4.7
639.961	4.9
640.291	4.65
640.622	5.08
640.952	5.13
641.282	4.77
641.612	4.77
641.943	4.31
642.273	4.7
642.603	4.93
642.933	5.02
643.263	4.91
643.592	5.04
643.922	5.05
644.252	5.12
644.582	4.78
644.911	5.1
645.241	4.63
645.571	5.12
645.9	5
646.23	5.17
646.559	4.33
646.888	5.09
647.218	4.8
647.547	4.58
647.876	4.87
648.205	4.38
648.534	4.75
648.863	4.45
649.192	4.68
649.521	5.04
649.85	5.21
650.179	4.98
650.508	4.87
650.837	5.11
651.165	4.65
651.494	5.06
651.822	5.15
652.151	4.99
652.479	4.77
652.808	4.97
653.136	4.53
653.465	4.51
653.793	4.75
654.121	4.9
654.449	4.47
654.777	4.43
655.105	4.55
655.433	4.54
655.761	5.15
656.089	4.76
656.417	5.59
656.745	4.96
657.073	4.93
657.4	5.03
657.728	4.83
658.056	5.23
658.383	4.67
658.711	5.18
659.038	4.94
659.365	5.15
659.693	5.09
660.02	5.04
660.347	4.94
660.674	4.97
661.001	4.98
661.329	4.99
661.656	4.92
661.982	4.8
662.309	5
662.636	4.94
662.963	5.32
663.29	4.96
663.616	5.03
663.943	4.95
664.27	5.22
664.596	4.62
664.923	5.11
665.249	5.34
665.576	4.84
665.902	4.3
666.228	5.09
666.554	5.75
666.881	4.62
667.207	5.1
667.533	4.99
667.859	4.79
668.185	5.47
668.511	5.63
668.837	4.57
669.162	5.15
669.488	4.71
669.814	4.93
670.139	4.53
670.465	5.24
670.791	5.02
671.116	4.8
671.442	4.49
671.767	4.93
672.092	5.13
672.418	4.78
672.743	4.98
673.068	4.32
673.393	5.11
673.718	4.52
674.043	4.81
674.368	4.97
674.693	4.78
675.018	5.35
675.343	5.35
675.667	4.64
675.992	5.49
676.317	4.7
676.641	5.43
676.966	5.38
677.29	4.67
677.615	4.23
677.939	5.45
678.264	4.31
678.588	5.04
678.912	4.8
679.236	4.61
679.56	4.49
679.885	4.65
680.209	4.86
680.532	5.12
680.856	5.29
681.18	5.73
681.504	4.94
681.828	4.48
682.152	5.04
682.475	5.41
682.799	4.58
683.122	5.06
683.446	4.47
683.769	5.11
684.093	5.01
684.416	4.5
684.739	4.78
685.062	4.89
685.386	5.26
685.709	4.67
686.032	4.96
686.355	5.11
686.678	5.37
687.001	4.56
687.324	4.54
687.646	4.88
687.969	5.4
688.292	5.01
688.614	5.63
688.937	5.63
689.26	5.11
689.582	4.95
689.904	4.96
690.227	5.1
690.549	5.47
690.871	5.02
691.194	4.31
