Data from 0062_chest_Reflection__4__197.txt Node

Date: Fri Dec 16 15:32:44 CST 2022
User: ToomeyLab
Spectrometer: FLMS14357
Trigger mode: 0
Integration Time (sec): 1.000000E-2
Scans to average: 100
Electric dark correction enabled: true
Nonlinearity correction enabled: false
Boxcar width: 0
XAxis mode: Wavelengths
Number of Pixels in Spectrum: 2048
>>>>>Begin Spectral Data<<<<<
189.047	-34.56
189.435	-34.56
189.823	-34.56
190.211	161.96
190.599	-107.71
190.987	37.25
191.375	58.98
191.763	1084.01
192.151	88.55
192.538	42.56
192.926	-61.4
193.314	218.15
193.702	164.56
194.089	145.96
194.477	-175.67
194.864	-318.15
195.252	114.84
195.639	63
196.027	70.87
196.414	-97.13
196.801	-315.93
197.189	86.96
197.576	135.6
197.963	-283.26
198.351	10.21
198.738	-2.28
199.125	44.08
199.512	-26.25
199.899	-7.55
200.286	-81
200.673	1
201.06	22.09
201.447	2.04
201.833	-19.99
202.22	24
202.607	-12.33
202.994	0.88
203.38	-122.19
203.767	-41.66
204.154	-35.33
204.54	23.76
204.927	25.07
205.313	47.22
205.699	-29.13
206.086	-17.25
206.472	14.03
206.858	28.52
207.245	7.31
207.631	-13.75
208.017	11.18
208.403	28.53
208.789	16.24
209.175	31.02
209.561	18.8
209.947	2.46
210.333	-15.87
210.719	-14.76
211.105	-33.95
211.491	-22.67
211.876	-45.27
212.262	-83.39
212.648	-6.78
213.034	-0.6
213.419	26.66
213.805	4.48
214.19	-17.42
214.576	-11.84
214.961	-13.68
215.346	-91.68
215.732	-5.19
216.117	-14.58
216.502	-16.99
216.888	-15.39
217.273	0.65
217.658	-8.86
218.043	-14.54
218.428	-1.65
218.813	-36.37
219.198	-44.47
219.583	6.89
219.968	-10.14
220.353	-8.16
220.738	-26.88
221.122	-7.99
221.507	-2.82
221.892	-9.07
222.276	8.65
222.661	-2.16
223.046	11.37
223.43	-6.09
223.815	-2.6
224.199	5.47
224.583	-2.08
224.968	6.02
225.352	-6.75
225.736	9.84
226.121	-2.35
226.505	-3.44
226.889	7.01
227.273	2.83
227.657	4.3
228.041	2.48
228.425	4.96
228.809	3.39
229.193	1.23
229.577	2.88
229.961	3.68
230.344	3.3
230.728	3.59
231.112	3.24
231.495	2.42
231.879	4.23
232.263	3.11
232.646	1.96
233.03	-0.04
233.413	1.62
233.797	6.34
234.18	3.3
234.563	1.49
234.946	2.04
235.33	4.91
235.713	3.26
236.096	2.92
236.479	3.31
236.862	4.46
237.245	1.39
237.628	3.24
238.011	3.64
238.394	4.47
238.777	4
239.16	1.08
239.543	1.7
239.925	4.97
240.308	2.42
240.691	4.61
241.073	2.5
241.456	1.96
241.838	3.14
242.221	3.21
242.603	4.03
242.986	3.63
243.368	3.2
243.75	2.93
244.133	3.33
244.515	3.3
244.897	2.62
245.279	2.82
245.661	3.7
246.043	3.41
246.425	2.2
246.807	2.5
247.189	2.73
247.571	3.37
247.953	3.25
248.335	3.2
248.717	3.36
249.098	3.56
249.48	2.95
249.862	3.19
250.243	3.17
250.625	2.93
251.006	3.21
251.388	3.14
251.769	3.69
252.151	3.05
252.532	2.9
252.913	3.25
253.295	3.35
253.676	3.19
254.057	2.73
254.438	2.7
254.819	2.77
255.2	2.68
255.581	2.92
255.962	2.56
256.343	3.26
256.724	1.53
257.105	3.43
257.486	2.54
257.867	1.5
258.247	2.84
258.628	4.09
259.009	3.28
259.389	3.97
259.77	3.19
260.15	3.59
260.531	3.15
260.911	2.89
261.292	3.02
261.672	3.06
262.052	3.2
262.432	2.5
262.813	3.12
263.193	2.37
263.573	3.1
263.953	2.92
264.333	3.12
264.713	2.66
265.093	2.24
265.473	3.87
265.853	2.83
266.233	1.93
266.612	3.08
266.992	2.46
267.372	3.29
267.752	2.8
268.131	2.93
268.511	3.19
268.89	3.45
269.27	2.79
269.649	2.72
270.029	2.81
270.408	2.66
270.787	2.35
271.167	2.84
271.546	2.26
271.925	3.01
272.304	2.7
272.683	2.62
273.062	3.14
273.441	2.82
273.82	3.3
274.199	3.04
274.578	2.97
274.957	2.47
275.336	2.52
275.715	3.28
276.093	3.56
276.472	2.59
276.851	2.9
277.229	3.29
277.608	2.77
277.986	2.63
278.365	3.15
278.743	2.85
279.122	2.37
279.5	2.19
279.878	2.27
280.257	3.2
280.635	2.21
281.013	2.62
281.391	2.86
281.769	2.64
282.147	2.74
282.525	2.8
282.903	3
283.281	2.6
283.659	2.59
284.037	2.68
284.415	2.73
284.792	2.94
285.17	2.25
285.548	2.31
285.925	2.85
286.303	2.33
286.68	2.97
287.058	2.6
287.435	2.68
287.813	2.64
288.19	2.96
288.567	2.65
288.945	2.73
289.322	2.36
289.699	2.59
290.076	2.89
290.453	2.51
290.83	2.65
291.207	2.31
291.584	2.86
291.961	2.86
292.338	2.84
292.715	2.33
293.092	2.53
293.469	2.73
293.845	3
294.222	2.51
294.599	3.14
294.975	2.96
295.352	2.46
295.728	2.63
296.105	2.64
296.481	3.46
296.858	3.14
297.234	2.96
297.61	2.65
297.986	2.84
298.363	2.5
298.739	2.7
299.115	2.29
299.491	2.83
299.867	2.65
300.243	2.59
300.619	2.93
300.995	2.98
301.371	3.12
301.746	2.63
302.122	2.95
302.498	3
302.874	3.13
303.249	2.85
303.625	2.57
304	2.69
304.376	2.72
304.751	2.84
305.127	2.66
305.502	3.07
305.878	2.53
306.253	2.31
306.628	2.9
307.003	2.65
307.378	2.64
307.754	2.72
308.129	2.62
308.504	2.75
308.879	3.12
309.254	2.96
309.629	2.86
310.003	3.09
310.378	2.7
310.753	3.01
311.128	2.79
311.502	2.5
311.877	2.71
312.252	2.84
312.626	2.7
313.001	2.69
313.375	2.53
313.75	2.66
314.124	3.14
314.498	3.39
314.873	2.7
315.247	2.06
315.621	2.91
315.995	2.76
316.369	3.01
316.743	2.9
317.117	2.86
317.491	2.61
317.865	1.83
318.239	3.05
318.613	2.76
318.987	3.07
319.361	2.91
319.734	2.81
320.108	2.81
320.482	2.61
320.855	3.18
321.229	3.62
321.602	2.58
321.976	2.62
322.349	2.72
322.723	2.02
323.096	2.81
323.469	2.52
323.843	2.59
324.216	2.6
324.589	2.68
324.962	3.08
325.335	2.79
325.708	3.21
326.081	3.5
326.454	2.87
326.827	2.94
327.2	2.7
327.573	3.06
327.945	2.59
328.318	2.76
328.691	3.06
329.063	2.12
329.436	3.03
329.809	2.42
330.181	2.81
330.553	3.2
330.926	3.26
331.298	2.55
331.671	3.28
332.043	2.91
332.415	2.48
332.787	3.47
333.159	3.04
333.532	3.01
333.904	2.92
334.276	3.37
334.648	2.89
335.02	2.74
335.391	3.18
335.763	2.88
336.135	2.89
336.507	2.8
336.879	2.97
337.25	2.56
337.622	2.89
337.993	2.99
338.365	3.28
338.736	2.8
339.108	3.12
339.479	3.19
339.851	3.12
340.222	3.14
340.593	2.91
340.964	2.57
341.336	2.91
341.707	3.01
342.078	2.78
342.449	2.75
342.82	2.68
343.191	2.66
343.562	2.93
343.933	3.01
344.303	3.19
344.674	3
345.045	3.35
345.416	2.86
345.786	2.57
346.157	2.92
346.527	2.51
346.898	2.6
347.268	2.92
347.639	2.81
348.009	3
348.38	3.12
348.75	3.39
349.12	2.88
349.49	2.85
349.861	3.3
350.231	3.09
350.601	3.16
350.971	2.98
351.341	2.89
351.711	2.9
352.081	2.75
352.45	2.92
352.82	3.21
353.19	2.8
353.56	2.93
353.929	3.25
354.299	2.98
354.669	2.97
355.038	2.61
355.408	3.18
355.777	2.78
356.147	3.21
356.516	3.36
356.885	2.87
357.254	3.03
357.624	3.03
357.993	2.52
358.362	3.02
358.731	3.14
359.1	3.17
359.469	2.94
359.838	2.96
360.207	2.87
360.576	2.89
360.945	2.87
361.314	3.2
361.682	2.72
362.051	2.7
362.42	2.96
362.788	2.82
363.157	2.88
363.525	2.94
363.894	2.65
364.262	2.8
364.631	3.68
364.999	2.65
365.367	3.29
365.735	2.61
366.104	2.82
366.472	2.98
366.84	3.02
367.208	2.94
367.576	3.14
367.944	2.99
368.312	2.83
368.68	3
369.048	3.32
369.416	3.23
369.783	3
370.151	3.09
370.519	2.74
370.886	2.93
371.254	2.94
371.621	2.99
371.989	2.85
372.356	2.97
372.724	3.18
373.091	3.04
373.458	2.94
373.826	3.11
374.193	3.5
374.56	2.91
374.927	3.13
375.294	3.24
375.661	3.36
376.028	3.25
376.395	2.96
376.762	3.12
377.129	3.26
377.496	2.86
377.863	2.96
378.229	3.04
378.596	3.06
378.963	2.82
379.329	3.24
379.696	3.17
380.062	3.1
380.429	2.99
380.795	2.7
381.161	3.02
381.528	2.69
381.894	3.02
382.26	3.13
382.626	2.92
382.993	3.31
383.359	3.09
383.725	3.24
384.091	2.96
384.457	3.02
384.823	3.08
385.188	3.14
385.554	3.09
385.92	3.31
386.286	3.42
386.651	2.89
387.017	3.21
387.383	3.1
387.748	3.13
388.114	3.05
388.479	3.04
388.845	3.21
389.21	3.59
389.575	3.34
389.94	2.95
390.306	3.11
390.671	3.11
391.036	3.46
391.401	3.52
391.766	3.2
392.131	3.19
392.496	3.18
392.861	3.09
393.226	3.19
393.591	3.1
393.956	3.26
394.32	3.11
394.685	3.22
395.05	3.17
395.414	3.32
395.779	3.1
396.143	3.17
396.508	3.3
396.872	3.32
397.236	2.81
397.601	3.37
397.965	2.9
398.329	3.3
398.694	2.73
399.058	3.26
399.422	3.25
399.786	3.36
400.15	3.15
400.514	3.22
400.878	3.11
401.242	3.22
401.605	3.09
401.969	3.19
402.333	3.29
402.697	3.35
403.06	3.23
403.424	3.24
403.787	3.51
404.151	3.03
404.514	3.32
404.878	3.26
405.241	3.28
405.604	3.42
405.968	3.2
406.331	3.29
406.694	3.26
407.057	3.38
407.42	3.46
407.783	3.19
408.146	3.32
408.509	3.09
408.872	2.9
409.235	3.3
409.598	3.5
409.961	3.05
410.323	3.48
410.686	3.04
411.049	3.02
411.411	3.3
411.774	3.24
412.136	3.37
412.499	3.13
412.861	3.22
413.223	3.57
413.586	3.18
413.948	3.37
414.31	3.51
414.672	3.2
415.035	3.51
415.397	3.49
415.759	3.37
416.121	3.34
416.483	3.51
416.845	3.39
417.206	3.37
417.568	3.34
417.93	3.2
418.292	3.35
418.653	3.47
419.015	3.37
419.377	3.35
419.738	3.26
420.1	3.31
420.461	3.15
420.822	3.27
421.184	3.33
421.545	3.23
421.906	3.22
422.267	3.2
422.629	3.33
422.99	3.28
423.351	3.3
423.712	3.34
424.073	3.44
424.434	3.23
424.795	3.37
425.155	3.25
425.516	3.32
425.877	3.26
426.238	3.3
426.598	3.25
426.959	3.22
427.32	3.47
427.68	3.43
428.041	3.44
428.401	3.23
428.761	3.21
429.122	3.26
429.482	3.45
429.842	3.39
430.202	3.28
430.563	3.36
430.923	3.41
431.283	3.62
431.643	3.41
432.003	3.45
432.363	3.56
432.722	3.32
433.082	3.46
433.442	3.39
433.802	3.41
434.161	3.39
434.521	3.46
434.881	3.55
435.24	3.37
435.6	3.41
435.959	3.45
436.319	3.36
436.678	3.43
437.037	3.53
437.396	3.54
437.756	3.59
438.115	3.4
438.474	3.51
438.833	3.39
439.192	3.61
439.551	3.48
439.91	3.43
440.269	3.48
440.628	3.46
440.987	3.25
441.345	3.32
441.704	3.5
442.063	3.47
442.421	3.5
442.78	3.31
443.138	3.43
443.497	3.4
443.855	3.41
444.214	3.43
444.572	3.4
444.93	3.56
445.288	3.48
445.647	3.39
446.005	3.4
446.363	3.4
446.721	3.37
447.079	3.44
447.437	3.4
447.795	3.42
448.153	3.45
448.51	3.43
448.868	3.46
449.226	3.57
449.584	3.48
449.941	3.52
450.299	3.49
450.656	3.53
451.014	3.52
451.371	3.56
451.729	3.48
452.086	3.52
452.443	3.45
452.801	3.71
453.158	3.66
453.515	3.5
453.872	3.62
454.229	3.45
454.586	3.43
454.943	3.48
455.3	3.62
455.657	3.44
456.014	3.58
456.371	3.53
456.727	3.55
457.084	3.62
457.441	3.41
457.797	3.68
458.154	3.67
458.51	3.54
458.867	3.48
459.223	3.63
459.58	3.62
459.936	3.34
460.292	3.62
460.648	3.44
461.005	3.48
461.361	3.54
461.717	3.59
462.073	3.6
462.429	3.6
462.785	3.52
463.141	3.69
463.496	3.63
463.852	3.77
464.208	3.64
464.564	3.53
464.919	3.67
465.275	3.69
465.631	3.54
465.986	3.67
466.342	3.63
466.697	3.54
467.052	3.65
467.408	3.75
467.763	3.47
468.118	3.66
468.473	3.87
468.829	3.6
469.184	3.71
469.539	3.6
469.894	3.62
470.249	3.51
470.603	3.66
470.958	3.68
471.313	3.45
471.668	3.68
472.023	3.9
472.377	3.58
472.732	3.7
473.086	3.6
473.441	3.76
473.795	3.9
474.15	3.7
474.504	3.7
474.859	3.71
475.213	3.59
475.567	3.53
475.921	3.87
476.275	3.65
476.63	3.78
476.984	3.61
477.338	3.85
477.692	3.64
478.045	3.7
478.399	3.75
478.753	3.58
479.107	3.63
479.461	3.64
479.814	3.71
480.168	3.77
480.521	3.76
480.875	3.84
481.228	3.67
481.582	3.61
481.935	3.59
482.289	3.63
482.642	3.63
482.995	3.62
483.348	3.71
483.701	3.65
484.055	3.67
484.408	3.61
484.761	3.48
485.114	3.45
485.466	3.48
485.819	3.49
486.172	3.57
486.525	3.63
486.878	3.68
487.23	3.7
487.583	3.72
487.936	3.74
488.288	3.62
488.641	3.58
488.993	3.51
489.345	3.61
489.698	3.61
490.05	3.6
490.402	3.67
490.754	3.75
491.107	3.79
491.459	3.78
491.811	3.83
492.163	3.74
492.515	3.71
492.866	3.61
493.218	3.63
493.57	3.67
493.922	3.69
494.274	3.75
494.625	3.8
494.977	3.81
495.328	3.91
495.68	3.91
496.031	3.77
496.383	3.76
496.734	3.92
497.086	3.8
497.437	3.99
497.788	3.79
498.139	3.78
498.49	3.86
498.842	3.83
499.193	3.87
499.544	3.99
499.894	3.92
500.245	3.82
500.596	3.91
500.947	3.82
501.298	3.87
501.648	3.83
501.999	3.96
502.35	4.01
502.7	3.9
503.051	4.07
503.401	4.02
503.752	3.85
504.102	3.89
504.452	3.91
504.803	3.78
505.153	3.98
505.503	3.92
505.853	3.89
506.203	3.97
506.553	4.02
506.903	3.91
507.253	3.95
507.603	3.91
507.953	4.07
508.303	4.02
508.652	3.94
509.002	4
509.352	4.07
509.701	4.01
510.051	4.09
510.4	4.04
510.75	3.91
511.099	3.96
511.449	4.01
511.798	4.16
512.147	4.09
512.496	4.11
512.846	3.94
513.195	4.01
513.544	4.07
513.893	3.94
514.242	4.14
514.591	4.13
514.939	3.98
515.288	4.11
515.637	4.16
515.986	4.04
516.334	4.23
516.683	4.15
517.032	3.99
517.38	4.2
517.729	4.2
518.077	4.17
518.426	4.12
518.774	4.11
519.122	4.04
519.47	4.09
519.819	4.04
520.167	4.05
520.515	4.07
520.863	4.13
521.211	4.03
521.559	4.1
521.907	4.12
522.255	4.33
522.602	4.14
522.95	4.22
523.298	4.26
523.645	4.2
523.993	4.24
524.341	4.25
524.688	4.34
525.036	4.35
525.383	4.25
525.73	4.27
526.078	4.31
526.425	4.22
526.772	4.16
527.119	4.16
527.466	4.2
527.814	4.25
528.161	4.27
528.508	4.23
528.854	4.13
529.201	4.22
529.548	4.13
529.895	4.08
530.242	4.07
530.588	4.14
530.935	4.13
531.282	4.26
531.628	4.24
531.975	4.28
532.321	4.28
532.667	4.36
533.014	4.27
533.36	4.35
533.706	4.36
534.052	4.31
534.399	4.3
534.745	4.28
535.091	4.24
535.437	4.41
535.783	4.44
536.129	4.36
536.474	4.48
536.82	4.5
537.166	4.45
537.512	4.47
537.857	4.47
538.203	4.41
538.549	4.52
538.894	4.42
539.239	4.58
539.585	4.62
539.93	4.6
540.276	4.61
540.621	4.6
540.966	4.59
541.311	4.61
541.656	4.56
542.001	4.58
542.346	4.49
542.691	4.43
543.036	4.44
543.381	4.51
543.726	4.59
544.071	4.61
544.415	4.61
544.76	4.56
545.105	4.64
545.449	4.62
545.794	4.68
546.138	4.74
546.483	4.75
546.827	4.74
547.171	4.75
547.516	4.89
547.86	4.68
548.204	4.72
548.548	4.93
548.892	4.9
549.236	4.89
549.58	4.94
549.924	4.99
550.268	5.02
550.612	5.04
550.956	4.93
551.3	4.97
551.643	4.99
551.987	4.9
552.33	4.82
552.674	4.87
553.017	5.03
553.361	4.98
553.704	5
554.048	5.08
554.391	5.02
554.734	5.04
555.077	5.07
555.42	5.09
555.764	5.07
556.107	5.12
556.45	5.15
556.793	5.23
557.135	5.21
557.478	5.28
557.821	5.13
558.164	5.19
558.507	5.1
558.849	5.06
559.192	5.44
559.534	5.23
559.877	5.53
560.219	5.36
560.562	5.5
560.904	5.53
561.246	5.49
561.589	5.45
561.931	5.68
562.273	5.33
562.615	5.4
562.957	5.56
563.299	5.58
563.641	5.51
563.983	5.45
564.325	5.42
564.667	5.53
565.008	5.43
565.35	5.59
565.692	5.85
566.033	5.67
566.375	5.57
566.716	5.68
567.058	5.66
567.399	5.64
567.741	5.61
568.082	5.64
568.423	5.69
568.764	5.68
569.105	5.84
569.447	5.59
569.788	5.83
570.129	5.88
570.47	5.95
570.811	5.82
571.151	5.8
571.492	5.89
571.833	5.96
572.174	5.82
572.514	5.8
572.855	5.89
573.195	5.81
573.536	5.94
573.876	5.96
574.217	6.02
574.557	6.03
574.898	5.88
575.238	6.03
575.578	6.15
575.918	6.03
576.258	6.02
576.598	6.11
576.938	6.21
577.278	6.06
577.618	6.01
577.958	6.27
578.298	6.26
578.638	6.14
578.977	6.25
579.317	6.47
579.657	6.26
579.996	6.33
580.336	6.26
580.675	6.39
581.014	6.51
581.354	6.42
581.693	6.45
582.032	6.35
582.372	6.49
582.711	6.38
583.05	6.69
583.389	6.45
583.728	6.68
584.067	6.62
584.406	6.87
584.745	6.64
585.083	6.85
585.422	6.45
585.761	6.66
586.1	6.97
586.438	6.82
586.777	6.83
587.115	6.87
587.454	6.79
587.792	6.79
588.13	7.1
588.469	6.9
588.807	7.13
589.145	6.92
589.483	6.75
589.821	7.05
590.159	6.95
590.497	6.84
590.835	6.9
591.173	7.15
591.511	7.13
591.849	7.2
592.187	7.06
592.524	7.2
592.862	7.15
593.2	7.05
593.537	7.25
593.875	7.17
594.212	7.4
594.55	7.45
594.887	7.25
595.224	7.19
595.561	7.43
595.899	7.26
596.236	7.51
596.573	7.44
596.91	7.56
597.247	7.38
597.584	7.62
597.921	7.3
598.258	7.41
598.594	7.3
598.931	7.29
599.268	7.49
599.604	7.7
599.941	7.61
600.277	7.54
600.614	7.64
600.95	7.54
601.287	7.73
601.623	7.71
601.959	7.72
602.296	7.78
602.632	8
602.968	7.76
603.304	7.69
603.64	7.87
603.976	8.01
604.312	7.94
604.648	7.93
604.984	7.83
605.319	7.99
605.655	7.97
605.991	7.87
606.326	7.86
606.662	8.04
606.998	7.97
607.333	8.02
607.668	8
608.004	8.18
608.339	8.16
608.674	8.1
609.01	8.18
609.345	8.51
609.68	8.4
610.015	8.21
610.35	8.11
610.685	8.34
611.02	8.16
611.355	8.53
611.689	8.14
612.024	8.34
612.359	8.55
612.694	8.4
613.028	8.79
613.363	8.42
613.697	8.59
614.032	8.71
614.366	8.58
614.7	8.97
615.035	8.45
615.369	8.75
615.703	9.08
616.037	8.81
616.371	8.46
616.705	8.92
617.039	9.03
617.373	8.78
617.707	8.88
618.041	9.07
618.375	8.79
618.709	9.22
619.042	8.95
619.376	8.96
619.71	9
620.043	9.11
620.377	9.36
620.71	9.34
621.043	8.99
621.377	9.29
621.71	9.4
622.043	9.55
622.376	8.91
622.709	9.55
623.043	9.02
623.376	9.51
623.709	9.5
624.041	9.31
624.374	9.04
624.707	9.3
625.04	9.71
625.373	9.61
625.705	9.44
626.038	9.3
626.37	9.66
626.703	9.47
627.035	9.66
627.368	9.45
627.7	9.7
628.032	9.38
628.365	9.53
628.697	9.58
629.029	9.9
629.361	9.63
629.693	9.98
630.025	9.72
630.357	9.75
630.689	10.24
631.021	10.09
631.353	9.97
631.684	9.87
632.016	9.96
632.348	10.19
632.679	10.07
633.011	10.03
633.342	9.98
633.674	10.02
634.005	10.29
634.336	9.91
634.668	9.94
634.999	10.18
635.33	10.18
635.661	10.47
635.992	10.08
636.323	10.31
636.654	10.38
636.985	10.44
637.316	10.54
637.647	10.37
637.977	10.1
638.308	10.31
638.639	10.25
638.969	10.18
639.3	10.58
639.63	10.42
639.961	10.37
640.291	11.03
640.622	10.76
640.952	10.8
641.282	10.19
641.612	10.44
641.943	11.06
642.273	11.01
642.603	10.5
642.933	10.74
643.263	11.11
643.592	10.88
643.922	11.34
644.252	11.35
644.582	10.36
644.911	11.02
645.241	10.86
645.571	10.94
645.9	12.06
646.23	10.78
646.559	11.09
646.888	10.96
647.218	10.94
647.547	11.37
647.876	11.24
648.205	10.58
648.534	11.15
648.863	11.08
649.192	11.34
649.521	10.58
649.85	11.56
650.179	11.01
650.508	11.07
650.837	11.28
651.165	11.5
651.494	11.51
651.822	11.53
652.151	11.66
652.479	11.63
652.808	11.25
653.136	11.24
653.465	11.36
653.793	11.92
654.121	11.78
654.449	11.51
654.777	11.95
655.105	11.63
655.433	11.86
655.761	11.63
656.089	12.1
656.417	11.94
656.745	12.21
657.073	12.38
657.4	12.15
657.728	12.7
658.056	11.77
658.383	11.89
658.711	11.91
659.038	12.55
659.365	11.96
659.693	11.69
660.02	12.07
660.347	12.2
660.674	12.07
661.001	11.76
661.329	11.76
661.656	12.05
661.982	12.37
662.309	12.3
662.636	12.33
662.963	12.16
663.29	12.3
663.616	12.33
663.943	12.31
664.27	12.66
664.596	12.2
664.923	12.65
665.249	12.36
665.576	12.2
665.902	12.27
666.228	12.88
666.554	12.02
666.881	12.98
667.207	12.08
667.533	12.9
667.859	12.49
668.185	12.73
668.511	12.97
668.837	12.87
669.162	12.94
669.488	12.97
669.814	12.68
670.139	13.32
670.465	13.15
670.791	13.46
671.116	13.14
671.442	12.6
671.767	12.82
672.092	13
672.418	13.22
672.743	12.87
673.068	12.54
673.393	12.77
673.718	13.16
674.043	13.41
674.368	13.44
674.693	13.02
675.018	12.93
675.343	13.22
675.667	13.57
675.992	12.86
676.317	13.67
676.641	13.52
676.966	13.76
677.29	13.2
677.615	13.37
677.939	13.68
678.264	13.32
678.588	13.8
678.912	13.59
679.236	13.59
679.56	13.43
679.885	13.67
680.209	13.16
680.532	13.13
680.856	14.27
681.18	13.52
681.504	13.33
681.828	13.13
682.152	13.51
682.475	13.83
682.799	13.81
683.122	13.82
683.446	13.76
683.769	13.6
684.093	14.1
684.416	13.5
684.739	14.32
685.062	13.89
685.386	14.08
685.709	13.46
686.032	14.69
686.355	13.85
686.678	13.93
687.001	13.6
687.324	14.14
687.646	13.69
687.969	14.24
688.292	14.73
688.614	14.73
688.937	14.2
689.26	13.49
