Data from 0062_forehead_Reflection__0__203.txt Node

Date: Fri Dec 16 15:34:33 CST 2022
User: ToomeyLab
Spectrometer: FLMS14357
Trigger mode: 0
Integration Time (sec): 1.000000E-2
Scans to average: 100
Electric dark correction enabled: true
Nonlinearity correction enabled: false
Boxcar width: 0
XAxis mode: Wavelengths
Number of Pixels in Spectrum: 2048
>>>>>Begin Spectral Data<<<<<
189.047	262.95
189.435	262.95
189.823	262.95
190.211	30.32
190.599	-255.43
190.987	-15.18
191.375	1.3
191.763	333.43
192.151	-167.47
192.538	32.43
192.926	22.12
193.314	112.64
193.702	178.76
194.089	93.12
194.477	33.16
194.864	158.55
195.252	-59.42
195.639	45.7
196.027	118.42
196.414	19.72
196.801	61.51
197.189	321.63
197.576	-689.3
197.963	70.97
198.351	-22.05
198.738	-54.58
199.125	27.04
199.512	20.71
199.899	-17.18
200.286	-123.92
200.673	47.92
201.06	2.41
201.447	31.11
201.833	9.49
202.22	47.3
202.607	3.81
202.994	23.22
203.38	-14.25
203.767	18.67
204.154	12.81
204.54	48.5
204.927	23.5
205.313	55.55
205.699	-3.03
206.086	14.04
206.472	3.33
206.858	-8.55
207.245	27.45
207.631	35.36
208.017	17.71
208.403	6.9
208.789	-13.39
209.175	39.77
209.561	41.05
209.947	3
210.333	-10.96
210.719	11.85
211.105	-16.6
211.491	12.72
211.876	-9.99
212.262	0.46
212.648	-34.37
213.034	4.05
213.419	41.85
213.805	-23.73
214.19	-10.35
214.576	-12.98
214.961	-35.71
215.346	-36.36
215.732	21.65
216.117	-0.8
216.502	-15.84
216.888	-16.1
217.273	-3.53
217.658	-35.82
218.043	8.45
218.428	-13.69
218.813	-9.03
219.198	0.95
219.583	8.07
219.968	-8.89
220.353	-5.22
220.738	9.73
221.122	-16.18
221.507	19.26
221.892	5.85
222.276	30.2
222.661	7.72
223.046	0.13
223.43	1.14
223.815	4.78
224.199	6.66
224.583	-1.28
224.968	7.84
225.352	4.49
225.736	3.06
226.121	-3.91
226.505	0.57
226.889	9.52
227.273	0.57
227.657	3.07
228.041	1.11
228.425	1.68
228.809	4.62
229.193	1.22
229.577	1.53
229.961	2.09
230.344	2.24
230.728	2.3
231.112	1.46
231.495	0.44
231.879	2.37
232.263	0.06
232.646	-0.27
233.03	-1.22
233.413	0.51
233.797	5.17
234.18	-1.03
234.563	2.15
234.946	1.29
235.33	2.29
235.713	1.76
236.096	1.95
236.479	2.45
236.862	1.54
237.245	4.12
237.628	1.87
238.011	1.44
238.394	2.84
238.777	2.36
239.16	1.6
239.543	1.93
239.925	5.02
240.308	2.42
240.691	0.83
241.073	3.21
241.456	0.82
241.838	2.16
242.221	2.08
242.603	0.53
242.986	3.25
243.368	1.54
243.75	1.69
244.133	1.99
244.515	2.79
244.897	2.19
245.279	1.92
245.661	2.38
246.043	2.65
246.425	1.76
246.807	2.53
247.189	1.92
247.571	2.28
247.953	1.81
248.335	1.97
248.717	2.21
249.098	2.09
249.48	2.24
249.862	2.07
250.243	2.19
250.625	2.1
251.006	2.36
251.388	3.17
251.769	2.72
252.151	2.43
252.532	1.92
252.913	2.37
253.295	2.1
253.676	2.21
254.057	2.27
254.438	2.52
254.819	3.3
255.2	1.66
255.581	2.34
255.962	2.31
256.343	2.79
256.724	1.67
257.105	2.21
257.486	2.46
257.867	0.66
258.247	2.74
258.628	2.74
259.009	2.04
259.389	2.15
259.77	1.75
260.15	2.87
260.531	2.11
260.911	2.19
261.292	1.93
261.672	2.04
262.052	2.12
262.432	1.76
262.813	1.85
263.193	1.53
263.573	1.87
263.953	2.49
264.333	2.3
264.713	1.99
265.093	1.32
265.473	2.92
265.853	2.18
266.233	1.82
266.612	2.31
266.992	2.27
267.372	1.94
267.752	1.81
268.131	2.84
268.511	2.68
268.89	2.17
269.27	2.17
269.649	2.06
270.029	2.42
270.408	2
270.787	1.93
271.167	2.59
271.546	2.06
271.925	2.05
272.304	1.97
272.683	2.18
273.062	2.21
273.441	2.53
273.82	2.63
274.199	2.42
274.578	1.72
274.957	1.89
275.336	1.84
275.715	2.34
276.093	2.34
276.472	2.54
276.851	2.27
277.229	2.47
277.608	2.06
277.986	2.14
278.365	1.94
278.743	1.85
279.122	2.03
279.5	2.01
279.878	2.03
280.257	1.97
280.635	1.58
281.013	2.51
281.391	1.72
281.769	1.86
282.147	2.56
282.525	2.34
282.903	2.5
283.281	2.02
283.659	2.21
284.037	2.01
284.415	2.33
284.792	1.96
285.17	1.38
285.548	1.5
285.925	1.66
286.303	1.95
286.68	2.22
287.058	1.92
287.435	1.93
287.813	2.43
288.19	2.21
288.567	1.82
288.945	2.06
289.322	1.84
289.699	2.39
290.076	2.62
290.453	1.95
290.83	2.44
291.207	2.57
291.584	2.25
291.961	2.56
292.338	2.42
292.715	2.64
293.092	2.46
293.469	2.82
293.845	2.49
294.222	2.25
294.599	3.03
294.975	2.74
295.352	2
295.728	2.39
296.105	2.47
296.481	2.99
296.858	2.34
297.234	2.46
297.61	2.98
297.986	2.39
298.363	2.27
298.739	2.72
299.115	2.54
299.491	2.77
299.867	2.89
300.243	2.55
300.619	2.64
300.995	3.21
301.371	3.15
301.746	2.95
302.122	3.09
302.498	2.69
302.874	2.96
303.249	3.04
303.625	3.33
304	2.68
304.376	2.92
304.751	3
305.127	3.55
305.502	3.64
305.878	2.98
306.253	3.49
306.628	3.56
307.003	3.62
307.378	3.51
307.754	3.84
308.129	2.78
308.504	3.67
308.879	3.38
309.254	3.75
309.629	3.96
310.003	3.95
310.378	3.7
310.753	3.85
311.128	3.81
311.502	4.06
311.877	3.78
312.252	3.94
312.626	3.83
313.001	4.01
313.375	4.01
313.75	4.43
314.124	4.35
314.498	4.09
314.873	4.33
315.247	4.28
315.621	4.92
315.995	4.91
316.369	5.03
316.743	4.26
317.117	4.8
317.491	4.8
317.865	4.12
318.239	4.82
318.613	4.71
318.987	4.87
319.361	5.17
319.734	5.01
320.108	4.93
320.482	4.79
320.855	5.62
321.229	5.72
321.602	5.5
321.976	5.06
322.349	5.15
322.723	5.11
323.096	4.98
323.469	5.29
323.843	5.66
324.216	5.76
324.589	5.39
324.962	5.67
325.335	5.73
325.708	6.03
326.081	5.96
326.454	5.7
326.827	5.89
327.2	6.2
327.573	6.11
327.945	5.84
328.318	6.08
328.691	5.76
329.063	6.15
329.436	6.2
329.809	5.73
330.181	6.49
330.553	6.57
330.926	6.43
331.298	5.92
331.671	6.58
332.043	6.1
332.415	6.89
332.787	6.98
333.159	6.67
333.532	6.35
333.904	6.86
334.276	6.43
334.648	6.64
335.02	6.8
335.391	7.15
335.763	6.74
336.135	6.84
336.507	7.1
336.879	7.23
337.25	6.8
337.622	7.26
337.993	7.66
338.365	7.2
338.736	7.33
339.108	7.15
339.479	7.34
339.851	7.32
340.222	7.71
340.593	7.09
340.964	7.15
341.336	7.26
341.707	7.12
342.078	7.15
342.449	7.4
342.82	7.59
343.191	7.22
343.562	7.73
343.933	7.98
344.303	7.83
344.674	7.77
345.045	8.21
345.416	7.84
345.786	7.61
346.157	8.08
346.527	8.07
346.898	8.07
347.268	7.79
347.639	8.29
348.009	7.99
348.38	8.45
348.75	8.79
349.12	8.13
349.49	8.03
349.861	8.65
350.231	8.7
350.601	8.5
350.971	8.33
351.341	8.8
351.711	8.65
352.081	8.96
352.45	8.84
352.82	8.62
353.19	8.68
353.56	8.85
353.929	9.03
354.299	9.09
354.669	8.92
355.038	9.48
355.408	9.42
355.777	8.86
356.147	9.33
356.516	9.35
356.885	9.08
357.254	9.47
357.624	9.5
357.993	9.2
358.362	9.54
358.731	9.47
359.1	9.82
359.469	9.49
359.838	9.55
360.207	9.45
360.576	9.65
360.945	9.84
361.314	10.08
361.682	9.61
362.051	9.86
362.42	9.95
362.788	9.87
363.157	9.48
363.525	9.71
363.894	9.73
364.262	9.99
364.631	10.79
364.999	10.03
365.367	10.44
365.735	10.07
366.104	10.25
366.472	10.67
366.84	10.46
367.208	10.37
367.576	10.35
367.944	10.7
368.312	10.49
368.68	10.89
369.048	10.52
369.416	10.53
369.783	10.74
370.151	10.87
370.519	10.63
370.886	10.88
371.254	11.3
371.621	11.2
371.989	11.2
372.356	11.32
372.724	11.1
373.091	11.41
373.458	11.33
373.826	11.09
374.193	11.78
374.56	11.43
374.927	11.41
375.294	11.66
375.661	11.59
376.028	11.73
376.395	11.65
376.762	11.9
377.129	12.02
377.496	11.73
377.863	11.78
378.229	11.92
378.596	11.97
378.963	11.95
379.329	11.95
379.696	12.16
380.062	12.53
380.429	12.41
380.795	11.97
381.161	12.32
381.528	11.89
381.894	12.39
382.26	12.32
382.626	12.33
382.993	12.36
383.359	12.44
383.725	12.73
384.091	12.55
384.457	12.91
384.823	12.8
385.188	13.12
385.554	12.93
385.92	13.1
386.286	13.07
386.651	12.88
387.017	13.03
387.383	13.06
387.748	13.03
388.114	13.23
388.479	13.12
388.845	13.17
389.21	13.34
389.575	13.49
389.94	13.47
390.306	13.5
390.671	13.55
391.036	13.74
391.401	13.86
391.766	13.52
392.131	13.76
392.496	13.63
392.861	13.58
393.226	13.57
393.591	13.88
393.956	14.04
394.32	13.65
394.685	14.09
395.05	13.9
395.414	14.05
395.779	14
396.143	14.21
396.508	14.34
396.872	14.22
397.236	14.05
397.601	14.36
397.965	14.26
398.329	14.77
398.694	14.39
399.058	14.52
399.422	14.28
399.786	14.5
400.15	14.42
400.514	14.52
400.878	14.57
401.242	15.06
401.605	14.77
401.969	14.79
402.333	15.1
402.697	14.98
403.06	15.43
403.424	15.01
403.787	15.01
404.151	14.73
404.514	15.06
404.878	15.03
405.241	15.23
405.604	15.08
405.968	15.2
406.331	15.27
406.694	15.3
407.057	15.6
407.42	15.38
407.783	15.39
408.146	15.61
408.509	15.4
408.872	15.67
409.235	15.93
409.598	16
409.961	15.93
410.323	15.85
410.686	15.75
411.049	15.75
411.411	15.82
411.774	15.64
412.136	16.02
412.499	16.02
412.861	15.87
413.223	16.46
413.586	16.18
413.948	16.3
414.31	16.16
414.672	16.14
415.035	16.04
415.397	16.3
415.759	16.39
416.121	16.65
416.483	16.54
416.845	16.33
417.206	16.5
417.568	16.35
417.93	16.51
418.292	16.47
418.653	16.44
419.015	16.66
419.377	16.54
419.738	16.46
420.1	16.59
420.461	16.52
420.822	16.54
421.184	16.49
421.545	16.65
421.906	16.61
422.267	16.42
422.629	16.57
422.99	16.63
423.351	16.75
423.712	16.93
424.073	16.94
424.434	16.99
424.795	17.11
425.155	16.9
425.516	17
425.877	17.07
426.238	17.01
426.598	17.33
426.959	17.33
427.32	17.54
427.68	17.68
428.041	17.76
428.401	17.77
428.761	17.79
429.122	17.86
429.482	17.98
429.842	18.06
430.202	18.09
430.563	18.19
430.923	18.24
431.283	18.3
431.643	18.26
432.003	18.31
432.363	18.52
432.722	18.31
433.082	18.49
433.442	18.37
433.802	18.44
434.161	18.45
434.521	18.51
434.881	18.66
435.24	18.59
435.6	18.71
435.959	18.91
436.319	18.89
436.678	18.8
437.037	19.13
437.396	19.16
437.756	19.21
438.115	19.16
438.474	19.28
438.833	19.32
439.192	19.32
439.551	19.36
439.91	19.4
440.269	19.4
440.628	19.18
440.987	19.3
441.345	19.36
441.704	19.29
442.063	19.34
442.421	19.37
442.78	19.4
443.138	19.68
443.497	19.71
443.855	19.93
444.214	19.96
444.572	19.82
444.93	19.97
445.288	20.08
445.647	20.03
446.005	20.09
446.363	20.02
446.721	19.88
447.079	19.91
447.437	19.94
447.795	19.76
448.153	19.93
448.51	20.03
448.868	20.13
449.226	20.31
449.584	20.42
449.941	20.64
450.299	20.61
450.656	20.7
451.014	20.68
451.371	20.9
451.729	20.88
452.086	21.02
452.443	21.04
452.801	21.13
453.158	21.03
453.515	20.94
453.872	21.08
454.229	21.14
454.586	21.18
454.943	21.24
455.3	21.6
455.657	21.46
456.014	21.55
456.371	21.56
456.727	21.57
457.084	21.68
457.441	21.57
457.797	21.92
458.154	21.79
458.51	21.85
458.867	21.73
459.223	22.03
459.58	21.76
459.936	21.78
460.292	21.68
460.648	21.59
461.005	21.38
461.361	21.5
461.717	21.62
462.073	21.78
462.429	22.1
462.785	22.34
463.141	22.37
463.496	22.46
463.852	22.72
464.208	22.55
464.564	22.68
464.919	22.74
465.275	22.84
465.631	22.86
465.986	22.7
466.342	22.76
466.697	22.78
467.052	23.09
467.408	22.81
467.763	22.95
468.118	23.1
468.473	23.16
468.829	23.27
469.184	23.39
469.539	23.25
469.894	23.28
470.249	23.32
470.603	23.48
470.958	23.58
471.313	23.43
471.668	23.64
472.023	23.74
472.377	23.68
472.732	23.65
473.086	23.61
473.441	23.83
473.795	23.88
474.15	23.92
474.504	23.96
474.859	23.96
475.213	23.98
475.567	24.07
475.921	24.22
476.275	24.14
476.63	24.37
476.984	24.42
477.338	24.41
477.692	24.29
478.045	24.22
478.399	24.56
478.753	24.4
479.107	24.3
479.461	24.34
479.814	24.38
480.168	24.67
480.521	24.38
480.875	24.65
481.228	24.72
481.582	24.51
481.935	24.74
482.289	24.5
482.642	24.56
482.995	24.42
483.348	24.3
483.701	24.36
484.055	23.99
484.408	23.77
484.761	23.31
485.114	23.19
485.466	23.28
485.819	23.7
486.172	24.12
486.525	24.37
486.878	24.55
487.23	24.64
487.583	24.59
487.936	24.42
488.288	24.09
488.641	24.08
488.993	24.01
489.345	24.16
489.698	24.35
490.05	24.6
490.402	24.93
490.754	25.1
491.107	25.29
491.459	25.36
491.811	25.3
492.163	25.1
492.515	24.84
492.866	24.35
493.218	24.48
493.57	24.93
493.922	25.26
494.274	25.61
494.625	25.87
494.977	26
495.328	26.28
495.68	26.3
496.031	26.33
496.383	26.34
496.734	26.43
497.086	26.27
497.437	26.51
497.788	26.16
498.139	26.18
498.49	26.13
498.842	26.21
499.193	26.43
499.544	26.55
499.894	26.44
500.245	26.64
500.596	26.69
500.947	26.73
501.298	26.7
501.648	27.11
501.999	27.11
502.35	27.22
502.7	27.03
503.051	27.35
503.401	27.37
503.752	27.26
504.102	27.3
504.452	27.22
504.803	27.35
505.153	27.37
505.503	27.3
505.853	27.35
506.203	27.51
506.553	27.7
506.903	27.7
507.253	27.77
507.603	27.65
507.953	27.75
508.303	27.7
508.652	27.77
509.002	27.72
509.352	27.65
509.701	27.48
510.051	27.63
510.4	27.62
510.75	27.59
511.099	27.74
511.449	27.75
511.798	27.98
512.147	28.07
512.496	28.2
512.846	28.08
513.195	28.13
513.544	28.08
513.893	27.92
514.242	28.09
514.591	28.18
514.939	28.34
515.288	28.41
515.637	28.55
515.986	28.54
516.334	28.64
516.683	28.69
517.032	28.59
517.38	28.5
517.729	28.72
518.077	28.76
518.426	28.57
518.774	28.4
519.122	28.25
519.47	28.18
519.819	28.23
520.167	28.18
520.515	28.29
520.863	28.45
521.211	28.55
521.559	28.72
521.907	28.91
522.255	28.99
522.602	29.11
522.95	29.25
523.298	29.18
523.645	29.3
523.993	29.37
524.341	29.32
524.688	29.35
525.036	29.43
525.383	29.5
525.73	29.25
526.078	29.29
526.425	28.92
526.772	28.77
527.119	28.68
527.466	28.81
527.814	28.94
528.161	29.07
528.508	29.06
528.854	28.96
529.201	28.61
529.548	28.21
529.895	27.98
530.242	28.2
530.588	28.61
530.935	28.95
531.282	29.07
531.628	29.23
531.975	29.5
532.321	29.6
532.667	29.67
533.014	29.63
533.36	29.62
533.706	29.5
534.052	29.33
534.399	28.94
534.745	28.94
535.091	29.14
535.437	29.47
535.783	29.9
536.129	30.11
536.474	30.06
536.82	30.36
537.166	30.2
537.512	30.03
537.857	29.7
538.203	29.75
538.549	29.93
538.894	30.21
539.239	30.48
539.585	30.64
539.93	30.74
540.276	30.85
540.621	30.68
540.966	30.78
541.311	30.76
541.656	30.37
542.001	30.24
542.346	29.7
542.691	29.43
543.036	29.66
543.381	30.05
543.726	30.41
544.071	30.67
544.415	30.67
544.76	30.48
545.105	30.8
545.449	30.77
545.794	31.01
546.138	31.3
546.483	31.2
546.827	31.2
547.171	31.07
547.516	31.2
547.86	31.27
548.204	30.99
548.548	31.16
548.892	31.31
549.236	31.54
549.58	31.97
549.924	31.89
550.268	32.28
550.612	32.17
550.956	32.28
551.3	32.18
551.643	32.35
551.987	32.48
552.33	32.36
552.674	32.53
553.017	32.46
553.361	32.19
553.704	32.28
554.048	32.12
554.391	32.14
554.734	32.33
555.077	32.5
555.42	32.59
555.764	32.58
556.107	32.86
556.45	32.78
556.793	33.06
557.135	32.99
557.478	32.75
557.821	32.91
558.164	33.03
558.507	33.12
558.849	33.07
559.192	33.32
559.534	32.91
559.877	33.27
560.219	33.45
560.562	33.45
560.904	33.19
561.246	33.4
561.589	33.16
561.931	33.6
562.273	33.19
562.615	33.15
562.957	33.39
563.299	33.36
563.641	33.67
563.983	33.43
564.325	33.51
564.667	33.46
565.008	33.8
565.35	33.84
565.692	33.82
566.033	33.71
566.375	33.58
566.716	33.65
567.058	33.51
567.399	33.36
567.741	33.4
568.082	33.32
568.423	33.59
568.764	33.87
569.105	33.86
569.447	33.89
569.788	34.03
570.129	34.11
570.47	34.13
570.811	33.99
571.151	33.95
571.492	34.3
571.833	34.37
572.174	34.09
572.514	34.12
572.855	33.89
573.195	33.75
573.536	33.88
573.876	34.22
574.217	33.92
574.557	34.29
574.898	34.24
575.238	34.15
575.578	34.19
575.918	34.29
576.258	34.07
576.598	34.09
576.938	34.28
577.278	34.42
577.618	34.65
577.958	34.46
578.298	35.02
578.638	34.86
578.977	34.76
579.317	34.9
579.657	35.13
579.996	34.99
580.336	35.44
580.675	35.32
581.014	35.37
581.354	35.37
581.693	35.36
582.032	35.33
582.372	35.43
582.711	35.43
583.05	35.63
583.389	35.65
583.728	35.53
584.067	35.7
584.406	35.89
584.745	35.64
585.083	36.13
585.422	35.91
585.761	35.86
586.1	35.87
586.438	35.73
586.777	35.88
587.115	35.96
587.454	35.94
587.792	35.94
588.13	36.03
588.469	35.85
588.807	36.04
589.145	36.06
589.483	35.91
589.821	36.09
590.159	35.84
590.497	35.92
590.835	36.13
591.173	36.21
591.511	36.09
591.849	35.98
592.187	36.41
592.524	36.16
592.862	36.28
593.2	36.43
593.537	36.36
593.875	36.27
594.212	36.34
594.55	36.34
594.887	36.64
595.224	36.5
595.561	36.33
595.899	36.46
596.236	36.52
596.573	36.6
596.91	36.35
597.247	36.51
597.584	36.35
597.921	36.31
598.258	35.98
598.594	35.93
598.931	36.09
599.268	36.42
599.604	36.7
599.941	36.66
600.277	36.78
600.614	36.97
600.95	37.02
601.287	37.16
601.623	37.04
601.959	37.17
602.296	37.19
602.632	37.53
602.968	36.91
603.304	36.86
603.64	37.56
603.976	36.68
604.312	37.14
604.648	36.84
604.984	36.56
605.319	36.61
605.655	36.8
605.991	36.53
606.326	36.51
606.662	36.59
606.998	37.08
607.333	37.35
607.668	37.33
608.004	37.63
608.339	37.55
608.674	37.66
609.01	37.59
609.345	37.69
609.68	37.56
610.015	37.42
610.35	37.17
610.685	37.13
611.02	37.4
611.355	37.34
611.689	37.11
612.024	37.61
612.359	37.88
612.694	37.84
613.028	38.13
613.363	38.16
613.697	38.21
614.032	38.3
614.366	37.97
614.7	38.54
615.035	37.94
615.369	38.05
615.703	37.98
616.037	38.27
616.371	38.03
616.705	38.15
617.039	38.64
617.373	38.48
617.707	38.28
618.041	38.38
618.375	38.37
618.709	38.18
619.042	38.17
619.376	38.2
619.71	38.39
620.043	38.22
620.377	38.66
620.71	38.68
621.043	38.52
621.377	38.57
621.71	39.28
622.043	39.01
622.376	38.13
622.709	38.84
623.043	38.88
623.376	38.89
623.709	38.92
624.041	38.84
624.374	38.26
624.707	38.91
625.04	39.05
625.373	38.81
625.705	38.45
626.038	39.05
626.37	39.02
626.703	39.12
627.035	38.9
627.368	39.03
627.7	39.04
628.032	38.92
628.365	38.77
628.697	39.02
629.029	38.97
629.361	39.22
629.693	39.32
630.025	39.31
630.357	39.39
630.689	39.69
631.021	39.2
631.353	39.08
631.684	39.23
632.016	39.2
632.348	39.61
632.679	39.14
633.011	39.69
633.342	39.49
633.674	39.51
634.005	39.6
634.336	39.8
634.668	39.55
634.999	39.4
635.33	39.63
635.661	39.66
635.992	39.5
636.323	39.72
636.654	39.62
636.985	39.89
637.316	39.71
637.647	39.97
637.977	40.15
638.308	39.59
638.639	39.84
638.969	39.66
639.3	40.04
639.63	40.09
639.961	40.21
640.291	40.45
640.622	40.04
640.952	39.91
641.282	40.11
641.612	40.15
641.943	39.93
642.273	40.66
642.603	40.2
642.933	40.44
643.263	40.95
643.592	40.15
643.922	40.49
644.252	40.55
644.582	40.59
644.911	40.3
645.241	40.31
645.571	40.91
645.9	40.77
646.23	40.72
646.559	40.9
646.888	40.42
647.218	40.73
647.547	40.59
647.876	41.03
648.205	40.76
648.534	40.48
648.863	40.7
649.192	40.66
649.521	40.29
649.85	41.11
650.179	40.97
650.508	40.66
650.837	41.32
651.165	40.92
651.494	41.06
651.822	41.03
652.151	40.97
652.479	40.49
652.808	40.73
653.136	41.45
653.465	41.22
653.793	40.78
654.121	40.64
654.449	40.9
654.777	41.05
655.105	41.04
655.433	41.68
655.761	41.14
656.089	41.69
656.417	41.95
656.745	41.44
657.073	41.45
657.4	41.2
657.728	41.51
658.056	40.89
658.383	41.53
658.711	40.88
659.038	41.72
659.365	41.53
659.693	41.32
660.02	41.05
660.347	40.88
660.674	40.89
661.001	41.08
661.329	40.59
661.656	41.34
661.982	41.53
662.309	41.81
662.636	41.81
662.963	41.79
663.29	41.74
663.616	41.86
663.943	41.91
664.27	42.24
664.596	41.88
664.923	41.74
665.249	41.64
665.576	41.47
665.902	42.1
666.228	41.76
666.554	42.12
666.881	42.32
667.207	41.76
667.533	42.11
667.859	42.47
668.185	42.71
668.511	41.46
668.837	41.77
669.162	42.3
669.488	42.05
669.814	42.13
670.139	42.13
670.465	42.07
670.791	42.25
671.116	42.08
671.442	42.41
671.767	42.47
672.092	42.55
