Data from 0062_chest_Reflection__2__195.txt Node

Date: Fri Dec 16 15:32:20 CST 2022
User: ToomeyLab
Spectrometer: FLMS14357
Trigger mode: 0
Integration Time (sec): 1.000000E-2
Scans to average: 100
Electric dark correction enabled: true
Nonlinearity correction enabled: false
Boxcar width: 0
XAxis mode: Wavelengths
Number of Pixels in Spectrum: 2048
>>>>>Begin Spectral Data<<<<<
189.047	-297.98
189.435	-297.98
189.823	-297.98
190.211	0.42
190.599	133.31
190.987	74.74
191.375	-20.26
191.763	269.31
192.151	-104.62
192.538	6.35
192.926	53.15
193.314	25.82
193.702	457.88
194.089	28.4
194.477	-274.65
194.864	33.37
195.252	34.9
195.639	113.39
196.027	-106.38
196.414	-2.45
196.801	-330.13
197.189	258.56
197.576	-175.1
197.963	-96.17
198.351	16.05
198.738	-83.09
199.125	75.97
199.512	-29.07
199.899	-3.82
200.286	1.64
200.673	18.24
201.06	34.08
201.447	36.73
201.833	-4.73
202.22	2.91
202.607	-23.42
202.994	22.53
203.38	-37.95
203.767	-75.72
204.154	-31.95
204.54	22.55
204.927	10.53
205.313	42.26
205.699	12.14
206.086	-2.6
206.472	-30.69
206.858	14.95
207.245	8.83
207.631	-26.33
208.017	22.4
208.403	-10.81
208.789	-7.38
209.175	36.05
209.561	-39.21
209.947	7.9
210.333	-12.31
210.719	-11.6
211.105	-31.41
211.491	-0.32
211.876	-38.89
212.262	-31.32
212.648	-28.89
213.034	34.95
213.419	45.7
213.805	-21.27
214.19	-14.9
214.576	-23.1
214.961	-23.03
215.346	-73.69
215.732	-22.55
216.117	-17.95
216.502	-27.53
216.888	-39.45
217.273	-10.19
217.658	9.73
218.043	-24.49
218.428	-3.83
218.813	-9.12
219.198	-17.74
219.583	-6.03
219.968	-15.78
220.353	19.65
220.738	-27.48
221.122	-4.99
221.507	-21.73
221.892	2.11
222.276	22.79
222.661	-9.87
223.046	-13.29
223.43	-8.34
223.815	5.72
224.199	6.93
224.583	7.24
224.968	1.87
225.352	-7.15
225.736	2.06
226.121	-3.78
226.505	-2.55
226.889	9.81
227.273	6.14
227.657	0.75
228.041	2.82
228.425	1.02
228.809	3.79
229.193	2.66
229.577	2.54
229.961	3.29
230.344	3.67
230.728	3.28
231.112	3.25
231.495	2.5
231.879	3.55
232.263	2.47
232.646	3.81
233.03	1.07
233.413	2.54
233.797	5.4
234.18	1.18
234.563	3.96
234.946	2.16
235.33	2.97
235.713	2.25
236.096	3.44
236.479	3.55
236.862	4.78
237.245	4.34
237.628	4.63
238.011	2.37
238.394	3.86
238.777	0.77
239.16	1.21
239.543	1.62
239.925	4.82
240.308	4.26
240.691	1.43
241.073	2.9
241.456	2.59
241.838	2.73
242.221	3.58
242.603	4.19
242.986	4.26
243.368	3.42
243.75	3.57
244.133	3.99
244.515	3.7
244.897	3.67
245.279	3.59
245.661	4.1
246.043	2.83
246.425	3.88
246.807	3.86
247.189	3.9
247.571	3.78
247.953	3.83
248.335	3.72
248.717	3.76
249.098	3.96
249.48	3.71
249.862	3.98
250.243	3.82
250.625	3.9
251.006	3.39
251.388	3.88
251.769	3.53
252.151	3.64
252.532	4.06
252.913	3.77
253.295	4.46
253.676	4.3
254.057	3.58
254.438	3.5
254.819	3.94
255.2	3.81
255.581	3.44
255.962	3.35
256.343	4.29
256.724	4.26
257.105	4.1
257.486	3.23
257.867	2.58
258.247	3.09
258.628	4.34
259.009	4.19
259.389	3.86
259.77	3.49
260.15	3.84
260.531	3.81
260.911	3.63
261.292	3.59
261.672	3.45
262.052	3.54
262.432	3.7
262.813	3.8
263.193	3.31
263.573	3.83
263.953	3.64
264.333	3.71
264.713	3.69
265.093	3.75
265.473	4.79
265.853	4.21
266.233	2.6
266.612	3.11
266.992	3.51
267.372	3.69
267.752	3.21
268.131	3.32
268.511	3.44
268.89	3.59
269.27	3.73
269.649	3.76
270.029	3
270.408	3.12
270.787	3.03
271.167	4.13
271.546	2.66
271.925	3.44
272.304	3.7
272.683	3.27
273.062	3.84
273.441	3.91
273.82	3.78
274.199	3.88
274.578	3.46
274.957	3.6
275.336	3.03
275.715	3.89
276.093	3.75
276.472	3.77
276.851	3.31
277.229	4.15
277.608	3.73
277.986	3.6
278.365	3.81
278.743	3.33
279.122	3.06
279.5	2.87
279.878	2.65
280.257	3.05
280.635	3.5
281.013	3.61
281.391	3.81
281.769	3.79
282.147	3.17
282.525	3.17
282.903	4.01
283.281	3.54
283.659	3.52
284.037	3.56
284.415	3.63
284.792	3.55
285.17	3.42
285.548	3.1
285.925	3.26
286.303	3.24
286.68	3.37
287.058	3.41
287.435	3.38
287.813	3.7
288.19	3.64
288.567	2.89
288.945	3.46
289.322	3.22
289.699	3.75
290.076	3.84
290.453	3.32
290.83	3.96
291.207	3.77
291.584	3.46
291.961	3.8
292.338	3.67
292.715	3.8
293.092	3.78
293.469	3.83
293.845	3.84
294.222	3.64
294.599	4.02
294.975	3.77
295.352	3.55
295.728	4.06
296.105	3.39
296.481	4.45
296.858	3.9
297.234	3.67
297.61	3.81
297.986	3.9
298.363	3.34
298.739	4.11
299.115	3.66
299.491	4.01
299.867	3.94
300.243	3.65
300.619	3.56
300.995	3.98
301.371	4.01
301.746	4.01
302.122	4.16
302.498	3.99
302.874	4.22
303.249	4.39
303.625	4.1
304	3.84
304.376	3.98
304.751	4.19
305.127	4.26
305.502	4.18
305.878	4.01
306.253	4.2
306.628	4.55
307.003	4.54
307.378	3.66
307.754	4.25
308.129	3.68
308.504	4.11
308.879	3.71
309.254	4.47
309.629	4.04
310.003	4.63
310.378	4.62
310.753	4.53
311.128	4.01
311.502	3.93
311.877	4.24
312.252	4.06
312.626	3.92
313.001	4.12
313.375	4.33
313.75	3.98
314.124	4.59
314.498	4.32
314.873	4.34
315.247	4.08
315.621	4.45
315.995	3.94
316.369	4.51
316.743	4.17
317.117	4.25
317.491	4.31
317.865	3.7
318.239	4.35
318.613	4.16
318.987	4.15
319.361	4.01
319.734	4.3
320.108	4.52
320.482	4.09
320.855	4.43
321.229	4.87
321.602	3.99
321.976	4.19
322.349	3.28
322.723	3.8
323.096	4.3
323.469	4.03
323.843	4
324.216	4.26
324.589	4.93
324.962	4.47
325.335	3.96
325.708	4.62
326.081	5.09
326.454	4.4
326.827	4.27
327.2	4.87
327.573	4.84
327.945	4.4
328.318	4.48
328.691	4.45
329.063	4.19
329.436	3.86
329.809	4.79
330.181	4.05
330.553	4.65
330.926	4.5
331.298	3.97
331.671	4.39
332.043	4.53
332.415	4.69
332.787	4.46
333.159	4.4
333.532	4.55
333.904	4.69
334.276	4.6
334.648	4.64
335.02	4.47
335.391	4.65
335.763	4.31
336.135	4.72
336.507	4.97
336.879	4.52
337.25	4.45
337.622	4.93
337.993	4.73
338.365	4.34
338.736	4.5
339.108	4.03
339.479	4.47
339.851	5.35
340.222	4.73
340.593	4.33
340.964	4.74
341.336	4.21
341.707	4.45
342.078	4.2
342.449	4.88
342.82	4.18
343.191	4.3
343.562	4.43
343.933	4.64
344.303	4.6
344.674	4.73
345.045	5.04
345.416	4.63
345.786	4.32
346.157	4.67
346.527	4.3
346.898	4.47
347.268	4.56
347.639	4.25
348.009	4.73
348.38	4.68
348.75	4.73
349.12	4.69
349.49	4.45
349.861	5.13
350.231	4.69
350.601	4.86
350.971	4.56
351.341	4.84
351.711	4.87
352.081	4.82
352.45	4.85
352.82	4.69
353.19	4.86
353.56	4.58
353.929	4.59
354.299	4.43
354.669	4.63
355.038	4.63
355.408	5.1
355.777	4.44
356.147	4.66
356.516	5.07
356.885	4.7
357.254	5.02
357.624	4.85
357.993	5
358.362	4.69
358.731	4.67
359.1	5
359.469	4.76
359.838	4.6
360.207	4.44
360.576	5.14
360.945	4.59
361.314	4.84
361.682	4.68
362.051	4.45
362.42	5.08
362.788	4.73
363.157	4.57
363.525	4.67
363.894	4.54
364.262	4.74
364.631	5.37
364.999	4.65
365.367	4.96
365.735	4.56
366.104	4.57
366.472	4.84
366.84	5.07
367.208	4.47
367.576	4.78
367.944	5.23
368.312	4.44
368.68	4.96
369.048	4.99
369.416	4.69
369.783	4.86
370.151	4.74
370.519	4.55
370.886	4.88
371.254	4.53
371.621	5
371.989	4.64
372.356	4.96
372.724	4.8
373.091	5.07
373.458	4.73
373.826	4.85
374.193	5.35
374.56	4.78
374.927	4.59
375.294	5.04
375.661	4.83
376.028	4.74
376.395	4.9
376.762	4.93
377.129	5.03
377.496	5
377.863	5.01
378.229	5.04
378.596	4.93
378.963	5.04
379.329	5.02
379.696	4.97
380.062	4.97
380.429	5
380.795	4.71
381.161	4.9
381.528	4.4
381.894	5.08
382.26	4.62
382.626	4.88
382.993	4.85
383.359	4.97
383.725	5.28
384.091	5.02
384.457	5.26
384.823	4.84
385.188	5.15
385.554	4.97
385.92	5.14
386.286	5.03
386.651	5.04
387.017	5.17
387.383	4.83
387.748	4.97
388.114	5.18
388.479	5.28
388.845	5.1
389.21	5.24
389.575	5
389.94	5.16
390.306	4.9
390.671	5.04
391.036	5.44
391.401	5.38
391.766	5.1
392.131	5.2
392.496	5.06
392.861	4.77
393.226	5.16
393.591	5.08
393.956	5.21
394.32	4.93
394.685	5.47
395.05	5.06
395.414	5.01
395.779	5.2
396.143	5.32
396.508	5.21
396.872	5.38
397.236	5.07
397.601	5.26
397.965	4.96
398.329	5.23
398.694	4.92
399.058	5.18
399.422	5.07
399.786	5.19
400.15	5.2
400.514	5.29
400.878	5.11
401.242	5.32
401.605	5
401.969	5.23
402.333	5.16
402.697	5.49
403.06	5.34
403.424	5.37
403.787	5.46
404.151	5.44
404.514	5.21
404.878	5.27
405.241	5.1
405.604	5.26
405.968	5.22
406.331	5.35
406.694	5.04
407.057	5.49
407.42	5.3
407.783	5.06
408.146	5.28
408.509	5.23
408.872	5.29
409.235	5.32
409.598	5.24
409.961	5.22
410.323	5.25
410.686	5.24
411.049	5.39
411.411	5.37
411.774	5.29
412.136	5.55
412.499	5.24
412.861	5.29
413.223	5.48
413.586	5.58
413.948	5.44
414.31	5.36
414.672	5.46
415.035	5.54
415.397	5.37
415.759	5.43
416.121	5.49
416.483	5.4
416.845	5.39
417.206	5.51
417.568	5.54
417.93	5.37
418.292	5.47
418.653	5.43
419.015	5.47
419.377	5.49
419.738	5.34
420.1	5.39
420.461	5.45
420.822	5.42
421.184	5.39
421.545	5.36
421.906	5.48
422.267	5.28
422.629	5.37
422.99	5.45
423.351	5.44
423.712	5.46
424.073	5.48
424.434	5.42
424.795	5.3
425.155	5.42
425.516	5.4
425.877	5.42
426.238	5.34
426.598	5.46
426.959	5.35
427.32	5.55
427.68	5.47
428.041	5.58
428.401	5.55
428.761	5.42
429.122	5.57
429.482	5.47
429.842	5.6
430.202	5.42
430.563	5.47
430.923	5.52
431.283	5.66
431.643	5.67
432.003	5.71
432.363	5.66
432.722	5.76
433.082	5.51
433.442	5.62
433.802	5.63
434.161	5.58
434.521	5.71
434.881	5.76
435.24	5.6
435.6	5.66
435.959	5.63
436.319	5.68
436.678	5.77
437.037	5.86
437.396	5.89
437.756	5.84
438.115	5.7
438.474	5.93
438.833	5.81
439.192	5.83
439.551	5.75
439.91	5.78
440.269	5.92
440.628	5.83
440.987	5.74
441.345	5.73
441.704	5.78
442.063	5.61
442.421	5.77
442.78	5.74
443.138	5.81
443.497	5.68
443.855	5.99
444.214	5.76
444.572	5.76
444.93	6.01
445.288	5.85
445.647	5.84
446.005	5.75
446.363	5.8
446.721	5.69
447.079	5.81
447.437	5.79
447.795	5.75
448.153	5.77
448.51	5.69
448.868	5.81
449.226	5.86
449.584	5.82
449.941	5.98
450.299	5.87
450.656	6.12
451.014	5.97
451.371	5.94
451.729	5.99
452.086	5.86
452.443	5.8
452.801	6.02
453.158	5.81
453.515	5.81
453.872	6.02
454.229	6.03
454.586	6.05
454.943	5.92
455.3	6.07
455.657	5.98
456.014	6.08
456.371	6.1
456.727	6.01
457.084	5.84
457.441	5.99
457.797	6.18
458.154	6.08
458.51	5.94
458.867	6.12
459.223	6.13
459.58	6.04
459.936	5.97
460.292	6.1
460.648	6.04
461.005	5.96
461.361	5.96
461.717	6.04
462.073	6.01
462.429	6.14
462.785	6.12
463.141	6.19
463.496	6.27
463.852	6.26
464.208	6.29
464.564	6.29
464.919	6.25
465.275	6.29
465.631	6.14
465.986	6.2
466.342	6.22
466.697	6.2
467.052	6.4
467.408	6.18
467.763	6.14
468.118	6.2
468.473	6.38
468.829	6.22
469.184	6.41
469.539	6.15
469.894	6.23
470.249	6.3
470.603	6.53
470.958	6.49
471.313	6.32
471.668	6.4
472.023	6.44
472.377	6.32
472.732	6.24
473.086	6.35
473.441	6.42
473.795	6.47
474.15	6.52
474.504	6.31
474.859	6.33
475.213	6.4
475.567	6.49
475.921	6.51
476.275	6.49
476.63	6.49
476.984	6.4
477.338	6.73
477.692	6.5
478.045	6.44
478.399	6.64
478.753	6.41
479.107	6.54
479.461	6.53
479.814	6.44
480.168	6.55
480.521	6.51
480.875	6.64
481.228	6.5
481.582	6.46
481.935	6.55
482.289	6.51
482.642	6.51
482.995	6.5
483.348	6.44
483.701	6.4
484.055	6.42
484.408	6.31
484.761	6.15
485.114	6.15
485.466	6.15
485.819	6.21
486.172	6.33
486.525	6.37
486.878	6.41
487.23	6.58
487.583	6.49
487.936	6.49
488.288	6.38
488.641	6.35
488.993	6.3
489.345	6.33
489.698	6.41
490.05	6.43
490.402	6.55
490.754	6.64
491.107	6.66
491.459	6.7
491.811	6.69
492.163	6.63
492.515	6.56
492.866	6.4
493.218	6.37
493.57	6.54
493.922	6.54
494.274	6.65
494.625	6.74
494.977	6.79
495.328	6.87
495.68	7.01
496.031	7
496.383	6.85
496.734	6.91
497.086	6.82
497.437	7.01
497.788	6.82
498.139	6.89
498.49	6.88
498.842	6.85
499.193	6.87
499.544	7.07
499.894	6.92
500.245	6.99
500.596	7
500.947	7
501.298	6.95
501.648	7.05
501.999	7.2
502.35	7.01
502.7	7.1
503.051	7.2
503.401	7.07
503.752	7.13
504.102	7.01
504.452	7.11
504.803	7.08
505.153	7.09
505.503	7.21
505.853	7.05
506.203	7.23
506.553	7.14
506.903	7.09
507.253	7.17
507.603	7.3
507.953	7.23
508.303	7.31
508.652	7.2
509.002	7.21
509.352	7.26
509.701	7.23
510.051	7.17
510.4	7.3
510.75	7.28
511.099	7.15
511.449	7.27
511.798	7.41
512.147	7.36
512.496	7.37
512.846	7.35
513.195	7.25
513.544	7.35
513.893	7.25
514.242	7.44
514.591	7.35
514.939	7.36
515.288	7.46
515.637	7.58
515.986	7.36
516.334	7.48
516.683	7.48
517.032	7.41
517.38	7.37
517.729	7.49
518.077	7.66
518.426	7.5
518.774	7.4
519.122	7.43
519.47	7.4
519.819	7.39
520.167	7.41
520.515	7.46
520.863	7.48
521.211	7.47
521.559	7.59
521.907	7.5
522.255	7.63
522.602	7.63
522.95	7.63
523.298	7.7
523.645	7.69
523.993	7.79
524.341	7.73
524.688	7.75
525.036	7.85
525.383	7.78
525.73	7.72
526.078	7.74
526.425	7.69
526.772	7.55
527.119	7.58
527.466	7.58
527.814	7.59
528.161	7.66
528.508	7.68
528.854	7.53
529.201	7.6
529.548	7.47
529.895	7.38
530.242	7.41
530.588	7.5
530.935	7.54
531.282	7.64
531.628	7.65
531.975	7.76
532.321	7.79
532.667	7.78
533.014	7.94
533.36	7.83
533.706	7.85
534.052	7.78
534.399	7.73
534.745	7.64
535.091	7.74
535.437	7.79
535.783	7.87
536.129	8.01
536.474	8.04
536.82	8.1
537.166	8.15
537.512	8.06
537.857	8.05
538.203	7.98
538.549	8.11
538.894	8.12
539.239	8.14
539.585	8.17
539.93	8.3
540.276	8.24
540.621	8.22
540.966	8.26
541.311	8.35
541.656	8.12
542.001	8.24
542.346	8.02
542.691	7.96
543.036	7.95
543.381	8.08
543.726	8.18
544.071	8.25
544.415	8.2
544.76	8.2
545.105	8.38
545.449	8.34
545.794	8.34
546.138	8.49
546.483	8.47
546.827	8.48
547.171	8.49
547.516	8.53
547.86	8.48
548.204	8.4
548.548	8.57
548.892	8.53
549.236	8.69
549.58	8.67
549.924	8.72
550.268	8.83
550.612	8.79
550.956	8.62
551.3	8.74
551.643	8.86
551.987	8.91
552.33	8.8
552.674	8.91
553.017	8.89
553.361	8.92
553.704	8.98
554.048	8.9
554.391	8.91
554.734	8.93
555.077	8.97
555.42	8.87
555.764	8.98
556.107	9.07
556.45	8.99
556.793	9.18
557.135	9.24
557.478	9.16
557.821	9.16
558.164	9.23
558.507	9.2
558.849	9.15
559.192	9.39
559.534	9.25
559.877	9.42
560.219	9.44
560.562	9.36
560.904	9.26
561.246	9.42
561.589	9.62
561.931	9.67
562.273	9.34
562.615	9.33
562.957	9.39
563.299	9.4
563.641	9.47
563.983	9.39
564.325	9.19
564.667	9.28
565.008	9.46
565.35	9.64
565.692	9.77
566.033	9.57
566.375	9.42
566.716	9.67
567.058	9.61
567.399	9.63
567.741	9.38
568.082	9.39
568.423	9.63
568.764	9.73
569.105	9.78
569.447	9.71
569.788	9.94
570.129	9.8
570.47	9.92
570.811	9.67
571.151	9.93
571.492	10.01
571.833	9.92
572.174	9.87
572.514	9.86
572.855	9.88
573.195	9.72
573.536	9.88
573.876	9.89
574.217	9.97
574.557	10.09
574.898	10.01
575.238	9.96
575.578	10.15
575.918	9.96
576.258	10.09
576.598	10.09
576.938	10.23
577.278	10.14
577.618	10.07
577.958	10.14
578.298	10.4
578.638	10.23
578.977	10.29
579.317	10.37
579.657	10.35
579.996	10.33
580.336	10.36
580.675	10.62
581.014	10.55
581.354	10.46
581.693	10.37
582.032	10.29
582.372	10.58
582.711	10.54
583.05	10.61
583.389	10.7
583.728	10.81
584.067	10.61
584.406	10.7
584.745	10.53
585.083	11.04
585.422	10.64
585.761	10.99
586.1	11.01
586.438	10.58
586.777	10.91
587.115	10.76
587.454	11.01
587.792	10.84
588.13	11.04
588.469	11.11
588.807	11.15
589.145	11.01
589.483	10.86
589.821	10.96
590.159	10.89
590.497	10.85
590.835	10.97
591.173	11.15
591.511	11.36
591.849	11.27
592.187	11.2
592.524	11.04
592.862	11.25
593.2	11.21
593.537	11.49
593.875	11.34
594.212	11.39
594.55	11.23
594.887	11.55
595.224	11.48
595.561	11.25
595.899	11.22
596.236	11.34
596.573	11.46
596.91	11.49
597.247	11.25
597.584	11.44
597.921	11.25
598.258	11.42
598.594	11.19
598.931	11.35
599.268	11.62
599.604	11.71
599.941	11.5
600.277	11.56
600.614	11.84
600.95	11.91
601.287	11.97
601.623	11.9
601.959	11.48
602.296	11.8
602.632	11.96
602.968	11.85
603.304	11.5
603.64	11.88
603.976	11.99
604.312	12
604.648	11.97
604.984	11.89
605.319	11.87
605.655	11.74
605.991	11.95
606.326	11.86
606.662	11.86
606.998	11.84
607.333	11.98
607.668	12.17
608.004	12.07
608.339	12.12
608.674	12.06
609.01	12.06
609.345	12.4
609.68	12.07
610.015	12.08
610.35	12.19
610.685	12.06
611.02	12.13
611.355	12.31
611.689	12.2
612.024	12.46
612.359	12.62
612.694	12.42
613.028	12.62
613.363	12.43
613.697	12.63
614.032	12.56
614.366	12.59
614.7	12.62
615.035	12.33
615.369	12.75
615.703	12.57
616.037	12.42
616.371	12.55
616.705	12.6
617.039	13.05
617.373	12.49
617.707	12.86
618.041	12.74
618.375	12.5
618.709	12.98
619.042	12.8
619.376	12.57
619.71	12.62
620.043	12.75
620.377	12.59
620.71	12.82
621.043	12.76
621.377	13.1
621.71	13.14
622.043	13.27
622.376	12.71
622.709	12.98
623.043	12.82
623.376	13.1
623.709	13.46
624.041	12.92
624.374	12.92
624.707	12.97
625.04	13.24
625.373	13.1
625.705	13.26
626.038	13.28
626.37	13.13
626.703	13.28
627.035	13.32
627.368	13.6
627.7	13.24
628.032	13.25
628.365	13.33
628.697	13.19
629.029	13.47
629.361	13.31
629.693	13.77
630.025	13.33
630.357	13.26
630.689	13.83
631.021	13.6
631.353	13.72
631.684	13.69
632.016	13.68
632.348	13.73
632.679	13.5
633.011	13.73
633.342	13.58
633.674	13.77
634.005	13.55
634.336	13.89
634.668	13.62
634.999	13.84
635.33	13.71
635.661	13.62
635.992	13.63
636.323	13.78
636.654	14.1
636.985	13.71
637.316	13.85
637.647	14.12
637.977	13.93
638.308	13.85
638.639	13.66
638.969	13.52
639.3	14.32
639.63	13.79
639.961	14.22
640.291	14.28
640.622	14.48
640.952	14.15
641.282	13.97
641.612	13.87
641.943	14.37
642.273	14.37
642.603	14.17
642.933	14.04
643.263	14.83
643.592	14.49
643.922	14.73
644.252	14.38
644.582	14.27
644.911	14.28
645.241	14
645.571	14.48
645.9	14.65
646.23	13.96
646.559	14.74
646.888	14.38
647.218	14.76
647.547	14.77
647.876	14.71
648.205	14.89
648.534	14.42
648.863	14.92
649.192	14.73
649.521	14.35
649.85	15.14
650.179	14.4
650.508	14.22
650.837	14.41
651.165	15.14
651.494	14.78
651.822	14.69
652.151	14.88
652.479	15.21
652.808	14.64
653.136	15.14
653.465	15.29
653.793	14.99
654.121	15.17
654.449	15.03
654.777	15.03
655.105	15.15
655.433	15.08
655.761	15
656.089	15.58
656.417	14.98
656.745	15.5
657.073	15.36
657.4	15.31
657.728	14.75
658.056	14.92
658.383	15.44
658.711	15.03
659.038	15.69
659.365	15.09
659.693	15.15
660.02	15.07
660.347	15.06
660.674	15.04
661.001	15
661.329	15.23
661.656	15.14
661.982	15.42
662.309	15.84
662.636	15.71
662.963	15.73
663.29	15.65
663.616	15.55
663.943	15.56
664.27	15.68
664.596	15.38
664.923	15.44
665.249	15.6
665.576	15.25
665.902	15.52
666.228	15.32
666.554	15.41
666.881	15.74
667.207	15.47
667.533	15.8
667.859	15.77
668.185	16.4
668.511	16.06
668.837	15.19
669.162	15.78
669.488	16.04
669.814	16.35
670.139	16.11
670.465	15.86
670.791	16.19
671.116	15.66
671.442	16.26
671.767	15.7
672.092	15.94
672.418	16.28
672.743	15.82
673.068	16.05
673.393	16.49
673.718	16.33
674.043	16.17
674.368	16.61
674.693	16.29
675.018	15.77
675.343	16.1
675.667	16.34
675.992	15.4
676.317	16.14
676.641	16.23
676.966	16.07
677.29	16.55
677.615	16.5
677.939	16.19
678.264	16.07
678.588	16.54
678.912	16.7
679.236	16.22
679.56	16.38
679.885	16.92
680.209	16.17
680.532	16.05
680.856	16.87
681.18	16.4
681.504	16.33
681.828	16.27
682.152	16.69
682.475	16.46
682.799	17.15
683.122	16.77
683.446	16.23
683.769	16.68
684.093	16.2
684.416	16.86
684.739	17.43
685.062	17.12
