Data from 0062_chest_Reflection__3__196.txt Node

Date: Fri Dec 16 15:32:31 CST 2022
User: ToomeyLab
Spectrometer: FLMS14357
Trigger mode: 0
Integration Time (sec): 1.000000E-2
Scans to average: 100
Electric dark correction enabled: true
Nonlinearity correction enabled: false
Boxcar width: 0
XAxis mode: Wavelengths
Number of Pixels in Spectrum: 2048
>>>>>Begin Spectral Data<<<<<
189.047	-386.34
189.435	-386.34
189.823	-386.34
190.211	5.85
190.599	-255.71
190.987	-12.02
191.375	64.07
191.763	-6.2
192.151	64.06
192.538	60.83
192.926	99.97
193.314	212.35
193.702	-184.61
194.089	-2.12
194.477	-140.98
194.864	69.91
195.252	-38.57
195.639	65.4
196.027	-84.63
196.414	-140.63
196.801	-243.06
197.189	378.75
197.576	297.33
197.963	-32.63
198.351	36.32
198.738	81.96
199.125	49.8
199.512	-33.69
199.899	-49.65
200.286	-82.68
200.673	9.9
201.06	47.06
201.447	19.57
201.833	30
202.22	34.91
202.607	22.07
202.994	2.9
203.38	-25.72
203.767	-26.95
204.154	-22.98
204.54	34.63
204.927	20.68
205.313	80.98
205.699	5.77
206.086	16.57
206.472	-6.12
206.858	-6.32
207.245	8.99
207.631	-36.84
208.017	29.41
208.403	-1.89
208.789	-11.47
209.175	22.38
209.561	-15.77
209.947	-5.2
210.333	-49.57
210.719	3.34
211.105	-15.9
211.491	-9.08
211.876	-4.48
212.262	-64.6
212.648	-41.08
213.034	-21.17
213.419	8.46
213.805	-4.17
214.19	-13.68
214.576	-17.87
214.961	-24.63
215.346	-41.96
215.732	-24.86
216.117	7.09
216.502	-38.57
216.888	-74.89
217.273	14.26
217.658	-16.1
218.043	-9.98
218.428	1.52
218.813	-19.52
219.198	-74.27
219.583	-31.73
219.968	-7.61
220.353	10.13
220.738	-11.11
221.122	-15.63
221.507	-0.89
221.892	3.77
222.276	2.39
222.661	-9.3
223.046	-9.62
223.43	-17.9
223.815	-3.86
224.199	4.8
224.583	2.21
224.968	10.09
225.352	-8.49
225.736	0.7
226.121	0.76
226.505	-5.93
226.889	8.06
227.273	2.43
227.657	-2.59
228.041	4.88
228.425	2.73
228.809	2.02
229.193	-0.1
229.577	3.56
229.961	2.87
230.344	3.04
230.728	2.98
231.112	3.27
231.495	2.2
231.879	1.84
232.263	0.1
232.646	1.87
233.03	2.16
233.413	2.82
233.797	4.77
234.18	2.11
234.563	1.6
234.946	3.7
235.33	2.85
235.713	3
236.096	3.32
236.479	3.75
236.862	3.64
237.245	3.72
237.628	3.96
238.011	3.3
238.394	4.62
238.777	1.65
239.16	2.26
239.543	2.4
239.925	2.82
240.308	4.57
240.691	2.77
241.073	3.32
241.456	3.13
241.838	1.96
242.221	3.07
242.603	3.47
242.986	3.81
243.368	3.08
243.75	3.26
244.133	3.55
244.515	3.08
244.897	2.42
245.279	3.78
245.661	2.53
246.043	3.79
246.425	2.18
246.807	3.6
247.189	2.99
247.571	3.85
247.953	3.21
248.335	3.22
248.717	3.52
249.098	3.39
249.48	2.84
249.862	3.35
250.243	3.28
250.625	3.24
251.006	2.67
251.388	3.43
251.769	2.63
252.151	3.37
252.532	3.19
252.913	3.01
253.295	3.21
253.676	3.76
254.057	3.25
254.438	3.42
254.819	2.5
255.2	3.17
255.581	2.62
255.962	2.55
256.343	2.78
256.724	3.36
257.105	2.07
257.486	2.71
257.867	1.2
258.247	3.02
258.628	2.8
259.009	2.69
259.389	2.99
259.77	2.96
260.15	3.7
260.531	3.28
260.911	3.19
261.292	3.02
261.672	3.05
262.052	2.97
262.432	2.6
262.813	2.93
263.193	2.43
263.573	2.77
263.953	3.01
264.333	3.02
264.713	2.92
265.093	2.48
265.473	3.55
265.853	3.36
266.233	2.1
266.612	2.99
266.992	2.11
267.372	3.01
267.752	2.32
268.131	2.85
268.511	3.19
268.89	2.84
269.27	3.4
269.649	3.16
270.029	2.78
270.408	2.6
270.787	2.61
271.167	3.31
271.546	2.53
271.925	2.78
272.304	3.07
272.683	2.77
273.062	3.08
273.441	3.3
273.82	3.24
274.199	2.89
274.578	2.94
274.957	2.59
275.336	2.55
275.715	3.8
276.093	3.2
276.472	3.26
276.851	2.74
277.229	3.05
277.608	3
277.986	2.58
278.365	2.91
278.743	3.02
279.122	2.65
279.5	2.04
279.878	1.9
280.257	3.37
280.635	2.76
281.013	2.66
281.391	2.4
281.769	2.53
282.147	2.5
282.525	2.61
282.903	2.59
283.281	2.83
283.659	2.92
284.037	2.57
284.415	2.61
284.792	2.84
285.17	2.92
285.548	2.59
285.925	2.8
286.303	2.17
286.68	3.04
287.058	2.62
287.435	2.59
287.813	2.75
288.19	2.84
288.567	2.39
288.945	2.9
289.322	2.73
289.699	2.71
290.076	3.29
290.453	3.03
290.83	3.04
291.207	2.82
291.584	2.55
291.961	2.88
292.338	2.59
292.715	2.74
293.092	2.8
293.469	2.79
293.845	2.82
294.222	2.81
294.599	3.29
294.975	3.24
295.352	2.3
295.728	2.89
296.105	2.37
296.481	3.32
296.858	3.01
297.234	2.75
297.61	2.88
297.986	2.93
298.363	2.59
298.739	2.91
299.115	2.79
299.491	2.76
299.867	3.07
300.243	2.95
300.619	2.66
300.995	3.02
301.371	2.6
301.746	2.33
302.122	2.96
302.498	3.11
302.874	3.15
303.249	2.92
303.625	2.73
304	2.64
304.376	3.31
304.751	2.64
305.127	2.5
305.502	3.2
305.878	2.83
306.253	2.5
306.628	2.51
307.003	2.98
307.378	2.74
307.754	3.13
308.129	2.3
308.504	2.96
308.879	2.88
309.254	3.21
309.629	2.61
310.003	3.2
310.378	3.09
310.753	2.65
311.128	3.05
311.502	2.34
311.877	3.05
312.252	2.72
312.626	2.98
313.001	2.76
313.375	2.94
313.75	3.15
314.124	3.31
314.498	2.56
314.873	2.71
315.247	2.56
315.621	3.29
315.995	2.86
316.369	3.21
316.743	3.27
317.117	2.99
317.491	2.83
317.865	2.29
318.239	2.93
318.613	2.73
318.987	3
319.361	3.18
319.734	2.98
320.108	3.08
320.482	2.8
320.855	3.42
321.229	3.46
321.602	3.08
321.976	2.78
322.349	2.49
322.723	3.05
323.096	2.73
323.469	2.89
323.843	3.14
324.216	3.08
324.589	3.23
324.962	3.11
325.335	2.9
325.708	2.82
326.081	2.95
326.454	3.01
326.827	3.37
327.2	3.59
327.573	3.48
327.945	2.84
328.318	3.08
328.691	2.88
329.063	3.23
329.436	2.91
329.809	2.83
330.181	2.77
330.553	3.18
330.926	3.12
331.298	2.59
331.671	3.53
332.043	3.01
332.415	3.31
332.787	3.67
333.159	3.14
333.532	3.07
333.904	2.89
334.276	3.35
334.648	3.01
335.02	2.96
335.391	3.08
335.763	3.07
336.135	3.46
336.507	3.42
336.879	2.6
337.25	3.5
337.622	3.03
337.993	2.95
338.365	3.3
338.736	3.71
339.108	3.18
339.479	2.78
339.851	3.6
340.222	3.09
340.593	2.93
340.964	3.25
341.336	2.69
341.707	3.11
342.078	2.75
342.449	3.38
342.82	3.16
343.191	2.67
343.562	3.02
343.933	3.18
344.303	3.18
344.674	3.08
345.045	3.51
345.416	3.4
345.786	2.46
346.157	3.15
346.527	3.12
346.898	3.24
347.268	2.56
347.639	3.1
348.009	3.29
348.38	2.89
348.75	3.07
349.12	3.01
349.49	2.73
349.861	3.27
350.231	3.29
350.601	2.96
350.971	2.86
351.341	3.29
351.711	3.4
352.081	3.02
352.45	3.18
352.82	3.3
353.19	3.15
353.56	2.91
353.929	3.18
354.299	3.09
354.669	3.35
355.038	3.11
355.408	3.15
355.777	3.06
356.147	3.14
356.516	3.41
356.885	2.87
357.254	3.29
357.624	3.17
357.993	2.95
358.362	3.34
358.731	2.81
359.1	3.12
359.469	3.02
359.838	2.88
360.207	2.85
360.576	3.01
360.945	2.87
361.314	3.45
361.682	2.99
362.051	3.04
362.42	3.44
362.788	3.1
363.157	3.08
363.525	2.95
363.894	2.98
364.262	2.9
364.631	3.92
364.999	2.64
365.367	3.34
365.735	2.92
366.104	3.03
366.472	3.42
366.84	3.09
367.208	3.09
367.576	3.11
367.944	3.36
368.312	2.53
368.68	3.07
369.048	3.18
369.416	3.07
369.783	3.19
370.151	2.78
370.519	2.91
370.886	3.02
371.254	3.45
371.621	3.17
371.989	3.1
372.356	3.38
372.724	3.17
373.091	3.14
373.458	3.15
373.826	3.35
374.193	3.6
374.56	3.15
374.927	3.03
375.294	3.38
375.661	3.14
376.028	3
376.395	3.05
376.762	3.47
377.129	3.27
377.496	3.01
377.863	3.18
378.229	3.1
378.596	2.84
378.963	3.06
379.329	3.02
379.696	3
380.062	3.21
380.429	3.32
380.795	3.15
381.161	3.03
381.528	3.02
381.894	3.39
382.26	3.11
382.626	3.31
382.993	3.09
383.359	2.82
383.725	3.28
384.091	3.06
384.457	3.26
384.823	3.22
385.188	3.46
385.554	3.34
385.92	3.56
386.286	3.24
386.651	3.03
387.017	3.37
387.383	3.43
387.748	3.07
388.114	3.59
388.479	3.23
388.845	3.39
389.21	3.39
389.575	3.49
389.94	3.31
390.306	3.19
390.671	3.4
391.036	3.41
391.401	3.55
391.766	3.49
392.131	3.2
392.496	3.32
392.861	2.97
393.226	3.34
393.591	3.34
393.956	3.54
394.32	3.46
394.685	3.34
395.05	3.29
395.414	3.58
395.779	3.26
396.143	3.36
396.508	3.31
396.872	3.57
397.236	3.07
397.601	3.53
397.965	3.14
398.329	3.44
398.694	3
399.058	3.45
399.422	3.45
399.786	3.3
400.15	3.25
400.514	3.07
400.878	3.21
401.242	3.6
401.605	3.42
401.969	3.24
402.333	3.33
402.697	3.63
403.06	3.6
403.424	3.36
403.787	3.52
404.151	3.22
404.514	3.58
404.878	3.36
405.241	3.51
405.604	3.35
405.968	3.2
406.331	3.44
406.694	3.39
407.057	3.57
407.42	3.51
407.783	3.42
408.146	3.33
408.509	3.38
408.872	3.35
409.235	3.63
409.598	3.66
409.961	3.65
410.323	3.31
410.686	3.47
411.049	3.23
411.411	3.4
411.774	3.49
412.136	3.54
412.499	3.51
412.861	3.28
413.223	3.5
413.586	3.44
413.948	3.41
414.31	3.41
414.672	3.34
415.035	3.59
415.397	3.53
415.759	3.54
416.121	3.47
416.483	3.42
416.845	3.6
417.206	3.42
417.568	3.51
417.93	3.47
418.292	3.59
418.653	3.64
419.015	3.55
419.377	3.62
419.738	3.36
420.1	3.44
420.461	3.3
420.822	3.4
421.184	3.41
421.545	3.5
421.906	3.41
422.267	3.26
422.629	3.39
422.99	3.47
423.351	3.53
423.712	3.36
424.073	3.47
424.434	3.42
424.795	3.4
425.155	3.35
425.516	3.29
425.877	3.45
426.238	3.35
426.598	3.47
426.959	3.35
427.32	3.44
427.68	3.51
428.041	3.44
428.401	3.44
428.761	3.37
429.122	3.4
429.482	3.54
429.842	3.54
430.202	3.37
430.563	3.48
430.923	3.35
431.283	3.58
431.643	3.42
432.003	3.59
432.363	3.77
432.722	3.38
433.082	3.48
433.442	3.53
433.802	3.57
434.161	3.52
434.521	3.49
434.881	3.61
435.24	3.54
435.6	3.53
435.959	3.58
436.319	3.64
436.678	3.53
437.037	3.64
437.396	3.55
437.756	3.64
438.115	3.6
438.474	3.64
438.833	3.57
439.192	3.57
439.551	3.58
439.91	3.64
440.269	3.68
440.628	3.59
440.987	3.41
441.345	3.48
441.704	3.5
442.063	3.57
442.421	3.56
442.78	3.52
443.138	3.57
443.497	3.54
443.855	3.58
444.214	3.7
444.572	3.64
444.93	3.69
445.288	3.55
445.647	3.68
446.005	3.44
446.363	3.44
446.721	3.43
447.079	3.6
447.437	3.53
447.795	3.5
448.153	3.46
448.51	3.49
448.868	3.63
449.226	3.67
449.584	3.57
449.941	3.66
450.299	3.54
450.656	3.61
451.014	3.57
451.371	3.69
451.729	3.67
452.086	3.45
452.443	3.57
452.801	3.8
453.158	3.43
453.515	3.58
453.872	3.6
454.229	3.48
454.586	3.8
454.943	3.67
455.3	3.8
455.657	3.63
456.014	3.61
456.371	3.78
456.727	3.57
457.084	3.64
457.441	3.65
457.797	3.61
458.154	3.71
458.51	3.71
458.867	3.55
459.223	3.64
459.58	3.73
459.936	3.63
460.292	3.75
460.648	3.6
461.005	3.44
461.361	3.59
461.717	3.62
462.073	3.63
462.429	3.72
462.785	3.68
463.141	3.93
463.496	3.56
463.852	3.77
464.208	3.83
464.564	3.54
464.919	3.63
465.275	3.68
465.631	3.81
465.986	3.58
466.342	3.63
466.697	3.67
467.052	3.83
467.408	3.69
467.763	3.53
468.118	3.84
468.473	3.82
468.829	3.71
469.184	3.79
469.539	3.59
469.894	3.69
470.249	3.78
470.603	3.73
470.958	3.73
471.313	3.73
471.668	3.82
472.023	3.98
472.377	3.79
472.732	3.71
473.086	3.61
473.441	3.75
473.795	3.85
474.15	3.75
474.504	3.83
474.859	3.69
475.213	3.83
475.567	3.81
475.921	3.87
476.275	3.89
476.63	3.74
476.984	3.81
477.338	3.99
477.692	3.85
478.045	3.78
478.399	3.88
478.753	3.71
479.107	3.78
479.461	3.86
479.814	3.81
480.168	3.91
480.521	3.75
480.875	3.94
481.228	3.91
481.582	3.77
481.935	3.78
482.289	3.78
482.642	3.9
482.995	3.76
483.348	3.78
483.701	3.78
484.055	3.76
484.408	3.7
484.761	3.6
485.114	3.57
485.466	3.58
485.819	3.58
486.172	3.65
486.525	3.67
486.878	3.73
487.23	3.71
487.583	3.68
487.936	3.82
488.288	3.68
488.641	3.67
488.993	3.58
489.345	3.66
489.698	3.73
490.05	3.74
490.402	3.79
490.754	3.84
491.107	3.85
491.459	3.91
491.811	3.91
492.163	3.79
492.515	3.85
492.866	3.74
493.218	3.68
493.57	3.77
493.922	3.79
494.274	3.78
494.625	3.79
494.977	3.87
495.328	3.96
495.68	3.95
496.031	3.97
496.383	3.92
496.734	3.97
497.086	3.83
497.437	4.06
497.788	3.91
498.139	4.03
498.49	3.93
498.842	3.85
499.193	3.91
499.544	4.05
499.894	3.91
500.245	3.93
500.596	3.93
500.947	4
501.298	4.05
501.648	4.02
501.999	4.09
502.35	4.04
502.7	4.13
503.051	4.07
503.401	4.05
503.752	3.99
504.102	4.01
504.452	3.9
504.803	3.85
505.153	4.08
505.503	4
505.853	4.08
506.203	3.96
506.553	4.06
506.903	3.89
507.253	4.09
507.603	4.1
507.953	4.2
508.303	4.09
508.652	4.01
509.002	4.18
509.352	4.05
509.701	4.08
510.051	4.08
510.4	4.05
510.75	4.04
511.099	4.01
511.449	4.1
511.798	4.25
512.147	4.12
512.496	4.15
512.846	3.99
513.195	4.11
513.544	4.15
513.893	4.06
514.242	4.18
514.591	4.16
514.939	4.07
515.288	4.21
515.637	4.32
515.986	4.18
516.334	4.23
516.683	4.21
517.032	4.2
517.38	4.2
517.729	4.26
518.077	4.29
518.426	4.19
518.774	4.19
519.122	4.22
519.47	4.18
519.819	4.22
520.167	4.15
520.515	4.12
520.863	4.22
521.211	4.19
521.559	4.2
521.907	4.25
522.255	4.36
522.602	4.28
522.95	4.4
523.298	4.27
523.645	4.17
523.993	4.34
524.341	4.31
524.688	4.25
525.036	4.41
525.383	4.38
525.73	4.41
526.078	4.33
526.425	4.3
526.772	4.18
527.119	4.29
527.466	4.27
527.814	4.26
528.161	4.35
528.508	4.32
528.854	4.28
529.201	4.27
529.548	4.19
529.895	4.19
530.242	4.18
530.588	4.21
530.935	4.23
531.282	4.26
531.628	4.3
531.975	4.33
532.321	4.44
532.667	4.38
533.014	4.35
533.36	4.46
533.706	4.42
534.052	4.41
534.399	4.33
534.745	4.32
535.091	4.35
535.437	4.41
535.783	4.5
536.129	4.46
536.474	4.51
536.82	4.52
537.166	4.6
537.512	4.57
537.857	4.57
538.203	4.54
538.549	4.63
538.894	4.52
539.239	4.68
539.585	4.68
539.93	4.74
540.276	4.59
540.621	4.63
540.966	4.7
541.311	4.73
541.656	4.59
542.001	4.65
542.346	4.62
542.691	4.51
543.036	4.51
543.381	4.63
543.726	4.66
544.071	4.71
544.415	4.69
544.76	4.63
545.105	4.68
545.449	4.68
545.794	4.71
546.138	4.86
546.483	4.77
546.827	4.81
547.171	4.76
547.516	4.96
547.86	4.83
548.204	4.87
548.548	4.95
548.892	4.88
549.236	4.95
549.58	4.81
549.924	4.9
550.268	5.03
550.612	5.08
550.956	5.06
551.3	5.04
551.643	5.16
551.987	5.04
552.33	5.19
552.674	5.21
553.017	4.93
553.361	5.18
553.704	5.01
554.048	5.22
554.391	5.02
554.734	5.17
555.077	5.15
555.42	5.14
555.764	5.14
556.107	5.14
556.45	5.13
556.793	5.44
557.135	5.35
557.478	5.42
557.821	5.25
558.164	5.45
558.507	5.27
558.849	5.19
559.192	5.44
559.534	5.26
559.877	5.35
560.219	5.69
560.562	5.63
560.904	5.56
561.246	5.6
561.589	5.46
561.931	5.86
562.273	5.33
562.615	5.53
562.957	5.46
563.299	5.6
563.641	5.73
563.983	5.61
564.325	5.39
564.667	5.67
565.008	5.52
565.35	5.82
565.692	5.76
566.033	5.72
566.375	5.53
566.716	5.76
567.058	5.87
567.399	5.64
567.741	5.79
568.082	5.69
568.423	5.75
568.764	5.87
569.105	5.73
569.447	5.87
569.788	5.84
570.129	5.96
570.47	5.91
570.811	5.98
571.151	6.02
571.492	6.13
571.833	5.93
572.174	5.93
572.514	5.81
572.855	6.06
573.195	5.83
573.536	5.99
573.876	6
574.217	6.1
574.557	6.14
574.898	6.05
575.238	6.16
575.578	6.34
575.918	6.13
576.258	6.28
576.598	6.28
576.938	6.41
577.278	6.21
577.618	6.15
577.958	6.29
578.298	6.34
578.638	6.28
578.977	6.36
579.317	6.51
579.657	6.54
579.996	6.47
580.336	6.37
580.675	6.47
581.014	6.65
581.354	6.64
581.693	6.51
582.032	6.42
582.372	6.64
582.711	6.71
583.05	6.83
583.389	6.74
583.728	6.52
584.067	6.7
584.406	6.93
584.745	7.04
585.083	7.01
585.422	6.91
585.761	6.98
586.1	7.1
586.438	6.74
586.777	7.02
587.115	7
587.454	6.9
587.792	6.9
588.13	7.14
588.469	7.25
588.807	7.22
589.145	7.11
589.483	6.99
589.821	7.16
590.159	7.34
590.497	6.96
590.835	7.27
591.173	7.34
591.511	7.3
591.849	7.39
592.187	7.23
592.524	7.26
592.862	7.39
593.2	7.42
593.537	7.17
593.875	7.42
594.212	7.62
594.55	7.44
594.887	7.56
595.224	7.47
595.561	7.55
595.899	7.47
596.236	7.59
596.573	7.57
596.91	7.68
597.247	7.45
597.584	7.98
597.921	7.67
598.258	7.71
598.594	7.43
598.931	7.63
599.268	7.83
599.604	7.8
599.941	8
600.277	7.7
600.614	7.83
600.95	8
601.287	8.06
601.623	8.05
601.959	7.95
602.296	8.16
602.632	8.14
602.968	8.2
603.304	8.05
603.64	8.27
603.976	8.22
604.312	8.37
604.648	8.09
604.984	8.22
605.319	8.11
605.655	8.37
605.991	8.3
606.326	8.22
606.662	8.17
606.998	8.32
607.333	8.19
607.668	8.18
608.004	8.31
608.339	8.7
608.674	8.28
609.01	8.77
609.345	8.69
609.68	8.39
610.015	8.55
610.35	8.59
610.685	8.74
611.02	8.81
611.355	8.92
611.689	8.49
612.024	8.83
612.359	8.86
612.694	8.81
613.028	9.24
613.363	8.89
613.697	8.99
614.032	9.17
614.366	9.08
614.7	9.23
615.035	8.82
615.369	9.04
615.703	9.57
616.037	9.04
616.371	9.14
616.705	9.35
617.039	9.3
617.373	9.24
617.707	9.22
618.041	9.72
618.375	9.23
618.709	9.39
619.042	9.46
619.376	9.41
619.71	9.47
620.043	9.59
620.377	9.53
620.71	9.62
621.043	9.49
621.377	9.69
621.71	9.93
622.043	9.97
622.376	9.68
622.709	9.75
623.043	9.68
623.376	10
623.709	9.75
624.041	9.93
624.374	9.8
624.707	9.77
625.04	10.1
625.373	9.99
625.705	9.83
626.038	10.18
626.37	10.2
626.703	10.07
627.035	10.32
627.368	10.14
627.7	10.48
628.032	10.13
628.365	10.07
628.697	9.97
629.029	10.66
629.361	10.31
629.693	10.52
630.025	10.37
630.357	10.57
630.689	10.81
631.021	10.59
631.353	10.69
631.684	10.71
632.016	10.38
632.348	10.61
632.679	10.46
633.011	10.96
633.342	10.37
633.674	10.6
634.005	10.89
634.336	10.89
634.668	10.8
634.999	10.71
635.33	10.88
635.661	10.89
635.992	10.87
636.323	11
636.654	11.02
636.985	11.33
637.316	11.26
637.647	11.43
637.977	11.18
638.308	10.76
638.639	11.05
638.969	11.22
639.3	11.46
639.63	11.51
639.961	11.11
640.291	11.54
640.622	11.49
640.952	11.56
641.282	11.26
641.612	11.69
641.943	11.64
642.273	11.4
642.603	11.64
642.933	11.41
643.263	11.96
643.592	11.67
643.922	12.01
644.252	12.04
644.582	11.66
644.911	11.61
645.241	11.83
645.571	12.22
645.9	12.12
646.23	11.86
646.559	12.07
646.888	11.64
647.218	12.2
647.547	12.08
647.876	12.46
648.205	12.06
648.534	11.67
648.863	12.16
649.192	12.02
649.521	11.64
649.85	12.63
650.179	12.07
650.508	12.37
650.837	12.5
651.165	12.72
651.494	12.83
651.822	12.63
652.151	12.9
652.479	12.69
652.808	12.3
653.136	12.55
653.465	12.77
653.793	12.62
654.121	13.21
654.449	12.93
654.777	13.02
655.105	12.81
655.433	12.95
655.761	12.93
656.089	13.47
656.417	12.9
656.745	13.59
657.073	13.31
657.4	12.92
657.728	13.13
658.056	12.77
658.383	13.43
658.711	12.83
659.038	13.25
659.365	13.44
659.693	13.06
660.02	13.05
660.347	13.48
660.674	12.97
661.001	13.23
661.329	13.4
661.656	13.45
661.982	13.84
662.309	13.22
662.636	13.61
662.963	13.7
663.29	13.67
663.616	13.7
663.943	14.11
664.27	13.91
664.596	13.67
664.923	14.02
665.249	13.97
665.576	14.03
665.902	13.94
666.228	13.16
666.554	13.53
666.881	14.25
667.207	14.01
667.533	14.12
667.859	13.79
668.185	14.25
668.511	13.79
668.837	13.78
669.162	14.05
669.488	14.21
669.814	14.63
670.139	14.93
670.465	14.77
670.791	14.76
671.116	14.58
671.442	14.59
671.767	14.21
672.092	14.74
672.418	14.88
672.743	14.63
673.068	14.73
673.393	14.8
673.718	14.43
674.043	14.87
674.368	15.02
674.693	15.15
675.018	14.86
675.343	14.63
675.667	14.9
675.992	14.24
676.317	14.72
676.641	14.82
676.966	15.23
677.29	15.39
677.615	14.9
677.939	15.37
678.264	15.06
678.588	15.65
678.912	15.36
679.236	15.28
679.56	15.09
679.885	15.62
680.209	15.15
680.532	15.46
680.856	15.88
681.18	15.2
681.504	15.21
681.828	15.48
682.152	15.39
682.475	15.59
682.799	15.86
683.122	15.58
683.446	16
683.769	15.96
684.093	16.2
684.416	15.3
684.739	16.02
685.062	15.91
685.386	16.04
685.709	15.62
686.032	15.51
686.355	16.19
686.678	16.06
687.001	15.28
687.324	15.92
687.646	15.81
687.969	16.18
688.292	16.33
