Data from 0062_forehead_Reflection__2__205.txt Node

Date: Fri Dec 16 15:35:04 CST 2022
User: ToomeyLab
Spectrometer: FLMS14357
Trigger mode: 0
Integration Time (sec): 1.000000E-2
Scans to average: 100
Electric dark correction enabled: true
Nonlinearity correction enabled: false
Boxcar width: 0
XAxis mode: Wavelengths
Number of Pixels in Spectrum: 2048
>>>>>Begin Spectral Data<<<<<
189.047	-251.54
189.435	-251.54
189.823	-251.54
190.211	53.46
190.599	9.49
190.987	-46.36
191.375	56.23
191.763	551.87
192.151	-77.99
192.538	16.77
192.926	-88.14
193.314	207.36
193.702	170.64
194.089	18.2
194.477	-138.88
194.864	41.92
195.252	26.76
195.639	78.99
196.027	-167.26
196.414	-244.62
196.801	342.27
197.189	169.54
197.576	564.2
197.963	-390.06
198.351	32.88
198.738	-18.65
199.125	52.09
199.512	3.63
199.899	-38.13
200.286	-38.29
200.673	56.05
201.06	3.61
201.447	27.05
201.833	34.71
202.22	22.43
202.607	0.77
202.994	17.76
203.38	-59.79
203.767	-50.63
204.154	-7.73
204.54	-0.07
204.927	-13.76
205.313	50.74
205.699	-8.56
206.086	-11.1
206.472	-4.78
206.858	3.63
207.245	36.07
207.631	-27.37
208.017	-13.6
208.403	29.2
208.789	-19.28
209.175	36.8
209.561	10.26
209.947	-19.58
210.333	-18.09
210.719	-18.98
211.105	-27.63
211.491	15.53
211.876	0.35
212.262	-43.38
212.648	-22.01
213.034	-19.55
213.419	-8.97
213.805	-3.12
214.19	0.48
214.576	-10.2
214.961	-33
215.346	-70.55
215.732	14.51
216.117	-3.59
216.502	1.23
216.888	-14.11
217.273	9.89
217.658	-9.34
218.043	1.55
218.428	0.59
218.813	3.34
219.198	-29.04
219.583	-7.98
219.968	3.2
220.353	1.9
220.738	-12.04
221.122	-11.37
221.507	-25.94
221.892	-12.21
222.276	1.06
222.661	-7.45
223.046	6.64
223.43	-1.01
223.815	5.93
224.199	4.54
224.583	-6.23
224.968	-0.09
225.352	-6.49
225.736	3.74
226.121	-7.21
226.505	-4.97
226.889	3.87
227.273	2.11
227.657	-2.23
228.041	5.01
228.425	2.54
228.809	0.86
229.193	-1.37
229.577	0.44
229.961	0.85
230.344	1.56
230.728	1.03
231.112	0.08
231.495	-0.92
231.879	1.44
232.263	0.95
232.646	-0.26
233.03	0.06
233.413	0.58
233.797	1.71
234.18	-2.43
234.563	2.78
234.946	-1.22
235.33	1.75
235.713	0.62
236.096	2.18
236.479	1.08
236.862	1.73
237.245	2.22
237.628	2.27
238.011	2.7
238.394	3.57
238.777	2.52
239.16	-1.99
239.543	0.14
239.925	3.75
240.308	-0.67
240.691	0.59
241.073	1.25
241.456	-0.16
241.838	0.75
242.221	1.15
242.603	0.04
242.986	2.01
243.368	1.11
243.75	0.94
244.133	1.3
244.515	1.81
244.897	0.85
245.279	1.54
245.661	0.42
246.043	2.01
246.425	1.68
246.807	2.32
247.189	0.97
247.571	1.62
247.953	1.26
248.335	1.63
248.717	1.45
249.098	1.41
249.48	1.44
249.862	1.62
250.243	1.55
250.625	1.36
251.006	1.43
251.388	2.26
251.769	1.56
252.151	1.11
252.532	0.93
252.913	1.4
253.295	1.35
253.676	2.14
254.057	1.28
254.438	0.9
254.819	0.93
255.2	1.15
255.581	0.91
255.962	1.14
256.343	2.13
256.724	1.79
257.105	0.73
257.486	1.46
257.867	-0.07
258.247	1.06
258.628	2.47
259.009	1.05
259.389	2.16
259.77	1.97
260.15	1.99
260.531	1.48
260.911	1.5
261.292	1.45
261.672	1.29
262.052	1.6
262.432	1.23
262.813	1.69
263.193	1.32
263.573	0.99
263.953	1.71
264.333	1.68
264.713	0.76
265.093	1.06
265.473	1.72
265.853	1.31
266.233	1.57
266.612	0.98
266.992	1.05
267.372	1.78
267.752	1.26
268.131	1.24
268.511	1.29
268.89	1.97
269.27	1.8
269.649	2.13
270.029	1.39
270.408	1.39
270.787	1.76
271.167	1.45
271.546	1.5
271.925	1.41
272.304	1.97
272.683	1.19
273.062	2.01
273.441	1.81
273.82	1.76
274.199	1.7
274.578	1.16
274.957	1.63
275.336	1.42
275.715	1.99
276.093	1.86
276.472	1.56
276.851	2.14
277.229	2.32
277.608	1.5
277.986	1.31
278.365	1.55
278.743	2.02
279.122	1.05
279.5	1.17
279.878	1.12
280.257	1.63
280.635	1.41
281.013	1.79
281.391	1.65
281.769	1.07
282.147	2.03
282.525	1.45
282.903	1.8
283.281	1.56
283.659	1.36
284.037	1.24
284.415	1.36
284.792	1.6
285.17	1.16
285.548	1.16
285.925	1.28
286.303	1.17
286.68	1.74
287.058	1.5
287.435	1.18
287.813	1.53
288.19	1.8
288.567	1.34
288.945	1.47
289.322	1.61
289.699	1.57
290.076	1.67
290.453	1.21
290.83	1.5
291.207	1.53
291.584	1.66
291.961	1.88
292.338	1.61
292.715	2.08
293.092	1.42
293.469	1.67
293.845	2.27
294.222	1.56
294.599	1.92
294.975	1.68
295.352	1.63
295.728	1.77
296.105	1.92
296.481	2
296.858	1.44
297.234	1.59
297.61	1.58
297.986	1.88
298.363	1.57
298.739	2.07
299.115	1.47
299.491	1.53
299.867	1.66
300.243	1.77
300.619	1.87
300.995	1.96
301.371	1.95
301.746	1.81
302.122	2.19
302.498	1.84
302.874	1.62
303.249	2.34
303.625	2.21
304	1.45
304.376	1.82
304.751	1.86
305.127	1.71
305.502	2.37
305.878	1.76
306.253	2.04
306.628	2.24
307.003	2.09
307.378	1.96
307.754	2.51
308.129	2.12
308.504	2.25
308.879	1.92
309.254	2.71
309.629	2.2
310.003	2.39
310.378	2.51
310.753	2.65
311.128	2.26
311.502	2.11
311.877	2.43
312.252	2.26
312.626	2.4
313.001	2.16
313.375	2.59
313.75	2.51
314.124	3.12
314.498	2.2
314.873	2.82
315.247	2.43
315.621	3.18
315.995	2.65
316.369	3.07
316.743	3.19
317.117	2.97
317.491	2.75
317.865	2.92
318.239	2.98
318.613	2.47
318.987	2.95
319.361	2.85
319.734	2.65
320.108	3.06
320.482	2.65
320.855	3.14
321.229	3.39
321.602	3.01
321.976	3.48
322.349	3.27
322.723	2.63
323.096	2.88
323.469	3.01
323.843	3
324.216	3.11
324.589	3.8
324.962	3.33
325.335	3.52
325.708	3.34
326.081	4.18
326.454	3.31
326.827	3.27
327.2	3.5
327.573	3.89
327.945	3.37
328.318	3.6
328.691	3.39
329.063	3.64
329.436	3.61
329.809	3.56
330.181	3.09
330.553	3.7
330.926	3.52
331.298	3.74
331.671	3.76
332.043	3.54
332.415	4
332.787	4.46
333.159	3.96
333.532	3.87
333.904	3.64
334.276	4.12
334.648	3.99
335.02	3.64
335.391	3.65
335.763	4.14
336.135	4.01
336.507	4.6
336.879	4.27
337.25	3.79
337.622	4.18
337.993	3.97
338.365	4.03
338.736	4.73
339.108	4.02
339.479	4.29
339.851	4.32
340.222	4.38
340.593	4.25
340.964	4.4
341.336	3.91
341.707	4.8
342.078	4.32
342.449	4.86
342.82	4.25
343.191	4.45
343.562	4.55
343.933	4.43
344.303	4.82
344.674	4.64
345.045	4.7
345.416	4.9
345.786	4.39
346.157	4.79
346.527	4.15
346.898	4.55
347.268	4.93
347.639	4.61
348.009	4.99
348.38	4.77
348.75	5.12
349.12	5.08
349.49	5.07
349.861	5.72
350.231	5.22
350.601	4.93
350.971	4.83
351.341	5.31
351.711	5.12
352.081	5.13
352.45	5.43
352.82	5.19
353.19	5.11
353.56	5.01
353.929	5.69
354.299	5.39
354.669	5.25
355.038	4.93
355.408	5.45
355.777	5.18
356.147	5.73
356.516	5.5
356.885	5.13
357.254	5.66
357.624	5.49
357.993	5.33
358.362	5.72
358.731	5.46
359.1	5.75
359.469	5.65
359.838	5.54
360.207	5.4
360.576	5.71
360.945	5.71
361.314	5.79
361.682	5.52
362.051	5.72
362.42	5.92
362.788	5.78
363.157	5.68
363.525	5.75
363.894	5.65
364.262	5.95
364.631	6.55
364.999	5.76
365.367	6.22
365.735	5.76
366.104	5.86
366.472	6.57
366.84	6.28
367.208	5.83
367.576	6.27
367.944	6.46
368.312	6.03
368.68	6.23
369.048	6.47
369.416	6.17
369.783	6.63
370.151	6.35
370.519	6.58
370.886	6.56
371.254	6.94
371.621	6.54
371.989	6.58
372.356	6.54
372.724	6.68
373.091	6.67
373.458	6.75
373.826	6.89
374.193	7.03
374.56	6.79
374.927	6.63
375.294	6.91
375.661	6.91
376.028	7
376.395	6.84
376.762	7.42
377.129	7.31
377.496	6.92
377.863	7.18
378.229	7
378.596	6.86
378.963	7.14
379.329	7.35
379.696	7.04
380.062	7.76
380.429	7.65
380.795	7.01
381.161	7.42
381.528	7.04
381.894	7.54
382.26	7.34
382.626	7.47
382.993	7.22
383.359	7.7
383.725	7.54
384.091	7.9
384.457	8.01
384.823	7.51
385.188	7.94
385.554	7.68
385.92	8.07
386.286	7.82
386.651	7.71
387.017	7.91
387.383	7.62
387.748	7.98
388.114	8.05
388.479	7.98
388.845	8.11
389.21	8.16
389.575	8.04
389.94	8.23
390.306	8.25
390.671	8.07
391.036	8.39
391.401	8.51
391.766	8.4
392.131	8.44
392.496	8.06
392.861	8.29
393.226	8.34
393.591	8.49
393.956	8.74
394.32	8.56
394.685	8.53
395.05	8.47
395.414	8.37
395.779	8.74
396.143	8.49
396.508	8.8
396.872	8.82
397.236	8.44
397.601	9
397.965	8.65
398.329	8.92
398.694	8.56
399.058	9
399.422	9.01
399.786	9
400.15	9.01
400.514	8.95
400.878	8.98
401.242	9.25
401.605	9.07
401.969	9.12
402.333	9.11
402.697	9.27
403.06	9.26
403.424	9.15
403.787	9.44
404.151	9.18
404.514	9.21
404.878	9.51
405.241	9.4
405.604	9.58
405.968	9.31
406.331	9.49
406.694	9.41
407.057	9.67
407.42	9.49
407.783	9.42
408.146	9.52
408.509	9.52
408.872	9.57
409.235	9.76
409.598	9.93
409.961	9.87
410.323	9.78
410.686	9.73
411.049	9.81
411.411	9.74
411.774	9.84
412.136	10.06
412.499	9.93
412.861	9.8
413.223	10.06
413.586	9.92
413.948	10.05
414.31	10.2
414.672	10.06
415.035	10.26
415.397	10.34
415.759	10.27
416.121	10.43
416.483	10.25
416.845	10.31
417.206	10.35
417.568	10.34
417.93	10.37
418.292	10.53
418.653	10.39
419.015	10.37
419.377	10.49
419.738	10.37
420.1	10.35
420.461	10.23
420.822	10.37
421.184	10.48
421.545	10.47
421.906	10.49
422.267	10.3
422.629	10.46
422.99	10.52
423.351	10.52
423.712	10.72
424.073	10.79
424.434	10.69
424.795	10.6
425.155	10.79
425.516	10.72
425.877	10.69
426.238	10.77
426.598	10.93
426.959	10.86
427.32	11.11
427.68	11.19
428.041	11.33
428.401	11.23
428.761	11.3
429.122	11.48
429.482	11.43
429.842	11.68
430.202	11.51
430.563	11.77
430.923	11.59
431.283	11.49
431.643	11.69
432.003	11.65
432.363	11.99
432.722	11.74
433.082	11.87
433.442	11.76
433.802	11.84
434.161	11.79
434.521	12.01
434.881	12.06
435.24	11.93
435.6	11.96
435.959	12
436.319	12.02
436.678	12.11
437.037	12.25
437.396	12.28
437.756	12.46
438.115	12.35
438.474	12.44
438.833	12.53
439.192	12.49
439.551	12.5
439.91	12.49
440.269	12.77
440.628	12.4
440.987	12.56
441.345	12.43
441.704	12.54
442.063	12.57
442.421	12.5
442.78	12.62
443.138	12.69
443.497	12.58
443.855	12.84
444.214	12.89
444.572	12.9
444.93	13.06
445.288	13.04
445.647	13.19
446.005	13.08
446.363	13.05
446.721	12.91
447.079	13.09
447.437	13.09
447.795	13.01
448.153	13.03
448.51	13.06
448.868	13.18
449.226	13.16
449.584	13.24
449.941	13.5
450.299	13.51
450.656	13.59
451.014	13.64
451.371	13.77
451.729	13.7
452.086	13.55
452.443	13.64
452.801	13.91
453.158	14
453.515	13.76
453.872	13.87
454.229	13.86
454.586	14.04
454.943	13.92
455.3	14.11
455.657	14.07
456.014	14.17
456.371	14.23
456.727	14.15
457.084	14.27
457.441	14.21
457.797	14.46
458.154	14.35
458.51	14.52
458.867	14.54
459.223	14.56
459.58	14.42
459.936	14.57
460.292	14.63
460.648	14.27
461.005	14.31
461.361	14.32
461.717	14.34
462.073	14.49
462.429	14.6
462.785	14.73
463.141	14.88
463.496	14.65
463.852	15.17
464.208	14.97
464.564	15.03
464.919	15.14
465.275	15.26
465.631	15.18
465.986	15.21
466.342	15.38
466.697	15.25
467.052	15.4
467.408	15.24
467.763	15.36
468.118	15.59
468.473	15.62
468.829	15.35
469.184	15.75
469.539	15.38
469.894	15.75
470.249	15.7
470.603	15.74
470.958	15.88
471.313	15.72
471.668	15.82
472.023	15.95
472.377	15.75
472.732	15.94
473.086	15.78
473.441	16.12
473.795	16.04
474.15	15.95
474.504	15.99
474.859	16.07
475.213	15.98
475.567	16.17
475.921	16.4
476.275	16.34
476.63	16.36
476.984	16.34
477.338	16.59
477.692	16.35
478.045	16.39
478.399	16.51
478.753	16.4
479.107	16.29
479.461	16.48
479.814	16.36
480.168	16.59
480.521	16.52
480.875	16.64
481.228	16.6
481.582	16.52
481.935	16.74
482.289	16.61
482.642	16.67
482.995	16.58
483.348	16.49
483.701	16.42
484.055	16.37
484.408	16.19
484.761	15.95
485.114	15.81
485.466	15.87
485.819	15.95
486.172	16.03
486.525	16.19
486.878	16.38
487.23	16.45
487.583	16.54
487.936	16.53
488.288	16.39
488.641	16.44
488.993	16.31
489.345	16.34
489.698	16.42
490.05	16.44
490.402	16.74
490.754	16.89
491.107	16.97
491.459	17.18
491.811	17.28
492.163	17.25
492.515	17.03
492.866	16.64
493.218	16.77
493.57	16.93
493.922	16.97
494.274	17.24
494.625	17.35
494.977	17.64
495.328	17.84
495.68	17.95
496.031	17.83
496.383	17.95
496.734	18.17
497.086	18.15
497.437	18.19
497.788	17.88
498.139	18
498.49	18.02
498.842	17.97
499.193	18
499.544	18.24
499.894	18.22
500.245	18.24
500.596	18.39
500.947	18.39
501.298	18.43
501.648	18.5
501.999	18.55
502.35	18.78
502.7	18.51
503.051	18.71
503.401	18.81
503.752	18.82
504.102	18.7
504.452	18.73
504.803	18.76
505.153	18.73
505.503	18.88
505.853	18.77
506.203	18.92
506.553	18.85
506.903	18.98
507.253	19.14
507.603	19.09
507.953	19.04
508.303	19.23
508.652	19.19
509.002	19.07
509.352	19.07
509.701	19.06
510.051	19.06
510.4	19.03
510.75	19.01
511.099	19.02
511.449	19
511.798	19.31
512.147	19.18
512.496	19.18
512.846	19.26
513.195	19.26
513.544	19.27
513.893	19.3
514.242	19.44
514.591	19.5
514.939	19.42
515.288	19.56
515.637	19.71
515.986	19.53
516.334	19.88
516.683	19.65
517.032	19.75
517.38	19.82
517.729	19.83
518.077	19.88
518.426	19.82
518.774	19.61
519.122	19.64
519.47	19.61
519.819	19.51
520.167	19.41
520.515	19.47
520.863	19.57
521.211	19.67
521.559	19.7
521.907	19.95
522.255	19.92
522.602	20.13
522.95	20.14
523.298	20.17
523.645	20.34
523.993	20.22
524.341	20.13
524.688	20.29
525.036	20.43
525.383	20.37
525.73	20.37
526.078	20.28
526.425	20.12
526.772	19.82
527.119	19.92
527.466	19.83
527.814	19.88
528.161	20.06
528.508	19.99
528.854	19.97
529.201	19.95
529.548	19.68
529.895	19.52
530.242	19.5
530.588	19.6
530.935	19.66
531.282	19.79
531.628	19.84
531.975	20.06
532.321	20.13
532.667	20.43
533.014	20.48
533.36	20.48
533.706	20.41
534.052	20.3
534.399	20.16
534.745	20.04
535.091	20.13
535.437	20.28
535.783	20.42
536.129	20.52
536.474	20.61
536.82	20.84
537.166	20.86
537.512	20.81
537.857	20.77
538.203	20.67
538.549	20.81
538.894	20.75
539.239	20.93
539.585	21.16
539.93	21.2
540.276	21.23
540.621	21.28
540.966	21.23
541.311	21.24
541.656	21.15
542.001	21.13
542.346	20.86
542.691	20.63
543.036	20.6
543.381	20.75
543.726	20.83
544.071	20.87
544.415	20.91
544.76	21.02
545.105	21.31
545.449	21.19
545.794	21.33
546.138	21.55
546.483	21.46
546.827	21.57
547.171	21.52
547.516	21.7
547.86	21.61
548.204	21.55
548.548	21.64
548.892	21.77
549.236	21.72
549.58	21.99
549.924	22.06
550.268	22.29
550.612	22.18
550.956	22.4
551.3	22.42
551.643	22.42
551.987	22.57
552.33	22.43
552.674	22.6
553.017	22.58
553.361	22.6
553.704	22.5
554.048	22.36
554.391	22.54
554.734	22.43
555.077	22.6
555.42	22.56
555.764	22.62
556.107	22.74
556.45	22.75
556.793	23.1
557.135	23.05
557.478	23.06
557.821	23.01
558.164	23.05
558.507	22.97
558.849	22.9
559.192	23.16
559.534	23.14
559.877	23.28
560.219	23.18
560.562	23.35
560.904	23.1
561.246	23.27
561.589	23.36
561.931	23.41
562.273	23.09
562.615	23.43
562.957	23.34
563.299	23.37
563.641	23.25
563.983	23.43
564.325	23.19
564.667	23.33
565.008	23.51
565.35	23.72
565.692	23.47
566.033	23.59
566.375	23.38
566.716	23.52
567.058	23.47
567.399	23.38
567.741	23.4
568.082	23.21
568.423	23.44
568.764	23.49
569.105	23.68
569.447	23.75
569.788	23.66
570.129	23.77
570.47	23.79
570.811	23.55
571.151	23.88
571.492	23.99
571.833	23.82
572.174	23.82
572.514	23.56
572.855	23.77
573.195	23.73
573.536	23.81
573.876	23.51
574.217	23.81
574.557	23.73
574.898	23.71
575.238	23.8
575.578	24.14
575.918	24
576.258	23.97
576.598	23.9
576.938	24.02
577.278	24
577.618	24.02
577.958	23.95
578.298	24.1
578.638	24.3
578.977	24.1
579.317	24.3
579.657	24.43
579.996	24.4
580.336	24.43
580.675	24.61
581.014	24.72
581.354	24.79
581.693	24.49
582.032	24.37
582.372	24.7
582.711	24.68
583.05	24.62
583.389	24.6
583.728	24.83
584.067	24.91
584.406	24.76
584.745	24.8
585.083	25.12
585.422	24.85
585.761	24.97
586.1	25.28
586.438	24.91
586.777	24.93
587.115	25.16
587.454	25.24
587.792	24.98
588.13	25.21
588.469	25.12
588.807	25.13
589.145	25.22
589.483	24.75
589.821	25.19
590.159	25.19
590.497	25.11
590.835	25.13
591.173	25.3
591.511	25.23
591.849	25.3
592.187	25.36
592.524	25.44
592.862	25.32
593.2	25.24
593.537	25.33
593.875	25.69
594.212	25.53
594.55	25.37
594.887	25.47
595.224	25.37
595.561	25.51
595.899	25.83
596.236	25.49
596.573	25.39
596.91	25.64
597.247	25.47
597.584	25.54
597.921	25.44
598.258	25.37
598.594	25.29
598.931	25.38
599.268	25.52
599.604	25.57
599.941	25.77
600.277	25.63
600.614	25.76
600.95	25.9
601.287	25.75
601.623	25.72
601.959	25.94
602.296	26.12
602.632	25.97
602.968	25.82
603.304	25.61
603.64	26.04
603.976	25.82
604.312	25.98
604.648	25.89
604.984	25.74
605.319	25.67
605.655	25.94
605.991	25.89
606.326	25.49
606.662	25.44
606.998	25.95
607.333	25.93
607.668	25.94
608.004	26
608.339	25.88
608.674	26.33
609.01	26.15
609.345	26.15
609.68	26.2
610.015	26.5
610.35	26.25
610.685	26.16
611.02	26.26
611.355	26.22
611.689	26.12
612.024	26.35
612.359	26.17
612.694	26.57
613.028	26.64
613.363	26.37
613.697	26.72
614.032	26.66
614.366	26.34
614.7	26.82
615.035	26.72
615.369	26.48
615.703	27.09
616.037	26.82
616.371	26.76
616.705	26.56
617.039	27.08
617.373	26.58
617.707	26.72
618.041	27.12
618.375	27.07
618.709	26.87
619.042	26.94
619.376	26.94
619.71	26.73
620.043	26.88
620.377	26.86
620.71	27.09
621.043	26.89
621.377	27.11
621.71	27.1
622.043	27.28
622.376	27.02
622.709	27.49
623.043	26.87
623.376	27.28
623.709	27.67
624.041	27.29
624.374	26.98
624.707	27.07
625.04	27.74
625.373	27.12
625.705	27.16
626.038	27.15
626.37	27.57
626.703	27.8
627.035	27.29
627.368	27.54
627.7	27.33
628.032	27.57
628.365	27.57
628.697	27.24
629.029	27.2
629.361	27.05
629.693	27.73
630.025	27.47
630.357	27.39
630.689	27.59
631.021	27.46
631.353	27.66
631.684	27.37
632.016	27.76
632.348	27.59
632.679	27.5
633.011	27.79
633.342	27.71
633.674	27.96
634.005	27.67
634.336	27.58
634.668	27.87
634.999	28
635.33	27.39
635.661	27.94
635.992	27.9
636.323	27.75
636.654	27.99
636.985	28.43
637.316	28.08
637.647	28.29
637.977	28.08
638.308	27.74
638.639	27.31
638.969	28.01
639.3	28.34
639.63	27.91
639.961	27.99
640.291	28.73
640.622	28.13
640.952	27.65
641.282	28.25
641.612	28.21
641.943	28.4
642.273	28.15
642.603	28.32
642.933	28.38
643.263	28.61
643.592	28.37
643.922	28.52
644.252	28.61
644.582	28.56
644.911	28.33
645.241	28.6
645.571	28.56
645.9	28.4
646.23	28.59
646.559	28.81
646.888	28.47
647.218	28.43
647.547	28.26
647.876	28.42
648.205	28.42
648.534	28.4
648.863	28.75
649.192	28.61
649.521	28.42
649.85	29.02
650.179	28.67
650.508	28.75
650.837	28.8
651.165	28.74
651.494	28.95
651.822	29.1
652.151	29.01
652.479	29.02
652.808	29.25
653.136	29.23
653.465	29.05
653.793	28.78
654.121	29.13
654.449	28.3
654.777	28.96
655.105	29.16
655.433	29.49
655.761	28.79
656.089	29.31
656.417	29.24
656.745	29.72
657.073	28.96
657.4	28.75
657.728	29.53
658.056	29.27
658.383	29.24
658.711	28.85
659.038	29.37
659.365	28.77
659.693	29.12
660.02	29.22
660.347	28.9
660.674	28.97
661.001	29.13
661.329	28.97
661.656	29.09
661.982	29.32
662.309	29.03
662.636	29.69
662.963	29.04
663.29	28.64
663.616	29.18
663.943	29.58
664.27	29.42
664.596	29.42
664.923	29.91
665.249	29.36
665.576	29.36
665.902	29.53
666.228	29.22
666.554	29
666.881	29.88
667.207	29.63
667.533	29.63
667.859	28.96
668.185	29.77
668.511	29.42
668.837	29.42
669.162	30.18
669.488	29.35
669.814	30.02
670.139	30.41
670.465	29.72
670.791	29.84
671.116	30.12
671.442	30.16
671.767	29.66
672.092	30.08
672.418	30.08
672.743	29.82
673.068	29.31
673.393	29.83
673.718	29.1
674.043	29.92
674.368	30.09
