Data from 0062_crown_Reflection__1__199.txt Node

Date: Fri Dec 16 15:33:34 CST 2022
User: ToomeyLab
Spectrometer: FLMS14357
Trigger mode: 0
Integration Time (sec): 1.000000E-2
Scans to average: 100
Electric dark correction enabled: true
Nonlinearity correction enabled: false
Boxcar width: 0
XAxis mode: Wavelengths
Number of Pixels in Spectrum: 2048
>>>>>Begin Spectral Data<<<<<
189.047	-454.28
189.435	-454.28
189.823	-454.28
190.211	179.99
190.599	-25.54
190.987	44.94
191.375	-16.26
191.763	624.93
192.151	-72.65
192.538	8.28
192.926	70.58
193.314	59.77
193.702	23.03
194.089	118.48
194.477	136.28
194.864	417.92
195.252	28.02
195.639	78.13
196.027	70.09
196.414	-239.37
196.801	37.7
197.189	235.42
197.576	-233.54
197.963	-145.31
198.351	-15.42
198.738	38.01
199.125	51.19
199.512	5.69
199.899	-44.35
200.286	-177.94
200.673	1.71
201.06	83.92
201.447	14.08
201.833	4.84
202.22	-4.27
202.607	-68.28
202.994	-4.7
203.38	-124.99
203.767	4.24
204.154	-61.47
204.54	1.28
204.927	24.82
205.313	29.49
205.699	9.53
206.086	2.09
206.472	-19.07
206.858	9.85
207.245	16.25
207.631	-1.47
208.017	20.51
208.403	5.03
208.789	6.68
209.175	34.24
209.561	1.04
209.947	-11.08
210.333	-49.44
210.719	-34.11
211.105	-55.84
211.491	-13.87
211.876	-7
212.262	-47.78
212.648	-33.49
213.034	-16.24
213.419	10.64
213.805	-7.95
214.19	-25.01
214.576	-19.3
214.961	-22.23
215.346	-13.75
215.732	-14.58
216.117	-22.31
216.502	-33.77
216.888	0.13
217.273	-9.06
217.658	-50.28
218.043	20.2
218.428	-5.85
218.813	-21.71
219.198	-28.94
219.583	1.82
219.968	-15.36
220.353	13.57
220.738	-24.36
221.122	-1.08
221.507	-9.27
221.892	4.14
222.276	4.32
222.661	-9.64
223.046	9.21
223.43	-7
223.815	2.23
224.199	5.05
224.583	-2.08
224.968	10.69
225.352	-4.93
225.736	-2.82
226.121	0.64
226.505	-3.68
226.889	9.11
227.273	1.92
227.657	-0.08
228.041	5.05
228.425	4.08
228.809	2.59
229.193	-0.11
229.577	1.53
229.961	3.75
230.344	2.87
230.728	3.12
231.112	2.46
231.495	1.01
231.879	2.95
232.263	2.54
232.646	2.69
233.03	0.34
233.413	-0.78
233.797	4.74
234.18	-0.14
234.563	0.86
234.946	2.25
235.33	2.94
235.713	3.64
236.096	2.39
236.479	3.35
236.862	3.18
237.245	2.24
237.628	1.37
238.011	2.33
238.394	4.75
238.777	3.49
239.16	0.3
239.543	3.84
239.925	3.26
240.308	3.56
240.691	2.7
241.073	2.52
241.456	1.83
241.838	2.82
242.221	3.14
242.603	3.02
242.986	3.43
243.368	2.87
243.75	2.85
244.133	2.79
244.515	2.95
244.897	3.24
245.279	2.71
245.661	2.4
246.043	3.36
246.425	2.51
246.807	2.22
247.189	3.06
247.571	2.82
247.953	3.15
248.335	3.19
248.717	3.28
249.098	3.33
249.48	3
249.862	2.94
250.243	3.07
250.625	3.23
251.006	3.35
251.388	4.06
251.769	2.61
252.151	3.09
252.532	2.57
252.913	2.76
253.295	2.98
253.676	3.27
254.057	2.44
254.438	2.26
254.819	2.35
255.2	2.71
255.581	2.13
255.962	3.15
256.343	2.13
256.724	1.66
257.105	1.45
257.486	3.24
257.867	2.73
258.247	3.37
258.628	3.33
259.009	3.01
259.389	3.42
259.77	2.7
260.15	3.25
260.531	2.75
260.911	2.74
261.292	2.88
261.672	3.02
262.052	2.8
262.432	3.02
262.813	3.19
263.193	2.4
263.573	3.04
263.953	2.17
264.333	3.41
264.713	2.86
265.093	2.93
265.473	3.45
265.853	2.45
266.233	1.98
266.612	3.24
266.992	2.22
267.372	3.04
267.752	2.33
268.131	2.6
268.511	3.23
268.89	3.09
269.27	2.66
269.649	3.27
270.029	2.55
270.408	3.17
270.787	2.8
271.167	2.61
271.546	2.07
271.925	2.7
272.304	2.94
272.683	2.48
273.062	2.7
273.441	2.35
273.82	3.16
274.199	2.71
274.578	2.26
274.957	2.7
275.336	2.54
275.715	2.99
276.093	2.82
276.472	2.41
276.851	3.3
277.229	3.65
277.608	2.47
277.986	2.6
278.365	2.61
278.743	2.85
279.122	2.43
279.5	2.65
279.878	1.63
280.257	2.67
280.635	2.12
281.013	2.59
281.391	2.61
281.769	2.64
282.147	2.57
282.525	2.31
282.903	2.67
283.281	2.3
283.659	2.97
284.037	2.66
284.415	2.68
284.792	2.42
285.17	1.6
285.548	2.26
285.925	2.74
286.303	2.57
286.68	2.91
287.058	2.59
287.435	2.56
287.813	2.77
288.19	2.95
288.567	2.53
288.945	2.63
289.322	2.33
289.699	2.8
290.076	3.03
290.453	2.52
290.83	2.58
291.207	2.56
291.584	2.2
291.961	2.77
292.338	2.9
292.715	3.13
293.092	2.37
293.469	2.83
293.845	2.86
294.222	2.5
294.599	2.87
294.975	2.97
295.352	2.32
295.728	2.77
296.105	2.65
296.481	2.78
296.858	2.72
297.234	2.53
297.61	2.88
297.986	2.21
298.363	2.27
298.739	2.86
299.115	2.19
299.491	2.74
299.867	2.86
300.243	2.24
300.619	2.58
300.995	2.49
301.371	2.94
301.746	2.66
302.122	2.87
302.498	2.7
302.874	2.89
303.249	2.72
303.625	2.33
304	2.51
304.376	2.48
304.751	2.61
305.127	2.72
305.502	2.98
305.878	2.58
306.253	2.56
306.628	2.74
307.003	2.54
307.378	2.17
307.754	2.81
308.129	2.47
308.504	2.38
308.879	2.47
309.254	2.54
309.629	2.87
310.003	2.46
310.378	2.72
310.753	2.54
311.128	2.65
311.502	2.57
311.877	2.72
312.252	2.64
312.626	2.48
313.001	2.68
313.375	2.81
313.75	2.68
314.124	2.89
314.498	2.29
314.873	2.71
315.247	2.36
315.621	2.78
315.995	2.68
316.369	2.73
316.743	2.84
317.117	2.61
317.491	2.81
317.865	2.23
318.239	3.25
318.613	2.86
318.987	2.85
319.361	2.26
319.734	3
320.108	2.66
320.482	2.4
320.855	2.8
321.229	3.35
321.602	2.85
321.976	2.48
322.349	1.97
322.723	2.18
323.096	2.4
323.469	2.71
323.843	2.66
324.216	2.35
324.589	3.01
324.962	2.86
325.335	2.55
325.708	2.69
326.081	3.12
326.454	2.41
326.827	3.24
327.2	3.12
327.573	2.62
327.945	2.63
328.318	2.94
328.691	2.69
329.063	2.67
329.436	2.85
329.809	2.36
330.181	2.77
330.553	2.96
330.926	3.2
331.298	1.95
331.671	2.76
332.043	2.45
332.415	2.6
332.787	2.96
333.159	2.8
333.532	2.25
333.904	2.61
334.276	2.6
334.648	2.56
335.02	2.35
335.391	2.91
335.763	3.1
336.135	2.34
336.507	2.67
336.879	2.41
337.25	2.65
337.622	2.7
337.993	2.68
338.365	2.64
338.736	2.41
339.108	2.23
339.479	2.48
339.851	3.38
340.222	2.58
340.593	2.31
340.964	2.57
341.336	2.5
341.707	2.55
342.078	2.49
342.449	3.18
342.82	2.63
343.191	2.3
343.562	2.42
343.933	2.73
344.303	2.3
344.674	2.66
345.045	2.7
345.416	2.7
345.786	2.26
346.157	2.85
346.527	2.41
346.898	2.67
347.268	2.66
347.639	2.82
348.009	2.91
348.38	2.58
348.75	2.85
349.12	2.37
349.49	2.43
349.861	3.06
350.231	2.98
350.601	3.09
350.971	2.78
351.341	2.57
351.711	2.68
352.081	2.68
352.45	2.86
352.82	2.94
353.19	2.47
353.56	2.98
353.929	2.9
354.299	2.69
354.669	2.42
355.038	3.09
355.408	2.97
355.777	2.55
356.147	3.01
356.516	2.96
356.885	2.82
357.254	2.91
357.624	2.64
357.993	2.59
358.362	2.93
358.731	2.86
359.1	2.87
359.469	2.7
359.838	2.78
360.207	2.56
360.576	3.15
360.945	2.6
361.314	2.72
361.682	2.79
362.051	2.59
362.42	2.98
362.788	2.83
363.157	2.69
363.525	2.73
363.894	2.45
364.262	2.69
364.631	3.5
364.999	2.63
365.367	2.96
365.735	2.5
366.104	2.84
366.472	2.95
366.84	2.93
367.208	2.45
367.576	2.68
367.944	2.84
368.312	2.48
368.68	2.61
369.048	2.6
369.416	2.61
369.783	2.71
370.151	2.9
370.519	2.84
370.886	2.73
371.254	2.88
371.621	2.98
371.989	2.85
372.356	3.04
372.724	2.71
373.091	2.9
373.458	3.08
373.826	2.63
374.193	3.15
374.56	2.61
374.927	2.64
375.294	3.09
375.661	3.03
376.028	2.76
376.395	2.65
376.762	3.2
377.129	2.82
377.496	2.95
377.863	3.07
378.229	3.16
378.596	2.59
378.963	2.64
379.329	2.81
379.696	2.81
380.062	3.14
380.429	3.25
380.795	2.74
381.161	2.72
381.528	2.6
381.894	3
382.26	2.62
382.626	2.87
382.993	2.58
383.359	2.67
383.725	2.99
384.091	2.81
384.457	2.82
384.823	2.74
385.188	2.9
385.554	2.72
385.92	3.03
386.286	2.81
386.651	2.85
387.017	2.79
387.383	2.93
387.748	2.84
388.114	2.91
388.479	2.88
388.845	3.05
389.21	3.09
389.575	2.92
389.94	2.87
390.306	2.81
390.671	2.72
391.036	2.85
391.401	3.09
391.766	3.06
392.131	2.9
392.496	2.77
392.861	2.62
393.226	3.01
393.591	2.89
393.956	2.82
394.32	2.87
394.685	2.96
395.05	2.91
395.414	2.99
395.779	2.78
396.143	3.01
396.508	3.28
396.872	3.04
397.236	2.64
397.601	3.04
397.965	2.75
398.329	2.96
398.694	2.68
399.058	2.88
399.422	2.9
399.786	2.81
400.15	2.96
400.514	2.96
400.878	2.86
401.242	3.04
401.605	2.86
401.969	3.15
402.333	3.08
402.697	3.02
403.06	2.97
403.424	2.89
403.787	3.22
404.151	2.89
404.514	2.83
404.878	3.08
405.241	3.15
405.604	3.1
405.968	3.13
406.331	3.01
406.694	2.85
407.057	3.18
407.42	2.84
407.783	2.94
408.146	2.87
408.509	2.85
408.872	2.76
409.235	3.13
409.598	3.08
409.961	2.99
410.323	2.87
410.686	2.89
411.049	2.98
411.411	2.87
411.774	2.64
412.136	3.04
412.499	3.07
412.861	2.66
413.223	3.08
413.586	2.84
413.948	3.06
414.31	2.9
414.672	3
415.035	2.96
415.397	3.22
415.759	2.8
416.121	2.93
416.483	2.97
416.845	2.85
417.206	3.07
417.568	3.15
417.93	2.97
418.292	3.02
418.653	2.98
419.015	3.06
419.377	3.14
419.738	2.89
420.1	2.93
420.461	2.83
420.822	2.95
421.184	2.94
421.545	2.97
421.906	2.94
422.267	2.87
422.629	2.97
422.99	2.94
423.351	3.04
423.712	3.01
424.073	3.04
424.434	2.96
424.795	2.98
425.155	2.93
425.516	2.88
425.877	2.97
426.238	2.89
426.598	3.01
426.959	2.97
427.32	3.01
427.68	3.12
428.041	3.07
428.401	2.95
428.761	3.06
429.122	2.95
429.482	2.85
429.842	2.98
430.202	2.95
430.563	3.09
430.923	3.12
431.283	3.19
431.643	2.94
432.003	3.18
432.363	3.09
432.722	2.92
433.082	3.16
433.442	3.04
433.802	2.94
434.161	3.03
434.521	3.18
434.881	3.14
435.24	2.92
435.6	3.04
435.959	2.98
436.319	3.03
436.678	3.08
437.037	3.12
437.396	3.23
437.756	3.06
438.115	3.23
438.474	3.19
438.833	3.16
439.192	3.17
439.551	3.08
439.91	3.19
440.269	3.29
440.628	3.02
440.987	2.91
441.345	3.05
441.704	3.09
442.063	3.07
442.421	3.09
442.78	3.13
443.138	3.07
443.497	3.01
443.855	3.14
444.214	3.24
444.572	3.01
444.93	3.23
445.288	3.15
445.647	3.21
446.005	3.12
446.363	3.06
446.721	3
447.079	3.07
447.437	3
447.795	3.09
448.153	3.13
448.51	3.07
448.868	3.14
449.226	3.07
449.584	3.16
449.941	3.22
450.299	3.21
450.656	3.24
451.014	3.22
451.371	3.26
451.729	3.2
452.086	3.12
452.443	3.07
452.801	3.12
453.158	3.2
453.515	2.98
453.872	3.29
454.229	3.11
454.586	3.22
454.943	3.01
455.3	3.34
455.657	3.19
456.014	3.2
456.371	3.22
456.727	3.13
457.084	3.1
457.441	3.13
457.797	3.1
458.154	3.31
458.51	3.16
458.867	3.2
459.223	3.24
459.58	3.13
459.936	3.1
460.292	3.14
460.648	3.03
461.005	3.03
461.361	3.08
461.717	3.14
462.073	3.21
462.429	3.17
462.785	3.24
463.141	3.18
463.496	3.24
463.852	3.33
464.208	3.24
464.564	3.28
464.919	3.19
465.275	3.22
465.631	3.07
465.986	3.15
466.342	3.2
466.697	3.17
467.052	3.34
467.408	3.31
467.763	3.12
468.118	3.19
468.473	3.35
468.829	3.21
469.184	3.41
469.539	3.15
469.894	3.16
470.249	3.31
470.603	3.31
470.958	3.27
471.313	3.17
471.668	3.45
472.023	3.54
472.377	3.23
472.732	3.25
473.086	3.09
473.441	3.36
473.795	3.33
474.15	3.38
474.504	3.23
474.859	3.23
475.213	3.27
475.567	3.23
475.921	3.28
476.275	3.31
476.63	3.28
476.984	3.27
477.338	3.42
477.692	3.21
478.045	3.23
478.399	3.33
478.753	3.13
479.107	3.21
479.461	3.31
479.814	3.26
480.168	3.29
480.521	3.24
480.875	3.45
481.228	3.33
481.582	3.17
481.935	3.21
482.289	3.24
482.642	3.32
482.995	3.21
483.348	3.15
483.701	3.15
484.055	3.11
484.408	3.13
484.761	2.94
485.114	2.92
485.466	2.95
485.819	3.05
486.172	3.14
486.525	3.22
486.878	3.25
487.23	3.3
487.583	3.15
487.936	3.15
488.288	3.07
488.641	3.06
488.993	3.03
489.345	3.1
489.698	3.16
490.05	3.12
490.402	3.28
490.754	3.34
491.107	3.33
491.459	3.26
491.811	3.23
492.163	3.2
492.515	3.13
492.866	3.01
493.218	3.07
493.57	3.17
493.922	3.18
494.274	3.32
494.625	3.33
494.977	3.27
495.328	3.34
495.68	3.36
496.031	3.28
496.383	3.27
496.734	3.33
497.086	3.13
497.437	3.4
497.788	3.24
498.139	3.34
498.49	3.27
498.842	3.23
499.193	3.3
499.544	3.45
499.894	3.28
500.245	3.34
500.596	3.3
500.947	3.28
501.298	3.31
501.648	3.39
501.999	3.54
502.35	3.51
502.7	3.53
503.051	3.51
503.401	3.34
503.752	3.39
504.102	3.31
504.452	3.35
504.803	3.22
505.153	3.31
505.503	3.21
505.853	3.3
506.203	3.46
506.553	3.36
506.903	3.34
507.253	3.38
507.603	3.35
507.953	3.49
508.303	3.42
508.652	3.39
509.002	3.31
509.352	3.31
509.701	3.33
510.051	3.29
510.4	3.35
510.75	3.35
511.099	3.33
511.449	3.35
511.798	3.45
512.147	3.43
512.496	3.44
512.846	3.44
513.195	3.36
513.544	3.47
513.893	3.23
514.242	3.48
514.591	3.47
514.939	3.33
515.288	3.33
515.637	3.49
515.986	3.41
516.334	3.49
516.683	3.38
517.032	3.33
517.38	3.45
517.729	3.37
518.077	3.41
518.426	3.3
518.774	3.32
519.122	3.33
519.47	3.36
519.819	3.31
520.167	3.31
520.515	3.28
520.863	3.33
521.211	3.39
521.559	3.32
521.907	3.4
522.255	3.43
522.602	3.48
522.95	3.42
523.298	3.43
523.645	3.39
523.993	3.47
524.341	3.37
524.688	3.46
525.036	3.43
525.383	3.49
525.73	3.34
526.078	3.44
526.425	3.33
526.772	3.19
527.119	3.27
527.466	3.32
527.814	3.39
528.161	3.42
528.508	3.43
528.854	3.28
529.201	3.23
529.548	3.16
529.895	3.11
530.242	3.11
530.588	3.27
530.935	3.32
531.282	3.38
531.628	3.39
531.975	3.37
532.321	3.34
532.667	3.43
533.014	3.42
533.36	3.38
533.706	3.38
534.052	3.29
534.399	3.24
534.745	3.23
535.091	3.29
535.437	3.32
535.783	3.5
536.129	3.5
536.474	3.47
536.82	3.44
537.166	3.43
537.512	3.37
537.857	3.34
538.203	3.38
538.549	3.42
538.894	3.45
539.239	3.54
539.585	3.53
539.93	3.47
540.276	3.4
540.621	3.44
540.966	3.49
541.311	3.46
541.656	3.41
542.001	3.38
542.346	3.27
542.691	3.19
543.036	3.2
543.381	3.34
543.726	3.45
544.071	3.45
544.415	3.45
544.76	3.34
545.105	3.39
545.449	3.44
545.794	3.51
546.138	3.57
546.483	3.44
546.827	3.48
547.171	3.46
547.516	3.51
547.86	3.43
548.204	3.39
548.548	3.47
548.892	3.45
549.236	3.48
549.58	3.54
549.924	3.54
550.268	3.58
550.612	3.64
550.956	3.42
551.3	3.54
551.643	3.57
551.987	3.53
552.33	3.5
552.674	3.7
553.017	3.61
553.361	3.48
553.704	3.48
554.048	3.46
554.391	3.52
554.734	3.53
555.077	3.66
555.42	3.54
555.764	3.51
556.107	3.47
556.45	3.55
556.793	3.75
557.135	3.73
557.478	3.64
557.821	3.53
558.164	3.67
558.507	3.49
558.849	3.48
559.192	3.68
559.534	3.5
559.877	3.48
560.219	3.8
560.562	3.65
560.904	3.44
561.246	3.67
561.589	3.66
561.931	3.69
562.273	3.62
562.615	3.75
562.957	3.7
563.299	3.6
563.641	3.66
563.983	3.71
564.325	3.53
564.667	3.6
565.008	3.43
565.35	3.75
565.692	3.77
566.033	3.52
566.375	3.63
566.716	3.58
567.058	3.64
567.399	3.64
567.741	3.72
568.082	3.63
568.423	3.54
568.764	3.75
569.105	3.69
569.447	3.74
569.788	3.69
570.129	3.52
570.47	3.5
570.811	3.64
571.151	3.64
571.492	3.72
571.833	3.55
572.174	3.68
572.514	3.62
572.855	3.63
573.195	3.46
573.536	3.49
573.876	3.63
574.217	3.68
574.557	3.72
574.898	3.6
575.238	3.59
575.578	3.77
575.918	3.5
576.258	3.57
576.598	3.54
576.938	3.66
577.278	3.7
577.618	3.63
577.958	3.7
578.298	3.7
578.638	3.71
578.977	3.74
579.317	3.81
579.657	3.72
579.996	3.52
580.336	3.73
580.675	3.98
581.014	3.83
581.354	3.79
581.693	3.54
582.032	3.55
582.372	3.68
582.711	3.74
583.05	3.75
583.389	3.75
583.728	3.75
584.067	3.76
584.406	4
584.745	3.97
585.083	3.8
585.422	3.85
585.761	3.53
586.1	3.95
586.438	3.79
586.777	3.62
587.115	3.82
587.454	3.87
587.792	3.49
588.13	4.03
588.469	3.86
588.807	3.81
589.145	3.95
589.483	3.68
589.821	3.72
590.159	3.78
590.497	3.51
590.835	3.71
591.173	3.87
591.511	3.8
591.849	3.96
592.187	3.88
592.524	3.74
592.862	3.71
593.2	3.71
593.537	3.91
593.875	3.66
594.212	3.61
594.55	3.72
594.887	3.92
595.224	3.76
595.561	3.9
595.899	3.73
596.236	3.82
596.573	3.69
596.91	4
597.247	3.76
597.584	3.88
597.921	3.79
598.258	3.77
598.594	3.52
598.931	3.73
599.268	3.75
599.604	3.95
599.941	3.87
600.277	3.86
600.614	3.86
600.95	3.97
601.287	3.91
601.623	4.02
601.959	3.71
602.296	4.1
602.632	4.02
602.968	3.78
603.304	3.88
603.64	3.91
603.976	3.91
604.312	4.08
604.648	3.92
604.984	3.84
605.319	3.75
605.655	3.89
605.991	3.85
606.326	3.7
606.662	3.71
606.998	3.68
607.333	3.8
607.668	3.96
608.004	3.82
608.339	3.98
608.674	4.08
609.01	3.98
609.345	4.07
609.68	3.75
610.015	3.84
610.35	3.79
610.685	3.76
611.02	4.01
611.355	3.82
611.689	3.68
612.024	4.13
612.359	4.22
612.694	4.14
613.028	4.28
613.363	3.89
613.697	3.87
614.032	3.81
614.366	3.96
614.7	4.32
615.035	3.87
615.369	4.27
615.703	4.26
616.037	3.9
616.371	4.03
616.705	4.1
617.039	4.16
617.373	3.67
617.707	3.97
618.041	4.11
618.375	3.89
618.709	4
619.042	3.87
619.376	3.85
619.71	3.84
620.043	3.75
620.377	3.95
620.71	3.67
621.043	3.96
621.377	3.95
621.71	4.27
622.043	4.02
622.376	3.83
622.709	4.29
623.043	3.94
623.376	4.12
623.709	3.78
624.041	3.87
624.374	3.9
624.707	3.89
625.04	3.99
625.373	3.77
625.705	3.97
626.038	4.08
626.37	4.07
626.703	3.87
627.035	4.01
627.368	3.91
627.7	3.79
628.032	3.94
628.365	3.76
628.697	3.75
629.029	4.18
629.361	3.84
629.693	4.3
630.025	4.07
630.357	4.02
630.689	4.38
631.021	4.33
631.353	4.31
631.684	4.05
632.016	3.72
632.348	4.14
632.679	4.11
633.011	4.08
633.342	4.36
633.674	3.89
634.005	4.01
634.336	3.85
634.668	3.99
634.999	4.09
635.33	4.2
635.661	4.13
635.992	3.98
636.323	4.24
636.654	3.86
636.985	4.46
637.316	4.01
637.647	4.41
637.977	3.87
638.308	3.77
638.639	3.98
638.969	4.15
639.3	4.07
639.63	4
639.961	3.87
640.291	4.63
640.622	4.12
640.952	3.97
641.282	3.54
641.612	4.37
641.943	3.97
642.273	4.48
642.603	4.18
642.933	3.92
643.263	4.22
643.592	4.18
643.922	4.43
644.252	4.28
644.582	3.97
644.911	3.83
645.241	3.64
645.571	4.07
645.9	4.16
646.23	4.09
646.559	4.26
646.888	3.99
647.218	4.64
647.547	4.13
647.876	4.14
648.205	3.95
648.534	4.07
648.863	4.07
649.192	4.38
649.521	4.17
649.85	4.49
650.179	3.87
650.508	4.18
650.837	4.07
651.165	4.6
651.494	4.17
651.822	4.12
652.151	4.35
652.479	4.58
652.808	3.94
653.136	4.22
653.465	4.28
653.793	4.39
654.121	4.52
654.449	4.41
654.777	4.37
655.105	4.48
655.433	4.64
655.761	4.35
656.089	4.52
656.417	4.07
656.745	5.19
657.073	4.43
657.4	4.62
657.728	4.17
658.056	4.27
658.383	4.47
658.711	3.66
659.038	4.74
659.365	4.46
659.693	4.32
660.02	4.2
660.347	4.4
660.674	3.82
661.001	4.01
661.329	4.37
661.656	4.49
661.982	4.48
662.309	4.49
662.636	4.34
662.963	4.61
663.29	4.21
663.616	4.77
663.943	4.55
664.27	4.22
664.596	3.96
664.923	5.24
665.249	4.46
665.576	4.07
665.902	4.71
666.228	3.94
666.554	4.18
666.881	4.83
667.207	4.12
667.533	4.98
667.859	4.65
668.185	4.84
668.511	3.85
668.837	3.5
669.162	4.66
669.488	4.54
669.814	4.85
670.139	5.02
670.465	4.24
670.791	4.91
671.116	4.86
671.442	4.77
671.767	4.39
672.092	4.43
672.418	4.96
672.743	3.95
673.068	3.98
673.393	4.84
673.718	4.34
674.043	4.09
674.368	4.89
674.693	4.27
675.018	4.57
675.343	5.06
675.667	4.07
675.992	3.62
676.317	4.66
676.641	3.87
676.966	4.25
677.29	4.11
677.615	4.48
677.939	4.72
678.264	4.49
678.588	4.56
678.912	4.72
679.236	4.49
679.56	4.52
679.885	4.64
680.209	4.3
680.532	4.04
680.856	4.77
681.18	4.63
681.504	4.53
681.828	4.18
682.152	4.21
682.475	4.6
682.799	4.63
683.122	4.35
683.446	4.62
683.769	4.41
684.093	4.5
684.416	4.57
684.739	4.89
685.062	4.85
685.386	4.57
685.709	4.47
686.032	4.6
686.355	4.65
686.678	4.68
687.001	4.08
687.324	4.1
687.646	4.02
687.969	4.88
688.292	4.78
688.614	4.85
688.937	4.63
689.26	4.1
689.582	4.59
689.904	4.55
690.227	4.93
690.549	5.03
690.871	4.66
691.194	4.45
691.516	4.68
691.838	4.44
