Data from 0062_forehead_Reflection__4__207.txt Node

Date: Fri Dec 16 15:35:36 CST 2022
User: ToomeyLab
Spectrometer: FLMS14357
Trigger mode: 0
Integration Time (sec): 1.000000E-2
Scans to average: 100
Electric dark correction enabled: true
Nonlinearity correction enabled: false
Boxcar width: 0
XAxis mode: Wavelengths
Number of Pixels in Spectrum: 2048
>>>>>Begin Spectral Data<<<<<
189.047	-549.41
189.435	-549.41
189.823	-549.41
190.211	171.23
190.599	-79.43
190.987	40.54
191.375	-64.22
191.763	-61.96
192.151	56.47
192.538	87.77
192.926	70.6
193.314	249.45
193.702	338.19
194.089	-19.2
194.477	-239.77
194.864	-233.96
195.252	-0.41
195.639	44.87
196.027	-44.51
196.414	-44.62
196.801	-585.8
197.189	215.67
197.576	-48.97
197.963	71.43
198.351	50.07
198.738	-77.48
199.125	61.9
199.512	-21.88
199.899	-6.44
200.286	24.58
200.673	23.03
201.06	33.22
201.447	62.05
201.833	26.48
202.22	29.13
202.607	12.17
202.994	39.85
203.38	-35.77
203.767	12.7
204.154	-9.95
204.54	56.11
204.927	51.62
205.313	35.57
205.699	18.84
206.086	43.99
206.472	5.33
206.858	-9.11
207.245	0.12
207.631	-15.23
208.017	24.62
208.403	20.09
208.789	1.62
209.175	47.82
209.561	55.9
209.947	-17.54
210.333	-1.02
210.719	3.53
211.105	-13.2
211.491	7.91
211.876	-3.2
212.262	-39.26
212.648	10.91
213.034	46.52
213.419	36.43
213.805	18.73
214.19	16.46
214.576	11.87
214.961	13.27
215.346	9.85
215.732	1.67
216.117	10.89
216.502	-2.16
216.888	11.01
217.273	32.62
217.658	-7.49
218.043	10.37
218.428	23.8
218.813	25.94
219.198	-14.38
219.583	6.98
219.968	7.98
220.353	13.16
220.738	13.67
221.122	12.85
221.507	16.46
221.892	15.12
222.276	22.63
222.661	0.55
223.046	2.02
223.43	2.37
223.815	15.84
224.199	15.83
224.583	3.09
224.968	9.13
225.352	5.57
225.736	11.28
226.121	4.87
226.505	3.9
226.889	17.19
227.273	9.65
227.657	-2.97
228.041	8.12
228.425	9.97
228.809	6.05
229.193	1.38
229.577	2.55
229.961	3.43
230.344	3.51
230.728	3.72
231.112	3.18
231.495	3.43
231.879	3.47
232.263	1.62
232.646	2.9
233.03	2.48
233.413	-0.61
233.797	5.28
234.18	4.26
234.563	5.63
234.946	1.41
235.33	4.79
235.713	4.47
236.096	3.86
236.479	5
236.862	5.1
237.245	5.59
237.628	4.57
238.011	4.24
238.394	5
238.777	5.25
239.16	1.82
239.543	3.04
239.925	4.34
240.308	3.95
240.691	3.36
241.073	4.88
241.456	3.98
241.838	3.24
242.221	3.25
242.603	3.41
242.986	3.95
243.368	3.32
243.75	3.22
244.133	3.87
244.515	3.84
244.897	3.28
245.279	3.47
245.661	3.46
246.043	4.52
246.425	3.42
246.807	4.4
247.189	3.84
247.571	4.09
247.953	3.65
248.335	3.9
248.717	3.62
249.098	3.82
249.48	3.28
249.862	3.93
250.243	3.94
250.625	3.88
251.006	4.14
251.388	4.58
251.769	3.97
252.151	4.31
252.532	4.18
252.913	4.14
253.295	3.76
253.676	4.11
254.057	3.73
254.438	4.13
254.819	3.57
255.2	4.46
255.581	4.31
255.962	3.99
256.343	5.66
256.724	4.11
257.105	3.76
257.486	4.62
257.867	4.12
258.247	4.42
258.628	4.43
259.009	3.87
259.389	3.79
259.77	3.7
260.15	4.24
260.531	3.77
260.911	3.68
261.292	3.86
261.672	3.58
262.052	3.75
262.432	3.58
262.813	3.72
263.193	3.58
263.573	3.38
263.953	3.5
264.333	3.63
264.713	3.57
265.093	3.36
265.473	4.85
265.853	3.9
266.233	3.39
266.612	3.91
266.992	3.87
267.372	4.1
267.752	3.19
268.131	3.86
268.511	3.82
268.89	3.84
269.27	3.52
269.649	3.61
270.029	4.01
270.408	3.43
270.787	3.88
271.167	4.01
271.546	3.19
271.925	3.82
272.304	3.2
272.683	3.46
273.062	3.57
273.441	3.64
273.82	3.88
274.199	3.59
274.578	3.43
274.957	3.72
275.336	3.74
275.715	3.94
276.093	4.14
276.472	4.12
276.851	3.71
277.229	3.76
277.608	3.58
277.986	3.77
278.365	3.28
278.743	3.58
279.122	3.21
279.5	3.43
279.878	3.13
280.257	3.74
280.635	3.39
281.013	4.21
281.391	3.54
281.769	3.37
282.147	3.85
282.525	3.46
282.903	3.51
283.281	3.44
283.659	3.79
284.037	3.85
284.415	3.49
284.792	3.86
285.17	3.41
285.548	3.66
285.925	3.43
286.303	3.34
286.68	3.72
287.058	3.82
287.435	3.67
287.813	3.64
288.19	4.34
288.567	3.74
288.945	3.94
289.322	3.98
289.699	4.04
290.076	4.17
290.453	4.07
290.83	3.78
291.207	4
291.584	3.58
291.961	4.06
292.338	4.01
292.715	4.26
293.092	4.43
293.469	4.17
293.845	4.39
294.222	4.15
294.599	4.81
294.975	4.38
295.352	3.87
295.728	4.26
296.105	4.41
296.481	4.39
296.858	4.38
297.234	4.59
297.61	4.68
297.986	4.51
298.363	4.11
298.739	4.62
299.115	4.18
299.491	4.39
299.867	4.57
300.243	4.39
300.619	4.44
300.995	4.4
301.371	4.85
301.746	4.5
302.122	4.89
302.498	5.01
302.874	5.22
303.249	5.53
303.625	5.1
304	4.42
304.376	4.64
304.751	5.21
305.127	5
305.502	5.32
305.878	4.84
306.253	5.32
306.628	5.63
307.003	5.72
307.378	5.48
307.754	5.67
308.129	5.23
308.504	5.64
308.879	5.84
309.254	5.54
309.629	5.72
310.003	5.84
310.378	5.97
310.753	6.12
311.128	5.61
311.502	5.19
311.877	5.81
312.252	5.81
312.626	5.67
313.001	6
313.375	6.2
313.75	5.95
314.124	6.73
314.498	6.37
314.873	6.2
315.247	6
315.621	6.83
315.995	6.49
316.369	7.05
316.743	7.46
317.117	6.89
317.491	6.56
317.865	6.39
318.239	7.31
318.613	6.85
318.987	6.77
319.361	7.19
319.734	6.77
320.108	7
320.482	6.88
320.855	7.02
321.229	7.63
321.602	7.3
321.976	6.86
322.349	6.81
322.723	6.61
323.096	6.99
323.469	7.21
323.843	7.04
324.216	7.22
324.589	7.44
324.962	7.67
325.335	7.59
325.708	7.83
326.081	8.16
326.454	8.04
326.827	7.79
327.2	8.2
327.573	8.16
327.945	8.27
328.318	8.47
328.691	8.2
329.063	8.29
329.436	8.16
329.809	7.96
330.181	8.46
330.553	9.28
330.926	8.17
331.298	8.19
331.671	8.29
332.043	8.62
332.415	9.04
332.787	8.96
333.159	8.4
333.532	8.66
333.904	8.87
334.276	8.52
334.648	8.76
335.02	8.73
335.391	9.17
335.763	9.02
336.135	9.11
336.507	8.99
336.879	8.97
337.25	9.27
337.622	8.94
337.993	9.59
338.365	9.43
338.736	9.43
339.108	8.84
339.479	9.52
339.851	9.16
340.222	9.61
340.593	8.78
340.964	9.49
341.336	9.18
341.707	9.39
342.078	9.1
342.449	10.03
342.82	9.52
343.191	9.69
343.562	9.62
343.933	9.52
344.303	9.67
344.674	9.93
345.045	10.36
345.416	9.76
345.786	9.4
346.157	9.84
346.527	9.73
346.898	9.78
347.268	10.01
347.639	10.5
348.009	10.52
348.38	10.29
348.75	10.39
349.12	10.3
349.49	10.37
349.861	10.97
350.231	10.8
350.601	10.52
350.971	10.6
351.341	10.58
351.711	10.55
352.081	10.79
352.45	11.13
352.82	11.06
353.19	10.87
353.56	11.25
353.929	11.01
354.299	10.9
354.669	11.42
355.038	10.96
355.408	11.54
355.777	10.94
356.147	11.54
356.516	11.68
356.885	11.15
357.254	11.74
357.624	11.46
357.993	11.16
358.362	11.46
358.731	11.5
359.1	11.85
359.469	11.62
359.838	11.83
360.207	11.83
360.576	12.12
360.945	11.68
361.314	12.04
361.682	11.51
362.051	11.67
362.42	12.4
362.788	11.91
363.157	11.86
363.525	11.93
363.894	11.85
364.262	12.34
364.631	12.82
364.999	11.88
365.367	12.67
365.735	12.31
366.104	12.27
366.472	12.93
366.84	12.75
367.208	12.44
367.576	12.79
367.944	12.86
368.312	12.31
368.68	13.11
369.048	13.11
369.416	12.7
369.783	12.92
370.151	13.09
370.519	13.04
370.886	12.97
371.254	13.16
371.621	13.21
371.989	13.45
372.356	13.38
372.724	13.24
373.091	13.28
373.458	13.53
373.826	13.78
374.193	13.94
374.56	13.39
374.927	13.6
375.294	14.08
375.661	13.86
376.028	14.07
376.395	13.86
376.762	14.16
377.129	14.08
377.496	13.88
377.863	14.04
378.229	13.88
378.596	13.9
378.963	14.15
379.329	14.26
379.696	14.33
380.062	14.52
380.429	14.6
380.795	14.27
381.161	14.34
381.528	14.48
381.894	14.82
382.26	14.49
382.626	14.31
382.993	14.58
383.359	14.66
383.725	15.06
384.091	14.71
384.457	14.87
384.823	14.83
385.188	15.32
385.554	15.14
385.92	15.34
386.286	15.32
386.651	15.16
387.017	15.34
387.383	14.98
387.748	15.01
388.114	15.63
388.479	15.35
388.845	15.41
389.21	15.51
389.575	15.72
389.94	15.71
390.306	15.63
390.671	15.71
391.036	15.62
391.401	15.95
391.766	15.78
392.131	15.83
392.496	15.69
392.861	15.57
393.226	15.96
393.591	15.85
393.956	16.08
394.32	15.83
394.685	16.32
395.05	16.11
395.414	16.11
395.779	16.14
396.143	16.02
396.508	16.42
396.872	16.47
397.236	16
397.601	16.4
397.965	16.31
398.329	16.56
398.694	16.37
399.058	16.71
399.422	16.55
399.786	17.02
400.15	16.52
400.514	16.66
400.878	16.76
401.242	17.1
401.605	16.87
401.969	17.03
402.333	16.81
402.697	17.29
403.06	17.38
403.424	16.95
403.787	17.1
404.151	16.91
404.514	17.01
404.878	17.17
405.241	17.15
405.604	17
405.968	16.94
406.331	17.44
406.694	17.29
407.057	17.59
407.42	17.3
407.783	17.36
408.146	17.45
408.509	17.25
408.872	17.78
409.235	17.79
409.598	18.02
409.961	17.93
410.323	17.72
410.686	17.87
411.049	17.88
411.411	17.66
411.774	17.9
412.136	18.02
412.499	17.88
412.861	17.85
413.223	18.04
413.586	18.18
413.948	18.11
414.31	18.43
414.672	18.05
415.035	18.35
415.397	18.13
415.759	18.37
416.121	18.65
416.483	18.73
416.845	18.44
417.206	18.61
417.568	18.67
417.93	18.42
418.292	18.53
418.653	18.65
419.015	18.74
419.377	18.55
419.738	18.59
420.1	18.54
420.461	18.59
420.822	18.62
421.184	18.54
421.545	18.62
421.906	18.64
422.267	18.6
422.629	18.64
422.99	18.74
423.351	18.88
423.712	18.97
424.073	19.1
424.434	18.95
424.795	18.9
425.155	19.03
425.516	18.92
425.877	19.09
426.238	19.02
426.598	19.32
426.959	19.29
427.32	19.44
427.68	19.65
428.041	19.95
428.401	19.93
428.761	19.94
429.122	19.67
429.482	20.13
429.842	20.16
430.202	20.32
430.563	20.13
430.923	20.27
431.283	20.37
431.643	20.33
432.003	20.58
432.363	20.63
432.722	20.51
433.082	20.5
433.442	20.43
433.802	20.5
434.161	20.62
434.521	20.61
434.881	20.71
435.24	20.71
435.6	20.74
435.959	20.89
436.319	20.9
436.678	21.01
437.037	21.05
437.396	21.23
437.756	21.21
438.115	21.12
438.474	21.22
438.833	21.48
439.192	21.47
439.551	21.46
439.91	21.59
440.269	21.57
440.628	21.39
440.987	21.27
441.345	21.46
441.704	21.46
442.063	21.44
442.421	21.31
442.78	21.43
443.138	21.65
443.497	21.76
443.855	21.89
444.214	22.08
444.572	22.16
444.93	22.27
445.288	22.19
445.647	22.12
446.005	22.03
446.363	22.12
446.721	22.02
447.079	22.01
447.437	21.92
447.795	21.93
448.153	21.91
448.51	21.99
448.868	22.3
449.226	22.39
449.584	22.38
449.941	22.64
450.299	22.78
450.656	22.93
451.014	22.85
451.371	22.92
451.729	22.99
452.086	23.29
452.443	23.09
452.801	23.39
453.158	23.22
453.515	23.04
453.872	23.4
454.229	23.32
454.586	23.26
454.943	23.32
455.3	23.81
455.657	23.55
456.014	23.72
456.371	23.61
456.727	23.73
457.084	23.86
457.441	23.94
457.797	24
458.154	23.97
458.51	24.13
458.867	23.8
459.223	24.21
459.58	23.92
459.936	23.97
460.292	23.86
460.648	23.84
461.005	23.55
461.361	23.56
461.717	23.88
462.073	24.02
462.429	24.09
462.785	24.43
463.141	24.55
463.496	24.53
463.852	24.8
464.208	24.6
464.564	24.76
464.919	24.61
465.275	25.08
465.631	24.87
465.986	24.78
466.342	24.79
466.697	25
467.052	25.2
467.408	25.2
467.763	25.06
468.118	25.36
468.473	25.33
468.829	25.5
469.184	25.35
469.539	25.42
469.894	25.47
470.249	25.68
470.603	25.5
470.958	25.73
471.313	25.76
471.668	25.76
472.023	25.81
472.377	25.91
472.732	25.72
473.086	25.68
473.441	26.1
473.795	26.16
474.15	26.19
474.504	26.11
474.859	25.97
475.213	26.21
475.567	26.34
475.921	26.58
476.275	26.4
476.63	26.55
476.984	26.64
477.338	26.56
477.692	26.31
478.045	26.51
478.399	26.56
478.753	26.56
479.107	26.48
479.461	26.52
479.814	26.51
480.168	26.57
480.521	26.81
480.875	26.76
481.228	26.77
481.582	26.76
481.935	26.95
482.289	26.81
482.642	26.95
482.995	26.72
483.348	26.84
483.701	26.64
484.055	26.3
484.408	26.11
484.761	25.64
485.114	25.56
485.466	25.67
485.819	26.05
486.172	26.41
486.525	26.58
486.878	26.72
487.23	26.96
487.583	26.85
487.936	26.76
488.288	26.41
488.641	26.39
488.993	26.33
489.345	26.48
489.698	26.69
490.05	26.9
490.402	27.23
490.754	27.52
491.107	27.64
491.459	27.72
491.811	27.77
492.163	27.54
492.515	27.23
492.866	26.73
493.218	26.97
493.57	27.37
493.922	27.71
494.274	28.02
494.625	28.08
494.977	28.28
495.328	28.64
495.68	28.53
496.031	28.83
496.383	28.74
496.734	28.9
497.086	28.77
497.437	28.91
497.788	28.44
498.139	28.64
498.49	28.62
498.842	28.77
499.193	29
499.544	28.95
499.894	28.82
500.245	29.27
500.596	29.22
500.947	29.34
501.298	29.42
501.648	29.43
501.999	29.73
502.35	29.7
502.7	29.6
503.051	29.93
503.401	29.77
503.752	29.75
504.102	29.76
504.452	29.81
504.803	29.89
505.153	29.79
505.503	29.84
505.853	29.6
506.203	30.12
506.553	29.97
506.903	30.2
507.253	30.14
507.603	30.3
507.953	30.14
508.303	30.47
508.652	30.24
509.002	30.24
509.352	30.2
509.701	30.23
510.051	30.22
510.4	30.21
510.75	30.19
511.099	30.27
511.449	30.48
511.798	30.52
512.147	30.52
512.496	30.69
512.846	30.58
513.195	30.68
513.544	30.7
513.893	30.47
514.242	30.83
514.591	30.96
514.939	30.95
515.288	31.12
515.637	31.23
515.986	31.25
516.334	31.46
516.683	31.26
517.032	31.27
517.38	31.43
517.729	31.37
518.077	31.5
518.426	31.21
518.774	31.31
519.122	30.91
519.47	30.99
519.819	30.91
520.167	30.8
520.515	31.08
520.863	31.17
521.211	31.2
521.559	31.49
521.907	31.51
522.255	31.68
522.602	31.82
522.95	31.91
523.298	31.88
523.645	32.18
523.993	32.15
524.341	32.09
524.688	32.15
525.036	32.1
525.383	32.1
525.73	32.3
526.078	32.06
526.425	31.75
526.772	31.52
527.119	31.4
527.466	31.58
527.814	31.87
528.161	31.91
528.508	31.92
528.854	31.77
529.201	31.57
529.548	31.19
529.895	30.95
530.242	31.07
530.588	31.43
530.935	31.82
531.282	31.87
531.628	32.04
531.975	32.23
532.321	32.38
532.667	32.42
533.014	32.38
533.36	32.46
533.706	32.4
534.052	32.27
534.399	32.07
534.745	31.87
535.091	32.18
535.437	32.34
535.783	32.68
536.129	32.93
536.474	32.9
536.82	33.15
537.166	33.11
537.512	32.83
537.857	32.91
538.203	32.62
538.549	32.93
538.894	33.19
539.239	33.53
539.585	33.68
539.93	33.87
540.276	33.77
540.621	33.92
540.966	33.9
541.311	33.88
541.656	33.51
542.001	33.55
542.346	32.83
542.691	32.53
543.036	32.74
543.381	33.03
543.726	33.43
544.071	33.7
544.415	33.67
544.76	33.68
545.105	33.83
545.449	33.91
545.794	34.03
546.138	34.18
546.483	34.26
546.827	34.38
547.171	34.38
547.516	34.37
547.86	34.24
548.204	34.12
548.548	34.25
548.892	34.3
549.236	34.72
549.58	35.02
549.924	35.03
550.268	35.35
550.612	35.31
550.956	35.48
551.3	35.55
551.643	35.57
551.987	35.63
552.33	35.48
552.674	35.72
553.017	35.66
553.361	35.47
553.704	35.4
554.048	35.35
554.391	35.3
554.734	35.45
555.077	35.63
555.42	35.84
555.764	35.8
556.107	36.04
556.45	36.14
556.793	36.33
557.135	36.28
557.478	36.32
557.821	36.14
558.164	36.3
558.507	36.38
558.849	36.65
559.192	36.49
559.534	36.24
559.877	36.77
560.219	36.64
560.562	36.68
560.904	36.67
561.246	36.71
561.589	36.75
561.931	37.09
562.273	36.57
562.615	36.62
562.957	36.96
563.299	36.76
563.641	36.87
563.983	36.9
564.325	36.8
564.667	37.04
565.008	36.92
565.35	37.16
565.692	37.15
566.033	36.94
566.375	36.93
566.716	36.91
567.058	37.02
567.399	36.96
567.741	36.98
568.082	36.98
568.423	36.91
568.764	37.24
569.105	37.5
569.447	37.4
569.788	37.33
570.129	37.8
570.47	37.38
570.811	37.59
571.151	37.3
571.492	37.65
571.833	37.85
572.174	37.73
572.514	37.51
572.855	37.32
573.195	37.6
573.536	37.39
573.876	37.5
574.217	37.88
574.557	37.73
574.898	38
575.238	37.76
575.578	38.11
575.918	38.03
576.258	37.83
576.598	37.87
576.938	37.99
577.278	38.04
577.618	38.13
577.958	38.23
578.298	38.52
578.638	38.57
578.977	38.62
579.317	38.8
579.657	38.75
579.996	38.72
580.336	38.8
580.675	38.79
581.014	39.16
581.354	39.07
581.693	38.96
582.032	38.83
582.372	38.91
582.711	39.17
583.05	39.1
583.389	39.25
583.728	39.59
584.067	39.35
584.406	39.49
584.745	39.33
585.083	39.53
585.422	39.75
585.761	39.61
586.1	39.67
586.438	39.58
586.777	39.62
587.115	39.73
587.454	39.55
587.792	39.78
588.13	39.92
588.469	39.83
588.807	40.14
589.145	40.09
589.483	39.84
589.821	40
590.159	39.85
590.497	39.58
590.835	39.98
591.173	40.01
591.511	39.89
591.849	40.04
592.187	39.79
592.524	40.13
592.862	40.1
593.2	40.02
593.537	40.53
593.875	40.44
594.212	40.67
594.55	40.25
594.887	40.39
595.224	40.36
595.561	40.47
595.899	40.25
596.236	40.36
596.573	40.44
596.91	40.57
597.247	40.37
597.584	40.54
597.921	40.33
598.258	40.2
598.594	39.98
598.931	40.14
599.268	40.53
599.604	40.61
599.941	40.97
600.277	40.79
600.614	40.96
600.95	41.2
601.287	41.21
601.623	41.29
601.959	41.06
602.296	41.09
602.632	41.21
602.968	41.05
603.304	40.93
603.64	41.19
603.976	41.41
604.312	41.06
604.648	40.87
604.984	40.7
605.319	40.85
605.655	40.87
605.991	41.05
606.326	40.56
606.662	40.85
606.998	41.09
607.333	41.26
607.668	41.3
608.004	41.68
608.339	41.77
608.674	41.6
609.01	42.02
609.345	41.93
609.68	41.79
610.015	41.77
610.35	41.56
610.685	41.42
611.02	41.61
611.355	41.59
611.689	41.45
612.024	41.95
612.359	42.26
612.694	42.19
613.028	42.26
613.363	42.22
613.697	42.42
614.032	42.21
614.366	42.06
614.7	42.7
615.035	42.63
615.369	42.74
615.703	42.53
616.037	42.53
616.371	42.89
616.705	42.74
617.039	42.89
617.373	42.69
617.707	43.17
618.041	43.24
618.375	42.76
618.709	43.12
619.042	42.5
619.376	42.99
619.71	42.93
620.043	42.98
620.377	43.1
620.71	43.4
621.043	43.15
621.377	43.27
621.71	43.25
622.043	43.54
622.376	42.93
622.709	43.38
623.043	42.87
623.376	43.27
623.709	43.48
624.041	43.5
624.374	43.28
624.707	43.38
625.04	43.55
625.373	43.17
625.705	43.5
626.038	43.51
626.37	43.54
626.703	43.61
627.035	43.47
627.368	43.66
627.7	43.82
628.032	43.45
628.365	43.21
628.697	43.19
629.029	43.75
629.361	43.67
629.693	43.95
630.025	44.03
630.357	44.07
630.689	44.06
631.021	44.3
631.353	43.7
631.684	43.9
632.016	43.92
632.348	44.2
632.679	43.78
633.011	44.22
633.342	44.19
633.674	44.23
634.005	44.5
634.336	44.15
634.668	44.41
634.999	44.35
635.33	44.23
635.661	44.47
635.992	44.31
636.323	44.53
636.654	44.47
636.985	44.8
637.316	44.61
637.647	44.64
637.977	44.51
638.308	44.28
638.639	44.27
638.969	44.83
639.3	44.83
639.63	45.01
639.961	44.66
640.291	44.94
640.622	45.08
640.952	44.89
641.282	44.76
641.612	44.81
641.943	44.86
642.273	45.43
642.603	45.19
642.933	45.02
643.263	45.48
643.592	45.01
643.922	45.68
644.252	45.13
644.582	45.54
644.911	45.32
645.241	45.44
645.571	45.19
645.9	45.24
646.23	45.24
646.559	45.75
646.888	45.37
647.218	45.5
647.547	45.73
647.876	45.86
648.205	45.21
648.534	45.51
648.863	45.78
649.192	45.96
649.521	46.01
649.85	45.92
650.179	45.84
650.508	45.44
650.837	45.95
651.165	45.62
651.494	45.88
651.822	46.31
652.151	45.88
652.479	45.74
652.808	45.39
653.136	46.12
653.465	45.97
653.793	45.97
654.121	46
654.449	46.17
654.777	46.01
655.105	45.88
655.433	46.16
655.761	46.11
656.089	46.75
656.417	46.35
656.745	46.9
657.073	46.48
657.4	46.3
657.728	47.04
658.056	46.63
658.383	46.91
658.711	46.21
659.038	46.58
659.365	46.58
659.693	46.63
660.02	46.16
660.347	46.17
660.674	46.32
661.001	46.06
661.329	46.19
661.656	46.53
661.982	46.52
662.309	47.03
662.636	46.83
662.963	47.02
663.29	46.96
663.616	46.97
663.943	46.98
664.27	47.11
664.596	47.52
664.923	47.38
665.249	47.58
665.576	47.24
665.902	47
666.228	47.07
666.554	47.42
666.881	47.47
667.207	46.97
667.533	47.49
667.859	46.76
668.185	47.6
668.511	47.31
668.837	47.01
669.162	47.63
669.488	47.37
669.814	47.75
670.139	47.82
670.465	47.41
670.791	47.2
671.116	48.07
