Data from 0062_crown_Reflection__0__198.txt Node

Date: Fri Dec 16 15:33:24 CST 2022
User: ToomeyLab
Spectrometer: FLMS14357
Trigger mode: 0
Integration Time (sec): 1.000000E-2
Scans to average: 100
Electric dark correction enabled: true
Nonlinearity correction enabled: false
Boxcar width: 0
XAxis mode: Wavelengths
Number of Pixels in Spectrum: 2048
>>>>>Begin Spectral Data<<<<<
189.047	-155.23
189.435	-155.23
189.823	-155.23
190.211	42.24
190.599	-436.4
190.987	29.76
191.375	-4.58
191.763	594.09
192.151	31.04
192.538	58.44
192.926	-13.74
193.314	109.32
193.702	222.79
194.089	-3.87
194.477	132.85
194.864	-227.28
195.252	27.38
195.639	13.05
196.027	-74.31
196.414	-249.86
196.801	603.94
197.189	249.86
197.576	305.14
197.963	-201.43
198.351	-57.16
198.738	-97.63
199.125	15.07
199.512	31.42
199.899	-22.64
200.286	-20.02
200.673	21.02
201.06	18.58
201.447	21.78
201.833	-13.07
202.22	-15.45
202.607	-66.07
202.994	-14.61
203.38	-82.41
203.767	-61.78
204.154	-63.17
204.54	1.24
204.927	-0.15
205.313	14.96
205.699	-1.53
206.086	-18.53
206.472	-14.28
206.858	-8.13
207.245	8.82
207.631	-21.8
208.017	-6.23
208.403	12.46
208.789	-4.98
209.175	28.66
209.561	-16.16
209.947	-27.71
210.333	-30.31
210.719	9.27
211.105	-14.49
211.491	-0.03
211.876	-4.72
212.262	-58.28
212.648	-70.17
213.034	-6.74
213.419	4.19
213.805	-16.38
214.19	-46.09
214.576	-44.57
214.961	-71.2
215.346	-27.41
215.732	-26.24
216.117	-16.05
216.502	-1.23
216.888	-50.96
217.273	-4.24
217.658	-10.3
218.043	-2.08
218.428	-45.65
218.813	-14.36
219.198	-35.76
219.583	4.45
219.968	2.58
220.353	7.11
220.738	-23.37
221.122	-21.81
221.507	-6.79
221.892	-7.85
222.276	15.61
222.661	-5.49
223.046	4.59
223.43	-6.93
223.815	1.03
224.199	-8.19
224.583	3.33
224.968	-2.31
225.352	-6.17
225.736	0.99
226.121	-3.39
226.505	-3
226.889	6.01
227.273	2.21
227.657	-3.62
228.041	1.62
228.425	2.29
228.809	2.79
229.193	3.14
229.577	3.71
229.961	3.83
230.344	4.45
230.728	3.65
231.112	4.64
231.495	2.18
231.879	3.36
232.263	3.37
232.646	5.19
233.03	2.32
233.413	1.61
233.797	6.37
234.18	1.97
234.563	2.58
234.946	2.59
235.33	2.15
235.713	3.72
236.096	4.32
236.479	5.42
236.862	4.7
237.245	3.28
237.628	3.64
238.011	3.5
238.394	4.8
238.777	2.92
239.16	2.77
239.543	1.82
239.925	4.45
240.308	4.21
240.691	3.8
241.073	3.05
241.456	3.16
241.838	4.2
242.221	4.46
242.603	5.1
242.986	5.09
243.368	3.77
243.75	4.52
244.133	4.36
244.515	4.47
244.897	4.74
245.279	3.61
245.661	3.65
246.043	5.12
246.425	3.84
246.807	4.9
247.189	4.08
247.571	4.64
247.953	4.65
248.335	4.76
248.717	4.58
249.098	4.73
249.48	4.18
249.862	4.52
250.243	4.7
250.625	4.75
251.006	4.31
251.388	5.3
251.769	4.93
252.151	4.51
252.532	3.82
252.913	3.96
253.295	4.42
253.676	4.86
254.057	4
254.438	3.93
254.819	3.69
255.2	4.12
255.581	4.24
255.962	4.17
256.343	5.34
256.724	3.37
257.105	3.46
257.486	5.02
257.867	2.84
258.247	4.46
258.628	5.06
259.009	4.41
259.389	4.64
259.77	3.9
260.15	4.8
260.531	4.49
260.911	4.27
261.292	4.28
261.672	4.14
262.052	4.23
262.432	4.33
262.813	4.12
263.193	3.24
263.573	4.19
263.953	4.07
264.333	3.66
264.713	3.86
265.093	3.59
265.473	4.06
265.853	3.98
266.233	4.18
266.612	4.15
266.992	3.36
267.372	3.9
267.752	3.54
268.131	3.84
268.511	3.43
268.89	4.16
269.27	4.47
269.649	4.38
270.029	3.88
270.408	3.97
270.787	3.45
271.167	4.17
271.546	3.37
271.925	3.68
272.304	4.44
272.683	4
273.062	4.47
273.441	4.08
273.82	4.13
274.199	4.08
274.578	3.9
274.957	4.21
275.336	3.62
275.715	4.45
276.093	4.14
276.472	3.81
276.851	4.42
277.229	4.46
277.608	3.76
277.986	4.58
278.365	3.9
278.743	4.05
279.122	3.68
279.5	3.6
279.878	3.27
280.257	4.09
280.635	3.34
281.013	4.39
281.391	3.81
281.769	3.9
282.147	4.07
282.525	3.97
282.903	4.36
283.281	4.12
283.659	3.82
284.037	3.83
284.415	4.28
284.792	3.85
285.17	3.58
285.548	3.77
285.925	3.95
286.303	4.08
286.68	4.17
287.058	3.97
287.435	4.05
287.813	3.99
288.19	4.17
288.567	3.44
288.945	4.04
289.322	3.82
289.699	4.21
290.076	4.26
290.453	4
290.83	4.22
291.207	3.91
291.584	4.09
291.961	4.52
292.338	4.46
292.715	4.05
293.092	3.99
293.469	4.05
293.845	4.8
294.222	4.22
294.599	4.42
294.975	4.65
295.352	3.4
295.728	4.1
296.105	4.12
296.481	4.53
296.858	4.27
297.234	4.37
297.61	4.43
297.986	4.18
298.363	3.81
298.739	4.37
299.115	3.98
299.491	4.2
299.867	4.43
300.243	4.28
300.619	4.29
300.995	4.13
301.371	4.23
301.746	4.09
302.122	3.94
302.498	4.36
302.874	4.41
303.249	4.42
303.625	4.09
304	3.75
304.376	4.23
304.751	4.22
305.127	4.76
305.502	5.1
305.878	4.18
306.253	4.58
306.628	4.62
307.003	4.31
307.378	4.27
307.754	4.01
308.129	4.01
308.504	3.91
308.879	4.62
309.254	4.84
309.629	4.18
310.003	4.65
310.378	4.47
310.753	4.44
311.128	4.25
311.502	4.22
311.877	4.13
312.252	4.31
312.626	4.21
313.001	4.64
313.375	4.47
313.75	3.84
314.124	4.97
314.498	4.07
314.873	4.56
315.247	4.26
315.621	4.67
315.995	4.27
316.369	4.23
316.743	5.09
317.117	4.54
317.491	4.52
317.865	4.06
318.239	4.91
318.613	4.38
318.987	4.94
319.361	4.5
319.734	4.38
320.108	5.14
320.482	4.34
320.855	4.45
321.229	5.35
321.602	4.21
321.976	4.75
322.349	3.94
322.723	4.6
323.096	4.83
323.469	3.98
323.843	4.27
324.216	4.19
324.589	4.39
324.962	4.58
325.335	4.21
325.708	4.38
326.081	4.78
326.454	4.46
326.827	4.33
327.2	4.8
327.573	4.64
327.945	4.32
328.318	4.96
328.691	4.3
329.063	4.48
329.436	4.57
329.809	4.05
330.181	4.14
330.553	4.64
330.926	5.01
331.298	4.29
331.671	4.88
332.043	4.55
332.415	5.02
332.787	5.2
333.159	4.1
333.532	4.34
333.904	4.37
334.276	4.82
334.648	4.51
335.02	4.51
335.391	4.77
335.763	4.63
336.135	4.59
336.507	4.79
336.879	4.35
337.25	4.84
337.622	4.49
337.993	4.49
338.365	4.87
338.736	5.06
339.108	4.36
339.479	4.6
339.851	5.12
340.222	4.78
340.593	4.07
340.964	4.5
341.336	4.16
341.707	5
342.078	3.88
342.449	4.62
342.82	4.32
343.191	4.28
343.562	4.38
343.933	5.13
344.303	4.51
344.674	4.49
345.045	4.55
345.416	4.65
345.786	4.47
346.157	4.54
346.527	4.31
346.898	4.51
347.268	4.58
347.639	4.61
348.009	5.04
348.38	4.68
348.75	4.67
349.12	4.87
349.49	4.49
349.861	5.14
350.231	4.9
350.601	4.32
350.971	4.61
351.341	4.52
351.711	4.6
352.081	5.1
352.45	4.74
352.82	4.76
353.19	4.55
353.56	4.57
353.929	4.99
354.299	4.78
354.669	4.6
355.038	4.46
355.408	5.09
355.777	4.65
356.147	4.92
356.516	4.79
356.885	4.37
357.254	4.59
357.624	4.62
357.993	4.56
358.362	4.74
358.731	4.66
359.1	4.87
359.469	4.94
359.838	4.95
360.207	4.75
360.576	4.93
360.945	4.6
361.314	4.62
361.682	4.53
362.051	4.59
362.42	4.93
362.788	4.77
363.157	4.62
363.525	4.74
363.894	4.4
364.262	4.79
364.631	5.05
364.999	4.44
365.367	4.78
365.735	4.58
366.104	4.56
366.472	4.69
366.84	4.82
367.208	4.26
367.576	4.85
367.944	5.2
368.312	4.39
368.68	4.73
369.048	4.92
369.416	4.73
369.783	4.82
370.151	4.58
370.519	4.56
370.886	4.85
371.254	5.08
371.621	4.79
371.989	4.57
372.356	4.9
372.724	4.83
373.091	4.58
373.458	4.77
373.826	4.64
374.193	5.29
374.56	4.61
374.927	4.62
375.294	4.83
375.661	4.56
376.028	4.86
376.395	4.85
376.762	5.12
377.129	4.89
377.496	4.88
377.863	4.79
378.229	4.74
378.596	4.76
378.963	4.65
379.329	4.85
379.696	4.73
380.062	4.88
380.429	4.96
380.795	4.86
381.161	4.81
381.528	4.27
381.894	4.98
382.26	4.73
382.626	4.79
382.993	4.72
383.359	5.09
383.725	4.92
384.091	4.82
384.457	4.9
384.823	4.97
385.188	4.86
385.554	4.97
385.92	5.21
386.286	4.9
386.651	5.16
387.017	5.05
387.383	4.88
387.748	4.84
388.114	5.09
388.479	5.09
388.845	4.93
389.21	4.87
389.575	4.85
389.94	4.97
390.306	4.96
390.671	4.9
391.036	5.1
391.401	5.17
391.766	5.12
392.131	4.81
392.496	4.93
392.861	4.58
393.226	5.12
393.591	4.95
393.956	5.05
394.32	5.02
394.685	5.34
395.05	4.7
395.414	4.96
395.779	5.09
396.143	4.94
396.508	5.19
396.872	5.02
397.236	4.86
397.601	5.12
397.965	4.79
398.329	5.09
398.694	4.87
399.058	5.14
399.422	5.16
399.786	5.1
400.15	4.96
400.514	5.14
400.878	4.83
401.242	5.05
401.605	5.17
401.969	4.97
402.333	4.92
402.697	5.11
403.06	5.2
403.424	4.77
403.787	5.25
404.151	4.85
404.514	5.04
404.878	5.19
405.241	5.14
405.604	5.11
405.968	4.93
406.331	5.15
406.694	5.13
407.057	5.37
407.42	5.17
407.783	4.87
408.146	5.23
408.509	5.05
408.872	5.07
409.235	5.14
409.598	5.09
409.961	5.03
410.323	5.18
410.686	5
411.049	5.04
411.411	4.98
411.774	4.92
412.136	5.21
412.499	5.02
412.861	4.88
413.223	5.18
413.586	4.99
413.948	5.08
414.31	5.26
414.672	5.16
415.035	5.17
415.397	5.41
415.759	5.17
416.121	5.36
416.483	5.29
416.845	5.18
417.206	5.19
417.568	5
417.93	5.07
418.292	5.18
418.653	5.31
419.015	5.17
419.377	5.23
419.738	5.07
420.1	5.26
420.461	5.17
420.822	5.09
421.184	5.11
421.545	5.15
421.906	5.15
422.267	5.02
422.629	5.04
422.99	5.19
423.351	5.11
423.712	5.15
424.073	5.23
424.434	5.14
424.795	5.15
425.155	5.18
425.516	5.17
425.877	5.16
426.238	5.04
426.598	5.27
426.959	5.1
427.32	5.34
427.68	5.27
428.041	5.32
428.401	5.19
428.761	5.25
429.122	5.31
429.482	5.33
429.842	5.51
430.202	5.3
430.563	5.24
430.923	5.32
431.283	5.4
431.643	5.29
432.003	5.44
432.363	5.5
432.722	5.29
433.082	5.23
433.442	5.34
433.802	5.4
434.161	5.34
434.521	5.38
434.881	5.5
435.24	5.37
435.6	5.23
435.959	5.47
436.319	5.35
436.678	5.52
437.037	5.53
437.396	5.51
437.756	5.36
438.115	5.52
438.474	5.42
438.833	5.52
439.192	5.58
439.551	5.4
439.91	5.42
440.269	5.57
440.628	5.52
440.987	5.36
441.345	5.48
441.704	5.47
442.063	5.45
442.421	5.48
442.78	5.48
443.138	5.44
443.497	5.5
443.855	5.58
444.214	5.43
444.572	5.57
444.93	5.65
445.288	5.57
445.647	5.61
446.005	5.53
446.363	5.58
446.721	5.41
447.079	5.58
447.437	5.5
447.795	5.55
448.153	5.52
448.51	5.48
448.868	5.61
449.226	5.62
449.584	5.52
449.941	5.7
450.299	5.57
450.656	5.77
451.014	5.67
451.371	5.64
451.729	5.79
452.086	5.57
452.443	5.67
452.801	5.77
453.158	5.7
453.515	5.55
453.872	5.76
454.229	5.61
454.586	5.73
454.943	5.64
455.3	5.87
455.657	5.71
456.014	5.73
456.371	5.95
456.727	5.56
457.084	5.75
457.441	5.7
457.797	5.66
458.154	5.88
458.51	5.61
458.867	5.7
459.223	6.01
459.58	5.79
459.936	5.78
460.292	5.77
460.648	5.69
461.005	5.66
461.361	5.65
461.717	5.66
462.073	5.85
462.429	5.81
462.785	5.78
463.141	5.99
463.496	5.82
463.852	6.1
464.208	5.88
464.564	5.68
464.919	5.73
465.275	5.91
465.631	5.96
465.986	5.83
466.342	5.95
466.697	5.87
467.052	6.03
467.408	5.78
467.763	5.91
468.118	5.99
468.473	6.11
468.829	5.99
469.184	6.01
469.539	5.88
469.894	6.02
470.249	6.06
470.603	6.05
470.958	6.06
471.313	6.03
471.668	6
472.023	6.03
472.377	5.89
472.732	6.13
473.086	5.97
473.441	6.05
473.795	6.21
474.15	5.91
474.504	6.05
474.859	6.06
475.213	6
475.567	6.06
475.921	6.09
476.275	6.17
476.63	6.11
476.984	6.08
477.338	6.36
477.692	6.09
478.045	6.02
478.399	6.28
478.753	6.03
479.107	6.03
479.461	6.06
479.814	6.11
480.168	6.16
480.521	6.04
480.875	6.3
481.228	6.22
481.582	6.08
481.935	6.06
482.289	5.89
482.642	6.06
482.995	6.13
483.348	6.1
483.701	5.99
484.055	5.95
484.408	5.96
484.761	5.79
485.114	5.79
485.466	5.77
485.819	5.8
486.172	5.9
486.525	5.96
486.878	6.04
487.23	6
487.583	6.08
487.936	6.03
488.288	5.98
488.641	5.95
488.993	5.85
489.345	5.86
489.698	5.95
490.05	5.98
490.402	6.07
490.754	6.12
491.107	6.08
491.459	6.19
491.811	6.21
492.163	6.23
492.515	6.1
492.866	5.93
493.218	6.01
493.57	6.05
493.922	6.05
494.274	6.13
494.625	6.21
494.977	6.31
495.328	6.36
495.68	6.48
496.031	6.44
496.383	6.23
496.734	6.34
497.086	6.37
497.437	6.38
497.788	6.31
498.139	6.32
498.49	6.42
498.842	6.29
499.193	6.32
499.544	6.36
499.894	6.32
500.245	6.38
500.596	6.4
500.947	6.44
501.298	6.37
501.648	6.48
501.999	6.53
502.35	6.45
502.7	6.56
503.051	6.61
503.401	6.49
503.752	6.48
504.102	6.39
504.452	6.42
504.803	6.33
505.153	6.54
505.503	6.47
505.853	6.45
506.203	6.53
506.553	6.62
506.903	6.48
507.253	6.55
507.603	6.55
507.953	6.58
508.303	6.63
508.652	6.58
509.002	6.55
509.352	6.5
509.701	6.64
510.051	6.55
510.4	6.52
510.75	6.53
511.099	6.46
511.449	6.58
511.798	6.64
512.147	6.66
512.496	6.73
512.846	6.41
513.195	6.57
513.544	6.58
513.893	6.58
514.242	6.61
514.591	6.62
514.939	6.64
515.288	6.6
515.637	6.75
515.986	6.59
516.334	6.75
516.683	6.66
517.032	6.72
517.38	6.72
517.729	6.74
518.077	6.73
518.426	6.63
518.774	6.68
519.122	6.64
519.47	6.63
519.819	6.68
520.167	6.63
520.515	6.53
520.863	6.65
521.211	6.58
521.559	6.68
521.907	6.73
522.255	6.68
522.602	6.66
522.95	6.8
523.298	6.7
523.645	6.68
523.993	6.9
524.341	6.75
524.688	6.79
525.036	6.93
525.383	6.87
525.73	6.9
526.078	6.8
526.425	6.67
526.772	6.68
527.119	6.7
527.466	6.64
527.814	6.65
528.161	6.79
528.508	6.74
528.854	6.63
529.201	6.6
529.548	6.55
529.895	6.5
530.242	6.48
530.588	6.53
530.935	6.57
531.282	6.63
531.628	6.73
531.975	6.68
532.321	6.7
532.667	6.77
533.014	6.81
533.36	6.8
533.706	6.89
534.052	6.83
534.399	6.64
534.745	6.69
535.091	6.7
535.437	6.8
535.783	6.79
536.129	6.8
536.474	6.91
536.82	6.94
537.166	6.89
537.512	6.94
537.857	6.85
538.203	6.85
538.549	6.91
538.894	6.86
539.239	7.06
539.585	7.08
539.93	6.96
540.276	6.91
540.621	6.94
540.966	6.98
541.311	7.04
541.656	6.88
542.001	7
542.346	6.84
542.691	6.78
543.036	6.83
543.381	6.83
543.726	6.84
544.071	6.96
544.415	6.95
544.76	6.96
545.105	6.97
545.449	6.93
545.794	6.94
546.138	7.06
546.483	7.07
546.827	6.97
547.171	7.01
547.516	7.23
547.86	7.1
548.204	7.08
548.548	7.11
548.892	6.99
549.236	7.11
549.58	7.15
549.924	7.22
550.268	7.26
550.612	7.35
550.956	7.12
551.3	7.33
551.643	7.31
551.987	7.13
552.33	7.3
552.674	7.27
553.017	7.4
553.361	7.34
553.704	7.24
554.048	7.35
554.391	7.32
554.734	7.28
555.077	7.31
555.42	7.32
555.764	7.23
556.107	7.37
556.45	7.28
556.793	7.46
557.135	7.51
557.478	7.63
557.821	7.4
558.164	7.53
558.507	7.38
558.849	7.47
559.192	7.57
559.534	7.35
559.877	7.33
560.219	7.6
560.562	7.64
560.904	7.39
561.246	7.73
561.589	7.5
561.931	7.73
562.273	7.53
562.615	7.69
562.957	7.54
563.299	7.5
563.641	7.49
563.983	7.32
564.325	7.53
564.667	7.47
565.008	7.52
565.35	7.57
565.692	7.56
566.033	7.61
566.375	7.48
566.716	7.55
567.058	7.67
567.399	7.48
567.741	7.5
568.082	7.56
568.423	7.55
568.764	7.59
569.105	7.62
569.447	7.53
569.788	7.52
570.129	7.65
570.47	7.71
570.811	7.68
571.151	7.72
571.492	7.81
571.833	7.73
572.174	7.54
572.514	7.52
572.855	7.62
573.195	7.65
573.536	7.61
573.876	7.68
574.217	7.7
574.557	7.88
574.898	7.74
575.238	7.68
575.578	7.96
575.918	7.63
576.258	7.78
576.598	7.69
576.938	7.85
577.278	7.75
577.618	7.74
577.958	7.66
578.298	7.87
578.638	7.83
578.977	7.76
579.317	7.89
579.657	8.01
579.996	7.98
580.336	7.78
580.675	8.02
581.014	7.85
581.354	8.15
581.693	7.67
582.032	7.77
582.372	8.2
582.711	7.94
583.05	8.08
583.389	7.9
583.728	8
584.067	8.19
584.406	8.11
584.745	7.93
585.083	8.2
585.422	8.18
585.761	8.01
586.1	8.08
586.438	7.99
586.777	8.03
587.115	8.19
587.454	8.22
587.792	8.09
588.13	8.41
588.469	8.52
588.807	8.21
589.145	8.04
589.483	8.09
589.821	8.27
590.159	8.04
590.497	7.78
590.835	7.91
591.173	8.13
591.511	8.25
591.849	8.31
592.187	8.38
592.524	7.98
592.862	8.23
593.2	8.08
593.537	8.12
593.875	8.19
594.212	8.32
594.55	8.3
594.887	8.44
595.224	8.06
595.561	8.22
595.899	8.17
596.236	8.36
596.573	8.13
596.91	8.28
597.247	8.36
597.584	8.43
597.921	8.16
598.258	8.22
598.594	8.02
598.931	8.06
599.268	8.24
599.604	8.39
599.941	8.35
600.277	8.4
600.614	8.38
600.95	8.32
601.287	8.36
601.623	8.19
601.959	8.27
602.296	8.29
602.632	8.53
602.968	8.37
603.304	8.04
603.64	8.31
603.976	8.23
604.312	8.47
604.648	8.43
604.984	8.51
605.319	8.35
605.655	8.4
605.991	8.41
606.326	8.32
606.662	8.32
606.998	8.41
607.333	8.43
607.668	8.32
608.004	8.23
608.339	8.17
608.674	8.49
609.01	8.52
609.345	8.74
609.68	8.6
610.015	8.66
610.35	8.39
610.685	8.46
611.02	8.56
611.355	8.73
611.689	8.37
612.024	8.68
612.359	8.49
612.694	8.67
613.028	8.91
613.363	8.62
613.697	8.63
614.032	8.64
614.366	8.58
614.7	9.07
615.035	8.67
615.369	8.83
615.703	8.95
616.037	8.83
616.371	8.75
616.705	8.98
617.039	9.05
617.373	8.53
617.707	8.61
618.041	8.88
618.375	8.66
618.709	8.59
619.042	8.76
619.376	9.03
619.71	8.6
620.043	8.56
620.377	8.58
620.71	8.81
621.043	8.88
621.377	8.84
621.71	8.96
622.043	9.03
622.376	8.72
622.709	9.15
623.043	8.42
623.376	9.19
623.709	8.96
624.041	9.21
624.374	8.91
624.707	8.65
625.04	9.03
625.373	8.65
625.705	9.08
626.038	9.07
626.37	9.04
626.703	9.03
627.035	8.89
627.368	8.93
627.7	9.03
628.032	8.75
628.365	9.02
628.697	9.03
629.029	9.1
629.361	8.77
629.693	9.48
630.025	9.2
630.357	9.13
630.689	9.47
631.021	9.17
631.353	9.15
631.684	8.92
632.016	8.94
632.348	9.16
632.679	8.93
633.011	8.97
633.342	9.04
633.674	9.39
634.005	8.98
634.336	9.2
634.668	9.33
634.999	9.28
635.33	9.41
635.661	9.46
635.992	9.05
636.323	9.09
636.654	9.35
636.985	8.84
637.316	9.29
637.647	9.57
637.977	9.15
638.308	9.13
638.639	9.03
638.969	9.12
639.3	9.34
639.63	8.93
639.961	9.18
640.291	9.49
640.622	9.74
640.952	9.15
641.282	8.91
641.612	9.42
641.943	9.57
642.273	9.35
642.603	9.54
642.933	9.34
643.263	9.7
643.592	9.21
643.922	10.01
644.252	9.41
644.582	9.3
644.911	9.6
645.241	9.45
645.571	9.23
645.9	9.83
646.23	9.35
646.559	9.49
646.888	9.27
647.218	9.46
647.547	9.54
647.876	9.6
648.205	9.61
648.534	9.39
648.863	9.8
649.192	9.29
649.521	9.53
649.85	9.68
650.179	9.68
650.508	9.26
650.837	9.53
651.165	9.89
651.494	9.7
651.822	9.61
652.151	10.01
652.479	9.97
652.808	9.53
653.136	9.51
653.465	9.69
653.793	9.82
654.121	10.15
654.449	9.82
654.777	9.61
655.105	9.85
655.433	10.05
655.761	9.33
656.089	9.78
656.417	9.69
656.745	9.82
657.073	9.71
657.4	10.02
657.728	9.79
658.056	9.78
658.383	9.85
658.711	9.63
659.038	10.01
659.365	10.13
659.693	9.99
660.02	9.29
660.347	9.64
660.674	9.4
661.001	9.45
661.329	9.64
661.656	9.65
661.982	9.93
662.309	9.98
662.636	9.9
662.963	9.92
663.29	9.42
663.616	9.89
663.943	10.24
664.27	9.86
664.596	10.05
664.923	9.96
665.249	9.74
665.576	10.21
665.902	9.74
666.228	9.59
666.554	9.86
666.881	10.06
667.207	9.61
667.533	10.32
667.859	10.43
668.185	9.88
668.511	9.85
668.837	9.77
669.162	10.07
669.488	9.83
669.814	10.51
670.139	10.45
670.465	10.06
670.791	10.15
671.116	9.76
671.442	10.19
671.767	10.1
672.092	9.89
672.418	9.85
672.743	9.96
673.068	9.74
673.393	10.01
673.718	9.72
674.043	10.43
674.368	9.93
674.693	10.25
675.018	9.93
675.343	10.28
675.667	10
675.992	9.66
676.317	10.29
676.641	10.51
676.966	10.53
677.29	10.42
677.615	9.9
677.939	10.19
678.264	10.86
678.588	10.75
678.912	10.18
679.236	11.02
679.56	10.02
679.885	10.48
680.209	10.23
680.532	10.17
680.856	10.92
681.18	10.42
681.504	10.57
681.828	10.03
682.152	10.23
682.475	10.53
682.799	10.68
683.122	10.19
683.446	10.36
683.769	10.94
684.093	10.49
684.416	10.24
684.739	10.59
685.062	11
685.386	10.22
685.709	10.14
686.032	10.56
686.355	10.24
686.678	10.83
687.001	10.18
687.324	10.45
687.646	10.95
687.969	10.48
688.292	10.47
688.614	11.45
688.937	10.35
689.26	10.51
689.582	10.29
689.904	10.96
690.227	10.75
