Data from 0062_forehead_Reflection__3__206.txt Node

Date: Fri Dec 16 15:35:20 CST 2022
User: ToomeyLab
Spectrometer: FLMS14357
Trigger mode: 0
Integration Time (sec): 1.000000E-2
Scans to average: 100
Electric dark correction enabled: true
Nonlinearity correction enabled: false
Boxcar width: 0
XAxis mode: Wavelengths
Number of Pixels in Spectrum: 2048
>>>>>Begin Spectral Data<<<<<
189.047	-580.29
189.435	-580.29
189.823	-580.29
190.211	101.55
190.599	-127.66
190.987	-26.96
191.375	28.73
191.763	828.53
192.151	209.88
192.538	-12.12
192.926	-46.88
193.314	119.22
193.702	403.58
194.089	7.43
194.477	103.05
194.864	36.3
195.252	-38.54
195.639	80.96
196.027	169.26
196.414	-79.02
196.801	-669.72
197.189	270.84
197.576	-785.6
197.963	14.97
198.351	34.19
198.738	20.51
199.125	97.72
199.512	33.81
199.899	-7.67
200.286	39.9
200.673	62.5
201.06	38.93
201.447	78.75
201.833	39.14
202.22	63.66
202.607	64.71
202.994	19.33
203.38	73.48
203.767	11.27
204.154	53.39
204.54	38.47
204.927	39.59
205.313	73.23
205.699	1.53
206.086	20.01
206.472	18.15
206.858	18.9
207.245	17.95
207.631	-11.26
208.017	10.24
208.403	20.97
208.789	15.69
209.175	61.33
209.561	59.05
209.947	11.38
210.333	26.86
210.719	16.16
211.105	7.58
211.491	16.34
211.876	18.47
212.262	-17.31
212.648	-14.93
213.034	26.96
213.419	26.78
213.805	13.94
214.19	35.08
214.576	-15.16
214.961	14.23
215.346	-24.6
215.732	-2.09
216.117	2.99
216.502	11.26
216.888	-23.08
217.273	37.33
217.658	23.57
218.043	-0.15
218.428	23.63
218.813	13.01
219.198	-19.82
219.583	21.12
219.968	8.73
220.353	10.76
220.738	1.62
221.122	13.15
221.507	-6.32
221.892	27.31
222.276	17.05
222.661	0.29
223.046	-2.81
223.43	0.32
223.815	14.14
224.199	10.19
224.583	19.46
224.968	13.28
225.352	13.7
225.736	14.89
226.121	2.58
226.505	-0.73
226.889	8.89
227.273	7.17
227.657	5.31
228.041	4.47
228.425	3.38
228.809	6.6
229.193	2.02
229.577	4.63
229.961	4.42
230.344	4.42
230.728	4.32
231.112	4.63
231.495	2.15
231.879	4.83
232.263	3.97
232.646	3.19
233.03	2.83
233.413	3.57
233.797	7.08
234.18	4.87
234.563	2.69
234.946	2.55
235.33	4.49
235.713	5.23
236.096	5.2
236.479	5.71
236.862	5.09
237.245	4.94
237.628	4.88
238.011	3.44
238.394	6.27
238.777	5.22
239.16	1.6
239.543	4.07
239.925	7.1
240.308	5.98
240.691	2.98
241.073	4.27
241.456	3.98
241.838	3.75
242.221	4.92
242.603	4.04
242.986	4.48
243.368	4.6
243.75	4.28
244.133	4.35
244.515	4.49
244.897	4.11
245.279	4.71
245.661	4.05
246.043	4.72
246.425	3.34
246.807	4.29
247.189	4.25
247.571	4.2
247.953	4.35
248.335	4.24
248.717	4.32
249.098	4.48
249.48	4.06
249.862	4.41
250.243	4.56
250.625	4.8
251.006	4.19
251.388	5.49
251.769	4.31
252.151	4.32
252.532	4.84
252.913	4.61
253.295	4.17
253.676	4.36
254.057	3.89
254.438	3.86
254.819	4.72
255.2	4.62
255.581	4.12
255.962	5.58
256.343	5
256.724	5.77
257.105	4.41
257.486	5.33
257.867	3.6
258.247	4.45
258.628	5.84
259.009	4.56
259.389	4.96
259.77	4.33
260.15	5.47
260.531	4.28
260.911	4.52
261.292	4.17
261.672	4.28
262.052	4.29
262.432	4.38
262.813	4.77
263.193	3.7
263.573	5.14
263.953	4.55
264.333	4.95
264.713	4.06
265.093	3.99
265.473	5.9
265.853	4.6
266.233	3.96
266.612	4.97
266.992	4.05
267.372	4.29
267.752	3.81
268.131	4.14
268.511	4.61
268.89	4.97
269.27	4.35
269.649	4.46
270.029	4.59
270.408	4.23
270.787	5.09
271.167	4.66
271.546	3.33
271.925	4.21
272.304	4.17
272.683	4.13
273.062	4.38
273.441	4.75
273.82	4.49
274.199	4.37
274.578	3.6
274.957	4.42
275.336	4.14
275.715	4.59
276.093	4.72
276.472	4.65
276.851	4.8
277.229	5.21
277.608	4.03
277.986	4.23
278.365	4.29
278.743	4.48
279.122	3.81
279.5	3.82
279.878	3.95
280.257	4.45
280.635	4.35
281.013	4.94
281.391	4.48
281.769	3.91
282.147	4.48
282.525	4.1
282.903	4.28
283.281	3.85
283.659	4.5
284.037	4.25
284.415	4.5
284.792	4.21
285.17	3.97
285.548	4.15
285.925	4.07
286.303	3.87
286.68	4.44
287.058	4.32
287.435	3.83
287.813	4.34
288.19	4.59
288.567	4.11
288.945	4.32
289.322	4.49
289.699	4.46
290.076	4.66
290.453	4.46
290.83	4.42
291.207	4.16
291.584	4.01
291.961	4.75
292.338	4.38
292.715	4.77
293.092	5.18
293.469	5.04
293.845	5.26
294.222	5.03
294.599	5.23
294.975	4.96
295.352	4.63
295.728	5.01
296.105	4.94
296.481	5.4
296.858	4.72
297.234	5.32
297.61	4.63
297.986	4.93
298.363	4.81
298.739	5.23
299.115	4.81
299.491	5.03
299.867	5.85
300.243	5
300.619	5.22
300.995	5.47
301.371	5.58
301.746	5.61
302.122	5.41
302.498	5.54
302.874	5.74
303.249	5.84
303.625	5.95
304	5.51
304.376	5.81
304.751	5.86
305.127	5.65
305.502	6.24
305.878	5.73
306.253	6.55
306.628	6.26
307.003	6.48
307.378	5.79
307.754	6.64
308.129	5.68
308.504	6.3
308.879	6.54
309.254	6.9
309.629	6.56
310.003	6.82
310.378	6.94
310.753	7
311.128	6.82
311.502	6.48
311.877	6.78
312.252	6.87
312.626	6.9
313.001	6.87
313.375	6.91
313.75	6.92
314.124	7.79
314.498	7.2
314.873	6.92
315.247	7.21
315.621	7.55
315.995	7.84
316.369	7.79
316.743	8.04
317.117	7.46
317.491	7.73
317.865	7.41
318.239	8.07
318.613	8.08
318.987	8.22
319.361	8.39
319.734	8.37
320.108	8.43
320.482	8.18
320.855	8.42
321.229	9.35
321.602	8.71
321.976	8.95
322.349	8.62
322.723	8.58
323.096	8.79
323.469	8.61
323.843	9.45
324.216	8.74
324.589	9.54
324.962	9.21
325.335	9.14
325.708	9.58
326.081	9.84
326.454	9.54
326.827	9.75
327.2	10.05
327.573	9.56
327.945	9.58
328.318	9.9
328.691	10.15
329.063	9.98
329.436	9.89
329.809	9.98
330.181	10.21
330.553	10.36
330.926	10.27
331.298	10.18
331.671	10.43
332.043	10.58
332.415	10.95
332.787	11.02
333.159	10.27
333.532	10.84
333.904	10.74
334.276	10.55
334.648	11.08
335.02	10.96
335.391	11.45
335.763	11.29
336.135	10.93
336.507	10.88
336.879	11.53
337.25	11.4
337.622	11.6
337.993	11.69
338.365	11.75
338.736	11.48
339.108	11.57
339.479	11.53
339.851	12.11
340.222	11.63
340.593	11.5
340.964	11.85
341.336	11.57
341.707	11.64
342.078	11.7
342.449	12
342.82	11.8
343.191	11.81
343.562	12.29
343.933	11.98
344.303	11.61
344.674	12.42
345.045	12.54
345.416	12.93
345.786	12.21
346.157	12.58
346.527	12.45
346.898	12.71
347.268	12.93
347.639	12.66
348.009	13.15
348.38	13.12
348.75	13.26
349.12	13.44
349.49	13.3
349.861	13.47
350.231	13.14
350.601	13.02
350.971	13.53
351.341	13.71
351.711	13.78
352.081	13.48
352.45	13.81
352.82	13.78
353.19	13.96
353.56	14.37
353.929	14.22
354.299	14.05
354.669	14.32
355.038	14.09
355.408	14.29
355.777	13.91
356.147	14.76
356.516	14.75
356.885	14.54
357.254	14.46
357.624	14.71
357.993	14.6
358.362	14.82
358.731	14.55
359.1	14.69
359.469	14.93
359.838	14.89
360.207	14.57
360.576	15.11
360.945	15.13
361.314	15.3
361.682	14.69
362.051	15.1
362.42	15.62
362.788	15.32
363.157	15.2
363.525	15.13
363.894	15.16
364.262	15.31
364.631	16.31
364.999	15.3
365.367	16.06
365.735	15.71
366.104	15.54
366.472	16.3
366.84	15.99
367.208	16
367.576	16
367.944	16.52
368.312	16.16
368.68	16.37
369.048	16.74
369.416	16.48
369.783	16.78
370.151	16.59
370.519	16.73
370.886	16.9
371.254	16.99
371.621	16.84
371.989	16.85
372.356	16.96
372.724	17.28
373.091	17.44
373.458	17.59
373.826	17.42
374.193	17.77
374.56	17.57
374.927	17.52
375.294	18
375.661	17.87
376.028	17.62
376.395	17.79
376.762	17.96
377.129	18.16
377.496	18.14
377.863	18.17
378.229	17.74
378.596	17.96
378.963	17.92
379.329	18.2
379.696	18.54
380.062	18.61
380.429	18.41
380.795	18.17
381.161	18.52
381.528	18.32
381.894	18.84
382.26	18.69
382.626	18.74
382.993	18.92
383.359	18.89
383.725	19.18
384.091	18.99
384.457	19.15
384.823	19.24
385.188	19.3
385.554	19.29
385.92	19.33
386.286	19.57
386.651	19.35
387.017	19.65
387.383	19.48
387.748	19.96
388.114	19.77
388.479	19.88
388.845	19.94
389.21	19.79
389.575	20.1
389.94	20.24
390.306	20.07
390.671	20.08
391.036	20.3
391.401	20.6
391.766	20.28
392.131	20.09
392.496	20.3
392.861	20.24
393.226	20.47
393.591	20.32
393.956	20.36
394.32	20.56
394.685	20.77
395.05	20.62
395.414	20.35
395.779	20.82
396.143	20.83
396.508	20.86
396.872	20.96
397.236	20.89
397.601	21.31
397.965	21.08
398.329	21.73
398.694	21.16
399.058	21.64
399.422	21.44
399.786	21.22
400.15	21.59
400.514	21.57
400.878	21.61
401.242	21.63
401.605	21.64
401.969	21.8
402.333	21.65
402.697	22.2
403.06	22.05
403.424	21.68
403.787	22
404.151	21.66
404.514	21.7
404.878	22.19
405.241	21.95
405.604	22.41
405.968	21.97
406.331	22.27
406.694	22.36
407.057	22.42
407.42	22.39
407.783	22.56
408.146	22.52
408.509	22.41
408.872	22.64
409.235	22.81
409.598	22.82
409.961	22.82
410.323	22.91
410.686	22.97
411.049	22.96
411.411	22.81
411.774	22.98
412.136	23.11
412.499	22.88
412.861	23.07
413.223	23.49
413.586	23.32
413.948	23.53
414.31	23.64
414.672	23.44
415.035	23.75
415.397	23.52
415.759	23.59
416.121	23.77
416.483	23.74
416.845	23.56
417.206	23.86
417.568	23.77
417.93	23.68
418.292	23.7
418.653	23.81
419.015	23.95
419.377	23.94
419.738	23.74
420.1	23.85
420.461	23.74
420.822	23.87
421.184	23.88
421.545	23.87
421.906	23.91
422.267	23.79
422.629	23.77
422.99	23.89
423.351	23.98
423.712	24.18
424.073	24.26
424.434	24.35
424.795	24.19
425.155	24.3
425.516	24.23
425.877	24.38
426.238	24.45
426.598	24.6
426.959	24.86
427.32	24.89
427.68	25.18
428.041	25.27
428.401	25.26
428.761	25.35
429.122	25.38
429.482	25.63
429.842	25.66
430.202	25.64
430.563	26
430.923	26.12
431.283	26.09
431.643	26.12
432.003	26.03
432.363	26.36
432.722	26.02
433.082	26.24
433.442	26.06
433.802	26.19
434.161	26.36
434.521	26.23
434.881	26.33
435.24	26.41
435.6	26.45
435.959	26.58
436.319	26.6
436.678	26.79
437.037	26.96
437.396	27.12
437.756	27.14
438.115	27.05
438.474	27.16
438.833	27.23
439.192	27.13
439.551	27.22
439.91	27.19
440.269	27.37
440.628	27.36
440.987	27.01
441.345	27.33
441.704	27.21
442.063	27.34
442.421	27.24
442.78	27.2
443.138	27.38
443.497	27.58
443.855	27.74
444.214	27.97
444.572	27.94
444.93	28
445.288	28.12
445.647	28.21
446.005	28.03
446.363	28.18
446.721	27.97
447.079	27.81
447.437	27.85
447.795	27.88
448.153	27.91
448.51	28.03
448.868	28.29
449.226	28.18
449.584	28.39
449.941	28.69
450.299	28.79
450.656	28.88
451.014	28.72
451.371	29.07
451.729	29.18
452.086	29.12
452.443	29.19
452.801	29.41
453.158	29.32
453.515	29.21
453.872	29.39
454.229	29.42
454.586	29.52
454.943	29.69
455.3	29.9
455.657	29.48
456.014	29.65
456.371	29.9
456.727	30.02
457.084	30.01
457.441	30.17
457.797	30.26
458.154	29.99
458.51	29.93
458.867	30.21
459.223	30.45
459.58	30.23
459.936	30.2
460.292	30.1
460.648	29.97
461.005	29.73
461.361	29.85
461.717	29.92
462.073	29.99
462.429	30.31
462.785	30.51
463.141	30.94
463.496	30.78
463.852	31.12
464.208	31.12
464.564	30.96
464.919	31.04
465.275	31.45
465.631	31.36
465.986	31.26
466.342	31.23
466.697	31.39
467.052	31.46
467.408	31.44
467.763	31.38
468.118	31.85
468.473	31.64
468.829	31.67
469.184	31.71
469.539	31.67
469.894	31.87
470.249	32.04
470.603	32.02
470.958	32.13
471.313	31.97
471.668	32.33
472.023	32.26
472.377	32.39
472.732	32.16
473.086	32.3
473.441	32.48
473.795	32.49
474.15	32.63
474.504	32.62
474.859	32.58
475.213	32.64
475.567	32.91
475.921	32.82
476.275	32.83
476.63	32.98
476.984	32.94
477.338	33.22
477.692	32.71
478.045	32.98
478.399	33.05
478.753	33.11
479.107	32.99
479.461	33.19
479.814	33.11
480.168	33.35
480.521	33.16
480.875	33.44
481.228	33.48
481.582	33.34
481.935	33.49
482.289	33.52
482.642	33.4
482.995	33.14
483.348	33.27
483.701	33.01
484.055	32.83
484.408	32.69
484.761	32.27
485.114	32.11
485.466	32.32
485.819	32.47
486.172	32.63
486.525	32.88
486.878	32.98
487.23	33.24
487.583	33.23
487.936	33.23
488.288	32.99
488.641	32.91
488.993	32.76
489.345	32.82
489.698	33.08
490.05	33.16
490.402	33.55
490.754	33.83
491.107	33.88
491.459	34.05
491.811	34.16
492.163	34.06
492.515	33.82
492.866	33.46
493.218	33.39
493.57	33.71
493.922	34.05
494.274	34.49
494.625	34.6
494.977	34.78
495.328	35.01
495.68	35.34
496.031	35.3
496.383	35.32
496.734	35.42
497.086	35.46
497.437	35.57
497.788	35.25
498.139	35.21
498.49	35.09
498.842	35.26
499.193	35.46
499.544	35.35
499.894	35.47
500.245	35.77
500.596	35.68
500.947	36.01
501.298	35.93
501.648	36.11
501.999	36.19
502.35	36.45
502.7	36.32
503.051	36.4
503.401	36.48
503.752	36.57
504.102	36.27
504.452	36.41
504.803	36.24
505.153	36.53
505.503	36.45
505.853	36.45
506.203	36.71
506.553	36.62
506.903	36.8
507.253	36.82
507.603	36.9
507.953	36.9
508.303	37.11
508.652	37.01
509.002	37
509.352	36.84
509.701	36.79
510.051	36.7
510.4	36.76
510.75	36.87
511.099	37.1
511.449	36.95
511.798	37.06
512.147	37.14
512.496	37.33
512.846	37.13
513.195	37.22
513.544	37.32
513.893	37.13
514.242	37.32
514.591	37.3
514.939	37.53
515.288	37.54
515.637	37.62
515.986	37.59
516.334	38
516.683	37.86
517.032	37.99
517.38	38.17
517.729	37.97
518.077	38.08
518.426	37.83
518.774	37.66
519.122	37.44
519.47	37.47
519.819	37.46
520.167	37.39
520.515	37.56
520.863	37.72
521.211	37.77
521.559	37.86
521.907	38.08
522.255	38.15
522.602	38.37
522.95	38.5
523.298	38.63
523.645	38.67
523.993	38.74
524.341	38.6
524.688	38.69
525.036	38.73
525.383	38.74
525.73	38.82
526.078	38.73
526.425	38.37
526.772	38.05
527.119	38.1
527.466	38.1
527.814	38.21
528.161	38.29
528.508	38.44
528.854	38.21
529.201	38.22
529.548	37.6
529.895	37.66
530.242	37.73
530.588	37.92
530.935	38.07
531.282	38.16
531.628	38.39
531.975	38.51
532.321	38.73
532.667	38.99
533.014	38.91
533.36	39
533.706	38.94
534.052	38.78
534.399	38.37
534.745	38.4
535.091	38.66
535.437	38.79
535.783	39.02
536.129	39.12
536.474	39.3
536.82	39.63
537.166	39.51
537.512	39.46
537.857	39.36
538.203	39.26
538.549	39.33
538.894	39.58
539.239	39.69
539.585	40
539.93	40.23
540.276	40.3
540.621	40.36
540.966	40.55
541.311	40.29
541.656	39.97
542.001	39.86
542.346	39.39
542.691	39.14
543.036	39.26
543.381	39.3
543.726	39.69
544.071	39.85
544.415	39.91
544.76	39.92
545.105	40.4
545.449	40.27
545.794	40.37
546.138	40.61
546.483	40.68
546.827	40.71
547.171	40.69
547.516	40.61
547.86	40.73
548.204	40.71
548.548	40.67
548.892	40.82
549.236	40.95
549.58	41.36
549.924	41.41
550.268	41.61
550.612	41.68
550.956	41.77
551.3	41.93
551.643	41.93
551.987	41.84
552.33	42.02
552.674	42.16
553.017	42.42
553.361	42.01
553.704	41.88
554.048	41.69
554.391	41.7
554.734	41.86
555.077	42.08
555.42	42.05
555.764	42.31
556.107	42.29
556.45	42.54
556.793	42.64
557.135	42.36
557.478	42.64
557.821	42.62
558.164	42.73
558.507	42.46
558.849	42.57
559.192	42.95
559.534	42.64
559.877	42.69
560.219	43.04
560.562	43.34
560.904	42.87
561.246	42.89
561.589	43.3
561.931	43.42
562.273	43.02
562.615	43.24
562.957	42.92
563.299	43.06
563.641	43.06
563.983	43.11
564.325	43.29
564.667	43.18
565.008	43.4
565.35	43.28
565.692	43.41
566.033	43.49
566.375	43.29
566.716	43.42
567.058	43.17
567.399	43.23
567.741	43.07
568.082	43.27
568.423	43.13
568.764	43.49
569.105	43.63
569.447	43.44
569.788	43.49
570.129	43.85
570.47	43.73
570.811	43.65
571.151	43.69
571.492	43.77
571.833	43.81
572.174	43.77
572.514	43.65
572.855	43.67
573.195	43.52
573.536	43.64
573.876	43.72
574.217	43.66
574.557	43.99
574.898	44.13
575.238	44.05
575.578	44.15
575.918	43.87
576.258	43.95
576.598	44.1
576.938	44.09
577.278	44.22
577.618	44.29
577.958	44.21
578.298	44.5
578.638	44.48
578.977	44.42
579.317	44.79
579.657	44.53
579.996	44.6
580.336	44.8
580.675	44.93
581.014	45.15
581.354	45.09
581.693	44.96
582.032	44.86
582.372	45.18
582.711	45.25
583.05	45.37
583.389	45.31
583.728	45.6
584.067	45.38
584.406	45.62
584.745	45.46
585.083	45.55
585.422	45.77
585.761	45.82
586.1	45.86
586.438	45.5
586.777	45.62
587.115	45.86
587.454	45.55
587.792	45.92
588.13	46
588.469	46.04
588.807	45.78
589.145	45.76
589.483	45.75
589.821	46.02
590.159	45.55
590.497	45.64
590.835	45.49
591.173	45.95
591.511	45.77
591.849	45.81
592.187	45.7
592.524	45.8
592.862	46.19
593.2	46.04
593.537	45.87
593.875	45.87
594.212	46.65
594.55	46.65
594.887	46.24
595.224	46.12
595.561	46.08
595.899	46.29
596.236	45.99
596.573	46.33
596.91	46.24
597.247	46.06
597.584	46.13
597.921	45.95
598.258	46
598.594	45.78
598.931	45.85
599.268	46.36
599.604	46.09
599.941	46.87
600.277	46.37
600.614	46.72
600.95	46.97
601.287	46.66
601.623	46.89
601.959	46.67
602.296	47.12
602.632	47.11
602.968	46.87
603.304	46.59
603.64	46.88
603.976	46.7
604.312	47
604.648	46.52
604.984	46.48
605.319	46.51
605.655	46.87
605.991	46.55
606.326	46.37
606.662	46.34
606.998	46.9
607.333	46.81
607.668	47
608.004	47.39
608.339	47.1
608.674	47.33
609.01	47.36
609.345	47.4
609.68	47.27
610.015	47.43
610.35	47.17
610.685	46.97
611.02	47.13
611.355	47.06
611.689	46.95
612.024	47.4
612.359	47.56
612.694	47.75
613.028	47.96
613.363	47.83
613.697	47.65
614.032	47.95
614.366	47.92
614.7	48.42
615.035	48.2
615.369	48.08
615.703	48.04
616.037	48.35
616.371	48.23
616.705	48.03
617.039	48.53
617.373	47.96
617.707	48.21
618.041	48.45
618.375	48.21
618.709	48.37
619.042	48.43
619.376	48.27
619.71	48.35
620.043	48.34
620.377	48.4
620.71	48.45
621.043	48.47
621.377	49.02
621.71	48.75
622.043	49.13
622.376	48.58
622.709	48.98
623.043	48.73
623.376	48.94
623.709	48.6
624.041	48.92
624.374	48.81
624.707	49.12
625.04	49.24
625.373	49.06
625.705	48.36
626.038	48.82
626.37	49.3
626.703	49.35
627.035	48.96
627.368	49.28
627.7	48.79
628.032	48.77
628.365	48.87
628.697	48.72
629.029	48.6
629.361	48.6
629.693	49.29
630.025	48.88
630.357	49
630.689	49.69
631.021	49.71
631.353	49.22
631.684	49.42
632.016	49.15
632.348	49.81
632.679	49.54
633.011	49.54
633.342	49.4
633.674	49.66
634.005	49.47
634.336	49.73
634.668	49.58
634.999	49.71
635.33	49.5
635.661	49.85
635.992	50.02
636.323	49.74
636.654	49.95
636.985	49.66
637.316	49.73
637.647	50.1
637.977	49.64
638.308	49.57
638.639	49.55
638.969	50.22
639.3	49.92
639.63	50.5
639.961	50.48
640.291	50.29
640.622	50.49
640.952	49.19
641.282	49.98
641.612	49.97
641.943	50.24
642.273	50.45
642.603	49.97
642.933	50.25
643.263	50.79
643.592	50.23
643.922	50.1
644.252	50.7
644.582	50.61
644.911	50.55
645.241	50.79
645.571	50.63
645.9	50.99
646.23	50.91
646.559	50.4
646.888	50.76
647.218	50.63
647.547	50.59
647.876	51.24
648.205	51.43
648.534	50.63
648.863	50.52
649.192	51.21
649.521	50.55
649.85	51.26
650.179	50.5
650.508	50.74
650.837	51.3
651.165	50.58
651.494	51.31
651.822	51.41
652.151	51
652.479	51.25
652.808	50.7
653.136	51.19
653.465	51.26
653.793	51.03
654.121	50.48
654.449	51.34
654.777	51.26
655.105	50.98
655.433	51.51
655.761	51.06
656.089	52.29
656.417	52.08
656.745	51.54
657.073	51.67
657.4	51.77
657.728	51.55
658.056	51.67
658.383	52.12
658.711	51.13
659.038	51.98
659.365	51.95
659.693	51.17
660.02	51.31
660.347	50.89
660.674	51.13
661.001	51.15
661.329	51.3
661.656	51.71
661.982	51.52
662.309	52.11
662.636	51.91
662.963	51.76
663.29	51.7
663.616	51.87
663.943	52.21
664.27	52.07
664.596	51.91
664.923	52.57
665.249	51.62
665.576	51.96
665.902	52.58
666.228	51.6
666.554	52
666.881	52.8
667.207	52.38
667.533	52.87
667.859	52.1
668.185	52.73
668.511	51.94
668.837	52.05
669.162	52.58
669.488	52.13
669.814	52.38
670.139	52.73
