Data from 0062_crown_Reflection__3__201.txt Node

Date: Fri Dec 16 15:33:55 CST 2022
User: ToomeyLab
Spectrometer: FLMS14357
Trigger mode: 0
Integration Time (sec): 1.000000E-2
Scans to average: 100
Electric dark correction enabled: true
Nonlinearity correction enabled: false
Boxcar width: 0
XAxis mode: Wavelengths
Number of Pixels in Spectrum: 2048
>>>>>Begin Spectral Data<<<<<
189.047	-399.41
189.435	-399.41
189.823	-399.41
190.211	25.44
190.599	97.09
190.987	-18.75
191.375	21.66
191.763	154.9
192.151	-47.67
192.538	70.02
192.926	18.64
193.314	138.36
193.702	122.55
194.089	98.48
194.477	128.27
194.864	592.39
195.252	-12.51
195.639	67.99
196.027	-69.42
196.414	31.54
196.801	519.4
197.189	246.3
197.576	-480.04
197.963	-82.11
198.351	24.81
198.738	20.44
199.125	23.98
199.512	-29.82
199.899	-20.89
200.286	-184.28
200.673	-3.26
201.06	23.76
201.447	28.32
201.833	23.67
202.22	22.29
202.607	-46.02
202.994	14.02
203.38	-13.37
203.767	-47.91
204.154	-65.8
204.54	6.94
204.927	11.62
205.313	44.63
205.699	12.53
206.086	-7.69
206.472	-24
206.858	-1.62
207.245	-17.58
207.631	-23.71
208.017	17.19
208.403	-5.75
208.789	29.58
209.175	36.71
209.561	-3.08
209.947	-18.02
210.333	-67.05
210.719	-9.28
211.105	-44.08
211.491	-41.81
211.876	-1.73
212.262	-62.01
212.648	-53.35
213.034	-5.81
213.419	29.54
213.805	-8.64
214.19	-18.7
214.576	-12.92
214.961	-45.52
215.346	-28.21
215.732	-31.87
216.117	-8.09
216.502	-18.68
216.888	-17.16
217.273	24.59
217.658	-11.36
218.043	0.02
218.428	-5.37
218.813	-9.64
219.198	-47.5
219.583	14.52
219.968	1.64
220.353	0.64
220.738	-11.34
221.122	-6.48
221.507	2.86
221.892	4.14
222.276	6.58
222.661	-7.19
223.046	-6.18
223.43	-3.73
223.815	6.11
224.199	4.15
224.583	-2.71
224.968	3.76
225.352	8.42
225.736	9.5
226.121	-3.23
226.505	1.46
226.889	6.12
227.273	6.95
227.657	3.6
228.041	6.92
228.425	5.95
228.809	5.92
229.193	2.69
229.577	5.03
229.961	5.97
230.344	7.18
230.728	6.15
231.112	5.8
231.495	4.36
231.879	6.99
232.263	5.5
232.646	6.75
233.03	4.76
233.413	6.82
233.797	9.88
234.18	-0.53
234.563	5.09
234.946	7.08
235.33	7.68
235.713	6.6
236.096	5.75
236.479	6.07
236.862	6.31
237.245	6.78
237.628	7.4
238.011	6.38
238.394	7.76
238.777	6.53
239.16	4.7
239.543	6.27
239.925	6.62
240.308	5.79
240.691	5.82
241.073	6.85
241.456	4.44
241.838	6.24
242.221	7.15
242.603	5.39
242.986	7.23
243.368	6.12
243.75	6.11
244.133	6.4
244.515	6.16
244.897	5.61
245.279	5.7
245.661	5.48
246.043	5.79
246.425	6.11
246.807	5.57
247.189	6.38
247.571	6.5
247.953	5.95
248.335	6.38
248.717	6.12
249.098	6.23
249.48	5.73
249.862	6.02
250.243	5.68
250.625	6.26
251.006	5.56
251.388	6.35
251.769	5.91
252.151	5.67
252.532	5.5
252.913	6.66
253.295	6.23
253.676	6.16
254.057	5.65
254.438	5.59
254.819	5.81
255.2	5.4
255.581	5.01
255.962	5.77
256.343	5.71
256.724	4.86
257.105	5.44
257.486	5.15
257.867	4.74
258.247	5.48
258.628	6.29
259.009	5.46
259.389	5.95
259.77	5.7
260.15	6.23
260.531	6.07
260.911	5.77
261.292	5.77
261.672	5.27
262.052	5.69
262.432	5.68
262.813	6.18
263.193	5.26
263.573	5.94
263.953	5.42
264.333	5.22
264.713	4.74
265.093	5.09
265.473	6.63
265.853	6.31
266.233	5.27
266.612	5.94
266.992	5.06
267.372	5.51
267.752	5.61
268.131	5.54
268.511	5.68
268.89	5.56
269.27	5.77
269.649	6.05
270.029	5.74
270.408	5.24
270.787	5.29
271.167	5.56
271.546	5.01
271.925	5.12
272.304	5.62
272.683	5.48
273.062	5.67
273.441	5.74
273.82	5.7
274.199	5.78
274.578	5.1
274.957	5.78
275.336	5.23
275.715	5.85
276.093	6
276.472	5.14
276.851	5.42
277.229	5.95
277.608	5.31
277.986	5.69
278.365	5.23
278.743	5.78
279.122	4.92
279.5	4.62
279.878	4.99
280.257	5.46
280.635	5.03
281.013	5.92
281.391	5.67
281.769	5.2
282.147	5.76
282.525	4.75
282.903	5.51
283.281	5.59
283.659	5.28
284.037	5.08
284.415	5.2
284.792	5.13
285.17	4.81
285.548	4.89
285.925	4.96
286.303	4.97
286.68	5.24
287.058	5.17
287.435	5.05
287.813	5.1
288.19	5.46
288.567	5
288.945	4.81
289.322	4.99
289.699	4.49
290.076	5.15
290.453	5.06
290.83	4.83
291.207	5.25
291.584	4.75
291.961	5.43
292.338	5.03
292.715	5.19
293.092	4.32
293.469	5.17
293.845	5.43
294.222	4.98
294.599	5.04
294.975	5.77
295.352	4.48
295.728	4.93
296.105	5.23
296.481	5.2
296.858	5.39
297.234	4.88
297.61	5.21
297.986	5.14
298.363	4.47
298.739	5.07
299.115	4.71
299.491	5.08
299.867	5.12
300.243	5.09
300.619	5.17
300.995	4.43
301.371	4.99
301.746	4.71
302.122	5.17
302.498	5.25
302.874	5.24
303.249	4.95
303.625	5
304	4.59
304.376	4.86
304.751	4.85
305.127	4.88
305.502	5.36
305.878	4.54
306.253	4.53
306.628	5.05
307.003	5.28
307.378	4.35
307.754	5.07
308.129	4.21
308.504	4.73
308.879	4.5
309.254	4.91
309.629	4.46
310.003	5.19
310.378	4.84
310.753	5.13
311.128	4.74
311.502	4.49
311.877	4.57
312.252	4.44
312.626	5.1
313.001	4.5
313.375	4.71
313.75	4.4
314.124	4.65
314.498	4.6
314.873	4.39
315.247	4.08
315.621	4.62
315.995	4.59
316.369	4.86
316.743	4.95
317.117	4.75
317.491	4.5
317.865	4.22
318.239	4.86
318.613	4.61
318.987	4.42
319.361	4.56
319.734	3.95
320.108	4.46
320.482	4.69
320.855	4.78
321.229	5.02
321.602	4.7
321.976	4.38
322.349	4.26
322.723	3.39
323.096	4.42
323.469	4.64
323.843	4.4
324.216	4.17
324.589	5.2
324.962	4.54
325.335	4.44
325.708	4.61
326.081	5.28
326.454	4.28
326.827	4.82
327.2	4.91
327.573	4.58
327.945	4.35
328.318	4.38
328.691	4.54
329.063	4.25
329.436	4.46
329.809	4.38
330.181	4.41
330.553	4.46
330.926	4.5
331.298	4.19
331.671	4.58
332.043	4.3
332.415	4.57
332.787	4.91
333.159	4.53
333.532	4.19
333.904	4.51
334.276	4.33
334.648	4.36
335.02	4.38
335.391	4.58
335.763	3.94
336.135	4.54
336.507	4.63
336.879	4.51
337.25	3.84
337.622	4.25
337.993	4.74
338.365	4.78
338.736	4.48
339.108	3.96
339.479	4.38
339.851	4.65
340.222	4.4
340.593	4.08
340.964	4.51
341.336	4.24
341.707	4.68
342.078	4.13
342.449	4.88
342.82	4.42
343.191	4.1
343.562	4.68
343.933	4.58
344.303	4.3
344.674	4.5
345.045	4.53
345.416	4.2
345.786	3.86
346.157	4.44
346.527	4.14
346.898	4.42
347.268	4.67
347.639	3.98
348.009	4.51
348.38	4.32
348.75	4.38
349.12	4.26
349.49	4.62
349.861	4.83
350.231	4.42
350.601	4.27
350.971	4.5
351.341	4.39
351.711	4.41
352.081	4.51
352.45	4.46
352.82	4.64
353.19	4.37
353.56	4.68
353.929	4.6
354.299	4.57
354.669	4.53
355.038	4.29
355.408	4.7
355.777	4.12
356.147	4.58
356.516	4.57
356.885	4.72
357.254	4.47
357.624	4.44
357.993	4.53
358.362	4.6
358.731	4.58
359.1	4.63
359.469	4.45
359.838	4.52
360.207	4.17
360.576	4.37
360.945	4.83
361.314	4.6
361.682	4.33
362.051	4.45
362.42	4.85
362.788	4.33
363.157	4.27
363.525	4.38
363.894	4.43
364.262	4.31
364.631	5.16
364.999	4.29
365.367	4.8
365.735	4.1
366.104	4.22
366.472	4.66
366.84	4.54
367.208	4.32
367.576	4.61
367.944	4.59
368.312	4.04
368.68	4.65
369.048	4.51
369.416	4.54
369.783	4.37
370.151	4.32
370.519	4.48
370.886	4.37
371.254	4.69
371.621	4.76
371.989	4.68
372.356	4.47
372.724	4.4
373.091	4.57
373.458	4.36
373.826	4.64
374.193	5.18
374.56	4.19
374.927	4.52
375.294	4.89
375.661	4.55
376.028	4.93
376.395	4.5
376.762	4.97
377.129	4.75
377.496	4.75
377.863	4.81
378.229	4.51
378.596	4.47
378.963	4.67
379.329	4.52
379.696	4.83
380.062	4.81
380.429	4.75
380.795	4.71
381.161	4.42
381.528	4.24
381.894	4.87
382.26	4.45
382.626	4.71
382.993	4.26
383.359	4.45
383.725	4.9
384.091	4.81
384.457	4.82
384.823	4.69
385.188	4.83
385.554	4.85
385.92	4.78
386.286	5.18
386.651	4.72
387.017	4.96
387.383	4.74
387.748	4.5
388.114	4.72
388.479	4.56
388.845	4.74
389.21	4.9
389.575	4.78
389.94	4.74
390.306	4.68
390.671	4.73
391.036	4.73
391.401	4.98
391.766	4.85
392.131	4.82
392.496	4.72
392.861	4.88
393.226	4.98
393.591	5.08
393.956	4.86
394.32	4.97
394.685	5.22
395.05	4.81
395.414	4.9
395.779	4.69
396.143	4.98
396.508	4.92
396.872	5
397.236	4.49
397.601	5.03
397.965	4.8
398.329	4.99
398.694	4.82
399.058	5
399.422	5.06
399.786	4.81
400.15	5
400.514	4.97
400.878	5.09
401.242	5.25
401.605	4.97
401.969	4.93
402.333	4.74
402.697	5.07
403.06	5.01
403.424	4.96
403.787	5.03
404.151	4.7
404.514	4.86
404.878	5.18
405.241	5.11
405.604	5.1
405.968	5
406.331	5.17
406.694	5.13
407.057	5.3
407.42	4.86
407.783	4.83
408.146	5.1
408.509	4.98
408.872	4.87
409.235	5.06
409.598	5.27
409.961	4.97
410.323	5.22
410.686	5.03
411.049	5.23
411.411	4.93
411.774	5.12
412.136	5.17
412.499	5.07
412.861	5.05
413.223	5.27
413.586	4.93
413.948	5.02
414.31	5.02
414.672	4.97
415.035	5.19
415.397	5.19
415.759	5.12
416.121	5.21
416.483	5.39
416.845	5.03
417.206	5.44
417.568	5.09
417.93	5.09
418.292	4.96
418.653	5.32
419.015	5.23
419.377	5.26
419.738	5.05
420.1	5.12
420.461	5.08
420.822	5.16
421.184	5.08
421.545	5.12
421.906	5.11
422.267	4.95
422.629	5.1
422.99	5.06
423.351	5.06
423.712	5.12
424.073	5.19
424.434	5.08
424.795	5.06
425.155	5.18
425.516	5.08
425.877	5.12
426.238	5.06
426.598	5.16
426.959	5.11
427.32	5.24
427.68	5.22
428.041	5.26
428.401	5.08
428.761	5.13
429.122	5.13
429.482	5.22
429.842	5.3
430.202	5.28
430.563	5.18
430.923	5.32
431.283	5.3
431.643	5.23
432.003	5.43
432.363	5.34
432.722	5.26
433.082	5.29
433.442	5.23
433.802	5.27
434.161	5.35
434.521	5.28
434.881	5.41
435.24	5.25
435.6	5.32
435.959	5.29
436.319	5.18
436.678	5.44
437.037	5.37
437.396	5.35
437.756	5.27
438.115	5.42
438.474	5.3
438.833	5.38
439.192	5.6
439.551	5.39
439.91	5.34
440.269	5.53
440.628	5.4
440.987	5.2
441.345	5.36
441.704	5.38
442.063	5.39
442.421	5.34
442.78	5.3
443.138	5.35
443.497	5.19
443.855	5.31
444.214	5.52
444.572	5.26
444.93	5.43
445.288	5.37
445.647	5.46
446.005	5.32
446.363	5.31
446.721	5.22
447.079	5.39
447.437	5.35
447.795	5.36
448.153	5.29
448.51	5.31
448.868	5.45
449.226	5.36
449.584	5.34
449.941	5.49
450.299	5.41
450.656	5.43
451.014	5.5
451.371	5.52
451.729	5.32
452.086	5.33
452.443	5.4
452.801	5.49
453.158	5.33
453.515	5.41
453.872	5.63
454.229	5.42
454.586	5.5
454.943	5.39
455.3	5.52
455.657	5.35
456.014	5.68
456.371	5.56
456.727	5.37
457.084	5.44
457.441	5.39
457.797	5.53
458.154	5.4
458.51	5.46
458.867	5.49
459.223	5.52
459.58	5.51
459.936	5.41
460.292	5.57
460.648	5.35
461.005	5.32
461.361	5.38
461.717	5.36
462.073	5.4
462.429	5.65
462.785	5.63
463.141	5.61
463.496	5.5
463.852	5.6
464.208	5.6
464.564	5.57
464.919	5.53
465.275	5.49
465.631	5.58
465.986	5.52
466.342	5.59
466.697	5.51
467.052	5.63
467.408	5.72
467.763	5.58
468.118	5.55
468.473	5.67
468.829	5.58
469.184	5.66
469.539	5.48
469.894	5.7
470.249	5.64
470.603	5.56
470.958	5.65
471.313	5.48
471.668	5.68
472.023	5.64
472.377	5.51
472.732	5.48
473.086	5.65
473.441	5.63
473.795	5.8
474.15	5.74
474.504	5.6
474.859	5.65
475.213	5.66
475.567	5.56
475.921	5.77
476.275	5.62
476.63	5.84
476.984	5.59
477.338	5.87
477.692	5.62
478.045	5.56
478.399	5.73
478.753	5.61
479.107	5.67
479.461	5.76
479.814	5.64
480.168	5.62
480.521	5.61
480.875	5.81
481.228	5.64
481.582	5.54
481.935	5.71
482.289	5.53
482.642	5.67
482.995	5.72
483.348	5.62
483.701	5.59
484.055	5.53
484.408	5.56
484.761	5.38
485.114	5.4
485.466	5.35
485.819	5.38
486.172	5.41
486.525	5.45
486.878	5.46
487.23	5.56
487.583	5.61
487.936	5.57
488.288	5.56
488.641	5.56
488.993	5.41
489.345	5.49
489.698	5.48
490.05	5.51
490.402	5.59
490.754	5.69
491.107	5.67
491.459	5.73
491.811	5.73
492.163	5.7
492.515	5.64
492.866	5.47
493.218	5.5
493.57	5.58
493.922	5.56
494.274	5.66
494.625	5.66
494.977	5.64
495.328	5.78
495.68	5.87
496.031	5.81
496.383	5.72
496.734	5.89
497.086	5.78
497.437	5.75
497.788	5.71
498.139	5.8
498.49	5.82
498.842	5.7
499.193	5.77
499.544	5.84
499.894	5.77
500.245	5.84
500.596	5.83
500.947	5.77
501.298	5.88
501.648	5.94
501.999	6.01
502.35	6.09
502.7	5.83
503.051	5.99
503.401	5.9
503.752	5.87
504.102	5.81
504.452	5.85
504.803	5.84
505.153	5.82
505.503	5.8
505.853	5.82
506.203	5.99
506.553	5.96
506.903	5.86
507.253	6
507.603	5.85
507.953	6.07
508.303	6.01
508.652	5.9
509.002	5.96
509.352	5.91
509.701	5.79
510.051	5.94
510.4	5.94
510.75	5.91
511.099	5.89
511.449	5.86
511.798	5.97
512.147	5.98
512.496	5.97
512.846	5.93
513.195	5.91
513.544	5.98
513.893	5.79
514.242	5.95
514.591	5.97
514.939	5.88
515.288	6.04
515.637	6.09
515.986	5.89
516.334	6.07
516.683	6.01
517.032	6.04
517.38	6.07
517.729	5.98
518.077	6.1
518.426	6.02
518.774	5.91
519.122	6
519.47	6
519.819	5.92
520.167	5.93
520.515	5.95
520.863	5.87
521.211	5.86
521.559	5.91
521.907	5.87
522.255	6.06
522.602	6.09
522.95	6.12
523.298	6.08
523.645	6.03
523.993	6.18
524.341	5.93
524.688	5.95
525.036	6.09
525.383	6.13
525.73	6.09
526.078	6.09
526.425	5.99
526.772	5.83
527.119	5.9
527.466	5.91
527.814	5.94
528.161	5.96
528.508	6
528.854	5.86
529.201	5.87
529.548	5.82
529.895	5.79
530.242	5.74
530.588	5.8
530.935	5.83
531.282	5.85
531.628	5.89
531.975	5.95
532.321	6.02
532.667	6.03
533.014	6.04
533.36	6.03
533.706	6.04
534.052	5.9
534.399	5.93
534.745	5.86
535.091	5.94
535.437	5.99
535.783	6.02
536.129	5.97
536.474	6.16
536.82	6.05
537.166	6.08
537.512	6.07
537.857	6.04
538.203	6.05
538.549	6.15
538.894	6.06
539.239	6.15
539.585	6.12
539.93	6.22
540.276	6.2
540.621	6.15
540.966	6.26
541.311	6.21
541.656	6.08
542.001	6.18
542.346	6.02
542.691	6
543.036	6.01
543.381	6
543.726	6.07
544.071	6.14
544.415	6.08
544.76	6.06
545.105	6.05
545.449	6.14
545.794	6.14
546.138	6.18
546.483	6.14
546.827	6.25
547.171	6.21
547.516	6.26
547.86	6.26
548.204	6.19
548.548	6.33
548.892	6.27
549.236	6.29
549.58	6.3
549.924	6.34
550.268	6.34
550.612	6.4
550.956	6.38
551.3	6.44
551.643	6.33
551.987	6.27
552.33	6.3
552.674	6.5
553.017	6.39
553.361	6.48
553.704	6.31
554.048	6.45
554.391	6.29
554.734	6.48
555.077	6.47
555.42	6.37
555.764	6.42
556.107	6.4
556.45	6.26
556.793	6.44
557.135	6.6
557.478	6.52
557.821	6.42
558.164	6.57
558.507	6.36
558.849	6.33
559.192	6.68
559.534	6.31
559.877	6.57
560.219	6.53
560.562	6.56
560.904	6.39
561.246	6.56
561.589	6.54
561.931	6.67
562.273	6.49
562.615	6.65
562.957	6.52
563.299	6.58
563.641	6.55
563.983	6.55
564.325	6.33
564.667	6.62
565.008	6.53
565.35	6.46
565.692	6.6
566.033	6.53
566.375	6.43
566.716	6.43
567.058	6.62
567.399	6.7
567.741	6.57
568.082	6.46
568.423	6.44
568.764	6.66
569.105	6.55
569.447	6.55
569.788	6.67
570.129	6.64
570.47	6.71
570.811	6.8
571.151	6.51
571.492	6.65
571.833	6.7
572.174	6.65
572.514	6.55
572.855	6.59
573.195	6.47
573.536	6.44
573.876	6.53
574.217	6.52
574.557	6.68
574.898	6.36
575.238	6.42
575.578	6.63
575.918	6.65
576.258	6.66
576.598	6.53
576.938	6.73
577.278	6.51
577.618	6.6
577.958	6.53
578.298	6.79
578.638	6.56
578.977	6.65
579.317	6.8
579.657	6.74
579.996	6.63
580.336	6.46
580.675	6.7
581.014	6.68
581.354	6.64
581.693	6.58
582.032	6.71
582.372	6.72
582.711	6.59
583.05	6.91
583.389	6.73
583.728	6.81
584.067	6.78
584.406	6.78
584.745	6.62
585.083	6.99
585.422	6.71
585.761	6.73
586.1	6.86
586.438	6.65
586.777	6.81
587.115	6.78
587.454	6.78
587.792	6.6
588.13	7.14
588.469	6.92
588.807	6.91
589.145	6.9
589.483	6.7
589.821	6.78
590.159	6.65
590.497	6.7
590.835	6.73
591.173	6.7
591.511	6.93
591.849	6.81
592.187	6.94
592.524	6.71
592.862	6.94
593.2	6.8
593.537	6.89
593.875	6.85
594.212	6.9
594.55	6.85
594.887	7.09
595.224	6.72
595.561	7.06
595.899	6.59
596.236	6.69
596.573	6.87
596.91	6.96
597.247	6.85
597.584	7
597.921	6.75
598.258	6.91
598.594	6.77
598.931	6.74
599.268	6.87
599.604	6.99
599.941	6.86
600.277	6.77
600.614	6.94
600.95	6.87
601.287	7.03
601.623	6.96
601.959	6.75
602.296	7.16
602.632	7.04
602.968	7.04
603.304	6.69
603.64	6.86
603.976	6.56
604.312	7.08
604.648	6.88
604.984	7.03
605.319	6.9
605.655	6.85
605.991	6.79
606.326	6.74
606.662	6.68
606.998	6.86
607.333	6.77
607.668	6.91
608.004	6.9
608.339	7.16
608.674	6.93
609.01	6.88
609.345	7.12
609.68	6.62
610.015	6.91
610.35	6.79
610.685	6.78
611.02	6.99
611.355	6.83
611.689	6.75
612.024	6.96
612.359	7.1
612.694	7.14
613.028	7.04
613.363	6.98
613.697	6.76
614.032	7.05
614.366	7.14
614.7	7.4
615.035	7.02
615.369	6.94
615.703	7.3
616.037	7.08
616.371	6.93
616.705	7.01
617.039	7.32
617.373	7.05
617.707	6.94
618.041	7.09
618.375	6.88
618.709	7.17
619.042	6.74
619.376	6.95
619.71	7.18
620.043	6.87
620.377	7.16
620.71	7.04
621.043	6.82
621.377	7.01
621.71	7.49
622.043	7.54
622.376	7.05
622.709	7.14
623.043	7.14
623.376	7.08
623.709	7.24
624.041	6.99
624.374	7.14
624.707	6.93
625.04	7.31
625.373	6.91
625.705	6.84
626.038	7.2
626.37	6.83
626.703	7.13
627.035	6.92
627.368	7.29
627.7	7.14
628.032	6.92
628.365	6.88
628.697	6.96
629.029	7.46
629.361	7
629.693	7.55
630.025	7.1
630.357	7.16
630.689	7.42
631.021	7.36
631.353	7.47
631.684	7.26
632.016	6.77
632.348	7.31
632.679	6.98
633.011	7.28
633.342	7.32
633.674	7.27
634.005	7.35
634.336	7.39
634.668	6.93
634.999	7.36
635.33	7.46
635.661	6.98
635.992	7.19
636.323	7.12
636.654	7.52
636.985	7.21
637.316	7.21
637.647	7.49
637.977	7.37
638.308	7.26
638.639	7.13
638.969	7.11
639.3	7.35
639.63	7.44
639.961	7.16
640.291	7.69
640.622	7.64
640.952	7.12
641.282	6.95
641.612	6.85
641.943	7.27
642.273	7.25
642.603	7.29
642.933	7.2
643.263	7.52
643.592	7.5
643.922	7.56
644.252	7.49
644.582	7.41
644.911	7.27
645.241	7.29
645.571	7.17
645.9	7.87
646.23	7.2
646.559	7.55
646.888	6.77
647.218	7.28
647.547	7.42
647.876	7.31
648.205	7.02
648.534	7.33
648.863	7.33
649.192	7.09
649.521	7
649.85	7.97
650.179	7.18
650.508	7.42
650.837	7.19
651.165	7.63
651.494	7.55
651.822	7.78
652.151	7.48
652.479	8.03
652.808	7.18
653.136	7.3
653.465	7.81
653.793	7.59
654.121	7.44
654.449	7.75
654.777	7.43
655.105	7.78
655.433	7.6
655.761	7.46
656.089	7.7
656.417	7.42
656.745	7.95
657.073	7.45
657.4	7.92
657.728	7.41
658.056	7.2
658.383	7.19
658.711	7.45
659.038	7.64
659.365	7.41
659.693	7.48
660.02	7.18
660.347	7.49
660.674	7.55
661.001	7.04
661.329	7.42
661.656	7.67
661.982	7.51
662.309	7.65
662.636	7.53
662.963	7.38
663.29	7.38
663.616	7.61
663.943	7.83
664.27	7.44
664.596	7.77
664.923	7.67
665.249	7.88
665.576	7.81
665.902	7.47
666.228	7.03
666.554	7
666.881	7.76
667.207	7.48
667.533	7.83
667.859	7.75
668.185	7.89
668.511	7.44
668.837	7.58
669.162	7.59
669.488	7.44
669.814	8.31
670.139	8.51
670.465	8.23
670.791	8.42
671.116	7.99
671.442	7.7
671.767	7.34
672.092	7.72
672.418	7.9
672.743	7.32
673.068	7.47
673.393	7.63
673.718	7.83
674.043	7.2
674.368	8.22
674.693	7.89
675.018	7.82
675.343	8.32
675.667	7.8
675.992	7.5
676.317	7.88
676.641	8.51
676.966	8.01
677.29	7.34
677.615	7.45
677.939	7.51
678.264	7.37
678.588	7.88
678.912	7.53
679.236	8.24
679.56	7.39
679.885	7.95
680.209	7.82
680.532	7.84
680.856	8.21
681.18	7.68
681.504	7.42
681.828	7.37
682.152	7.79
682.475	7.89
682.799	8.16
683.122	7.59
683.446	7.64
683.769	7.85
684.093	7.62
684.416	7.61
684.739	7.84
685.062	8.06
685.386	7.77
685.709	8.09
686.032	7.74
686.355	7.99
686.678	7.98
687.001	6.98
687.324	7.15
687.646	7.45
687.969	8.15
688.292	8.27
688.614	8.15
688.937	7.86
689.26	7.4
689.582	7.91
689.904	7.8
690.227	7.63
690.549	7.93
690.871	7.74
691.194	8.36
691.516	7.42
691.838	7.9
692.16	7.83
692.482	7.81
692.804	7.87
