Data from 0062_chest_Reflection__0__193.txt Node

Date: Fri Dec 16 15:31:51 CST 2022
User: ToomeyLab
Spectrometer: FLMS14357
Trigger mode: 0
Integration Time (sec): 1.000000E-2
Scans to average: 100
Electric dark correction enabled: true
Nonlinearity correction enabled: false
Boxcar width: 0
XAxis mode: Wavelengths
Number of Pixels in Spectrum: 2048
>>>>>Begin Spectral Data<<<<<
189.047	-445.84
189.435	-445.84
189.823	-445.84
190.211	98.06
190.599	-25.03
190.987	38.05
191.375	40.58
191.763	271.18
192.151	170.52
192.538	1.54
192.926	133.11
193.314	101.78
193.702	226.49
194.089	-23.79
194.477	-332.78
194.864	-66.28
195.252	-50.55
195.639	38.14
196.027	15.43
196.414	-110.07
196.801	-87.38
197.189	122.31
197.576	-521.4
197.963	-120.11
198.351	-6.13
198.738	23.74
199.125	49.42
199.512	-3.14
199.899	-11.7
200.286	16.7
200.673	32.1
201.06	46.32
201.447	38.57
201.833	-28.13
202.22	22.71
202.607	7.48
202.994	19.22
203.38	-117.91
203.767	17.93
204.154	1.56
204.54	22.53
204.927	4.59
205.313	68.35
205.699	-2.11
206.086	9.26
206.472	5.27
206.858	0.17
207.245	7.56
207.631	15.69
208.017	-6.52
208.403	12.13
208.789	-0.96
209.175	6.51
209.561	-20.61
209.947	6.54
210.333	-61.44
210.719	5.75
211.105	-4.25
211.491	8.47
211.876	2.28
212.262	-13.1
212.648	-18.3
213.034	-0.54
213.419	19.13
213.805	-15.78
214.19	-6.92
214.576	1.04
214.961	-42.26
215.346	-24.02
215.732	12.41
216.117	-22.17
216.502	-12.55
216.888	-60.07
217.273	38.62
217.658	-34.7
218.043	7.56
218.428	9.63
218.813	13.38
219.198	-29.58
219.583	9.12
219.968	-6.45
220.353	12.85
220.738	-7.33
221.122	-11.42
221.507	-7.71
221.892	15.8
222.276	4.6
222.661	-15.4
223.046	0.85
223.43	-8.22
223.815	1.55
224.199	3.42
224.583	0.62
224.968	2.46
225.352	3.38
225.736	-0.76
226.121	0.38
226.505	-1.65
226.889	3.55
227.273	2.62
227.657	0.26
228.041	3.11
228.425	2.88
228.809	2.43
229.193	1.07
229.577	1.49
229.961	2.25
230.344	2.79
230.728	2.19
231.112	2.65
231.495	1.12
231.879	2.67
232.263	1.33
232.646	1.23
233.03	-0.26
233.413	1.88
233.797	3.24
234.18	-1.81
234.563	3.4
234.946	1.86
235.33	3.59
235.713	3.41
236.096	1.7
236.479	3.04
236.862	4.82
237.245	2.61
237.628	3.65
238.011	0.84
238.394	5.75
238.777	3.65
239.16	0.95
239.543	1.56
239.925	3.58
240.308	3.99
240.691	2.27
241.073	2.34
241.456	1.87
241.838	2.41
242.221	2.63
242.603	3.03
242.986	3.68
243.368	2.68
243.75	2.36
244.133	2.92
244.515	2.76
244.897	2.78
245.279	2.43
245.661	2.75
246.043	3.62
246.425	2.57
246.807	2.84
247.189	2.94
247.571	2.55
247.953	2.95
248.335	2.9
248.717	3.03
249.098	3
249.48	2.45
249.862	2.85
250.243	3.04
250.625	3.4
251.006	2.48
251.388	3.37
251.769	2.97
252.151	2.31
252.532	2.58
252.913	3.22
253.295	2.87
253.676	3.26
254.057	2.85
254.438	2.28
254.819	3.9
255.2	2.97
255.581	1.51
255.962	3.49
256.343	2.54
256.724	2.28
257.105	1.83
257.486	2.95
257.867	2.13
258.247	2.94
258.628	3.34
259.009	2.83
259.389	3.19
259.77	2.7
260.15	3.37
260.531	2.92
260.911	2.79
261.292	2.91
261.672	2.8
262.052	2.79
262.432	2.96
262.813	2.95
263.193	2.02
263.573	2.9
263.953	1.95
264.333	3.03
264.713	2.25
265.093	2.74
265.473	3.24
265.853	2.6
266.233	2.28
266.612	3.17
266.992	1.88
267.372	3
267.752	2.72
268.131	2.75
268.511	3.07
268.89	2.79
269.27	3.07
269.649	2.54
270.029	2.86
270.408	2.6
270.787	2.29
271.167	2.59
271.546	2.59
271.925	2.82
272.304	2.63
272.683	2.67
273.062	3.22
273.441	2.97
273.82	2.95
274.199	2.93
274.578	2.46
274.957	2.73
275.336	2.73
275.715	2.85
276.093	3.14
276.472	2.16
276.851	2.79
277.229	3.49
277.608	2.61
277.986	2.67
278.365	2.93
278.743	2.77
279.122	1.49
279.5	2.2
279.878	1.75
280.257	2.33
280.635	2.51
281.013	2.67
281.391	2.65
281.769	2.58
282.147	2.81
282.525	2.82
282.903	2.73
283.281	2.23
283.659	2.77
284.037	2.51
284.415	3.24
284.792	2.86
285.17	2.08
285.548	2.32
285.925	2.52
286.303	2.96
286.68	3.04
287.058	2.38
287.435	2.71
287.813	2.85
288.19	3.21
288.567	2.53
288.945	2.69
289.322	2.68
289.699	2.6
290.076	3.14
290.453	2.69
290.83	2.77
291.207	2.95
291.584	2.6
291.961	3.09
292.338	2.88
292.715	3.12
293.092	2.92
293.469	2.96
293.845	3.28
294.222	2.98
294.599	3.5
294.975	3.01
295.352	2.81
295.728	3.14
296.105	2.74
296.481	3.64
296.858	2.89
297.234	3.08
297.61	3.21
297.986	3
298.363	2.81
298.739	3.21
299.115	2.98
299.491	2.73
299.867	2.98
300.243	2.85
300.619	3.2
300.995	3.4
301.371	3.33
301.746	3.67
302.122	3.08
302.498	3.58
302.874	3.03
303.249	3.5
303.625	3.46
304	3.14
304.376	2.83
304.751	3.15
305.127	3.47
305.502	3.29
305.878	3.43
306.253	3.07
306.628	3.58
307.003	3.46
307.378	3.05
307.754	3.5
308.129	3.13
308.504	3.35
308.879	3.4
309.254	3.3
309.629	2.89
310.003	3.61
310.378	3.3
310.753	3.3
311.128	3.63
311.502	3.08
311.877	3.3
312.252	3.06
312.626	3.17
313.001	3.37
313.375	3.18
313.75	3.24
314.124	3.9
314.498	3.31
314.873	3.68
315.247	2.99
315.621	3.61
315.995	3.19
316.369	3.85
316.743	3.97
317.117	3.7
317.491	3.31
317.865	2.99
318.239	3.86
318.613	3.7
318.987	3.78
319.361	3.91
319.734	3.53
320.108	3.81
320.482	3.53
320.855	3.32
321.229	3.75
321.602	3.7
321.976	3.53
322.349	3.09
322.723	3.25
323.096	3.1
323.469	3.75
323.843	4.25
324.216	3.49
324.589	3.98
324.962	3.87
325.335	3.24
325.708	3.55
326.081	4.13
326.454	3.71
326.827	3.83
327.2	3.9
327.573	3.83
327.945	3.44
328.318	3.56
328.691	3.63
329.063	3.22
329.436	3.69
329.809	3.38
330.181	3.78
330.553	3.59
330.926	4.52
331.298	3.55
331.671	3.68
332.043	3.62
332.415	3.69
332.787	4.53
333.159	3.6
333.532	3.8
333.904	4.12
334.276	3.64
334.648	3.55
335.02	3.34
335.391	4.1
335.763	3.82
336.135	3.65
336.507	4.15
336.879	3.19
337.25	4.16
337.622	4.02
337.993	4.43
338.365	3.91
338.736	3.9
339.108	3.5
339.479	3.62
339.851	3.7
340.222	4.19
340.593	3.4
340.964	3.58
341.336	3.54
341.707	3.78
342.078	3.39
342.449	4.08
342.82	3.37
343.191	3.6
343.562	3.57
343.933	3.78
344.303	3.9
344.674	3.62
345.045	4.01
345.416	3.37
345.786	3.44
346.157	3.57
346.527	3.62
346.898	3.69
347.268	3.51
347.639	3.45
348.009	3.9
348.38	3.68
348.75	4.08
349.12	3.65
349.49	3.74
349.861	4.11
350.231	3.96
350.601	4.1
350.971	3.56
351.341	3.67
351.711	3.58
352.081	3.95
352.45	4.15
352.82	3.93
353.19	3.66
353.56	3.88
353.929	4.08
354.299	3.55
354.669	3.82
355.038	3.91
355.408	4.26
355.777	3.5
356.147	4.09
356.516	3.85
356.885	3.74
357.254	3.97
357.624	3.88
357.993	3.93
358.362	3.77
358.731	3.68
359.1	4.28
359.469	3.88
359.838	3.7
360.207	3.87
360.576	4.09
360.945	3.68
361.314	4.02
361.682	3.68
362.051	3.87
362.42	4.27
362.788	3.7
363.157	3.73
363.525	3.52
363.894	3.75
364.262	3.77
364.631	4.4
364.999	3.72
365.367	4.05
365.735	3.5
366.104	3.52
366.472	4.07
366.84	4.04
367.208	3.76
367.576	3.76
367.944	4.02
368.312	3.43
368.68	3.99
369.048	3.99
369.416	3.97
369.783	3.89
370.151	4.17
370.519	3.94
370.886	3.7
371.254	3.78
371.621	4.28
371.989	4.14
372.356	3.86
372.724	4.08
373.091	3.9
373.458	3.94
373.826	3.74
374.193	4.31
374.56	3.71
374.927	3.85
375.294	4.18
375.661	4.03
376.028	4.16
376.395	3.89
376.762	4.03
377.129	4.55
377.496	3.75
377.863	3.89
378.229	3.72
378.596	3.79
378.963	3.83
379.329	3.91
379.696	3.9
380.062	4.18
380.429	4
380.795	3.72
381.161	3.9
381.528	3.6
381.894	4.17
382.26	3.73
382.626	3.76
382.993	3.95
383.359	4
383.725	4.44
384.091	4.08
384.457	4.49
384.823	4.02
385.188	4.32
385.554	4.03
385.92	4.21
386.286	4.17
386.651	4.19
387.017	4.16
387.383	4.1
387.748	3.92
388.114	4.07
388.479	4.29
388.845	4.14
389.21	4.23
389.575	4.09
389.94	4.32
390.306	4.06
390.671	4.08
391.036	4.22
391.401	4.26
391.766	4.25
392.131	4.1
392.496	4.05
392.861	3.95
393.226	4.08
393.591	4.15
393.956	4.21
394.32	3.84
394.685	4.28
395.05	3.94
395.414	4.13
395.779	4.09
396.143	4.19
396.508	4.11
396.872	4.24
397.236	3.97
397.601	4.27
397.965	3.83
398.329	4.33
398.694	4.25
399.058	4.32
399.422	4.24
399.786	4.15
400.15	4.1
400.514	4.27
400.878	4.28
401.242	4.23
401.605	4.04
401.969	4.17
402.333	4.05
402.697	4.35
403.06	4.32
403.424	4.32
403.787	4.36
404.151	4.14
404.514	4.1
404.878	4.24
405.241	4.29
405.604	4.22
405.968	4.16
406.331	4.37
406.694	4.12
407.057	4.35
407.42	4.4
407.783	4.33
408.146	4.22
408.509	4.13
408.872	4.09
409.235	4.29
409.598	4.34
409.961	4.36
410.323	4.44
410.686	4.27
411.049	4.22
411.411	4.22
411.774	4.25
412.136	4.46
412.499	4.19
412.861	3.91
413.223	4.45
413.586	4.24
413.948	4.41
414.31	4.4
414.672	4.27
415.035	4.44
415.397	4.45
415.759	4.54
416.121	4.45
416.483	4.42
416.845	4.4
417.206	4.34
417.568	4.31
417.93	4.27
418.292	4.37
418.653	4.31
419.015	4.38
419.377	4.34
419.738	4.25
420.1	4.29
420.461	4.24
420.822	4.35
421.184	4.3
421.545	4.32
421.906	4.33
422.267	4.2
422.629	4.28
422.99	4.28
423.351	4.36
423.712	4.39
424.073	4.45
424.434	4.36
424.795	4.33
425.155	4.32
425.516	4.28
425.877	4.34
426.238	4.22
426.598	4.4
426.959	4.32
427.32	4.52
427.68	4.51
428.041	4.46
428.401	4.38
428.761	4.45
429.122	4.45
429.482	4.37
429.842	4.3
430.202	4.46
430.563	4.37
430.923	4.53
431.283	4.56
431.643	4.44
432.003	4.51
432.363	4.55
432.722	4.49
433.082	4.36
433.442	4.37
433.802	4.58
434.161	4.5
434.521	4.4
434.881	4.52
435.24	4.51
435.6	4.61
435.959	4.44
436.319	4.43
436.678	4.51
437.037	4.53
437.396	4.67
437.756	4.45
438.115	4.59
438.474	4.71
438.833	4.83
439.192	4.72
439.551	4.7
439.91	4.58
440.269	4.7
440.628	4.64
440.987	4.47
441.345	4.63
441.704	4.59
442.063	4.64
442.421	4.55
442.78	4.5
443.138	4.63
443.497	4.55
443.855	4.69
444.214	4.76
444.572	4.61
444.93	4.73
445.288	4.66
445.647	4.78
446.005	4.6
446.363	4.67
446.721	4.48
447.079	4.62
447.437	4.6
447.795	4.55
448.153	4.67
448.51	4.56
448.868	4.74
449.226	4.69
449.584	4.67
449.941	4.71
450.299	4.76
450.656	4.79
451.014	4.77
451.371	4.87
451.729	4.84
452.086	4.75
452.443	4.75
452.801	4.85
453.158	4.96
453.515	4.67
453.872	4.85
454.229	4.77
454.586	4.8
454.943	4.86
455.3	5.09
455.657	4.86
456.014	4.9
456.371	5.01
456.727	4.9
457.084	4.73
457.441	4.87
457.797	4.89
458.154	4.85
458.51	4.88
458.867	4.82
459.223	4.97
459.58	4.86
459.936	4.72
460.292	4.85
460.648	4.68
461.005	4.85
461.361	4.73
461.717	4.85
462.073	4.84
462.429	4.87
462.785	4.82
463.141	4.97
463.496	4.96
463.852	5.21
464.208	5.02
464.564	4.93
464.919	4.9
465.275	4.95
465.631	4.88
465.986	4.88
466.342	5.13
466.697	5.04
467.052	4.98
467.408	5.03
467.763	4.86
468.118	5.17
468.473	5.27
468.829	4.95
469.184	5.1
469.539	5.02
469.894	5
470.249	5.16
470.603	4.93
470.958	5.2
471.313	5.24
471.668	5.18
472.023	5.22
472.377	5.28
472.732	5.06
473.086	5.01
473.441	5.26
473.795	5.13
474.15	5.15
474.504	5.15
474.859	5.16
475.213	5.11
475.567	5.13
475.921	5.38
476.275	5.28
476.63	5.2
476.984	5.25
477.338	5.44
477.692	5.19
478.045	5.25
478.399	5.27
478.753	5.19
479.107	5.16
479.461	5.22
479.814	5.17
480.168	5.33
480.521	5.15
480.875	5.27
481.228	5.21
481.582	5.11
481.935	5.35
482.289	5.06
482.642	5.15
482.995	5.07
483.348	5.13
483.701	5.23
484.055	5.08
484.408	5.06
484.761	4.89
485.114	4.85
485.466	4.86
485.819	4.98
486.172	5.09
486.525	5.14
486.878	5.16
487.23	5.21
487.583	5.22
487.936	5.17
488.288	5.13
488.641	5.04
488.993	5.05
489.345	5.06
489.698	5.14
490.05	5.16
490.402	5.28
490.754	5.37
491.107	5.37
491.459	5.38
491.811	5.45
492.163	5.33
492.515	5.28
492.866	5.14
493.218	5.11
493.57	5.27
493.922	5.31
494.274	5.46
494.625	5.44
494.977	5.51
495.328	5.55
495.68	5.68
496.031	5.61
496.383	5.52
496.734	5.65
497.086	5.46
497.437	5.57
497.788	5.52
498.139	5.52
498.49	5.49
498.842	5.51
499.193	5.55
499.544	5.69
499.894	5.63
500.245	5.68
500.596	5.67
500.947	5.75
501.298	5.7
501.648	5.77
501.999	5.68
502.35	5.86
502.7	5.61
503.051	5.8
503.401	5.84
503.752	5.65
504.102	5.76
504.452	5.76
504.803	5.67
505.153	5.86
505.503	5.76
505.853	5.7
506.203	5.86
506.553	5.93
506.903	5.75
507.253	5.98
507.603	5.8
507.953	5.91
508.303	5.91
508.652	5.89
509.002	5.86
509.352	5.84
509.701	5.91
510.051	5.93
510.4	5.85
510.75	5.91
511.099	5.85
511.449	5.89
511.798	5.97
512.147	5.92
512.496	6
512.846	6.01
513.195	5.93
513.544	5.87
513.893	5.87
514.242	6.02
514.591	6.13
514.939	6.03
515.288	6.13
515.637	6.13
515.986	6.02
516.334	6.24
516.683	6.17
517.032	5.95
517.38	6.19
517.729	6.07
518.077	6.19
518.426	6.14
518.774	6.13
519.122	6.12
519.47	6.12
519.819	6.11
520.167	6.1
520.515	6.07
520.863	6.16
521.211	6.25
521.559	6.22
521.907	6.19
522.255	6.32
522.602	6.42
522.95	6.44
523.298	6.35
523.645	6.36
523.993	6.49
524.341	6.28
524.688	6.45
525.036	6.45
525.383	6.5
525.73	6.52
526.078	6.51
526.425	6.36
526.772	6.27
527.119	6.22
527.466	6.31
527.814	6.38
528.161	6.37
528.508	6.42
528.854	6.29
529.201	6.32
529.548	6.24
529.895	6.12
530.242	6.13
530.588	6.28
530.935	6.33
531.282	6.42
531.628	6.47
531.975	6.56
532.321	6.5
532.667	6.58
533.014	6.6
533.36	6.51
533.706	6.69
534.052	6.54
534.399	6.44
534.745	6.39
535.091	6.52
535.437	6.58
535.783	6.71
536.129	6.8
536.474	6.68
536.82	6.75
537.166	6.8
537.512	6.78
537.857	6.72
538.203	6.72
538.549	6.87
538.894	6.87
539.239	6.97
539.585	6.97
539.93	7.01
540.276	6.96
540.621	6.96
540.966	7.01
541.311	7.05
541.656	6.9
542.001	7.06
542.346	6.89
542.691	6.73
543.036	6.77
543.381	6.89
543.726	6.98
544.071	7.04
544.415	7.03
544.76	7.01
545.105	7.13
545.449	7.06
545.794	7.24
546.138	7.29
546.483	7.3
546.827	7.32
547.171	7.25
547.516	7.41
547.86	7.28
548.204	7.2
548.548	7.34
548.892	7.37
549.236	7.5
549.58	7.51
549.924	7.5
550.268	7.61
550.612	7.48
550.956	7.65
551.3	7.67
551.643	7.75
551.987	7.74
552.33	7.58
552.674	7.76
553.017	7.76
553.361	7.75
553.704	7.71
554.048	7.89
554.391	7.76
554.734	7.8
555.077	7.85
555.42	7.79
555.764	7.92
556.107	7.88
556.45	7.96
556.793	8.05
557.135	8.12
557.478	8.27
557.821	8.07
558.164	8.17
558.507	8.01
558.849	8.01
559.192	8.25
559.534	8.06
559.877	8.33
560.219	8.29
560.562	8.34
560.904	8.43
561.246	8.43
561.589	8.42
561.931	8.46
562.273	8.52
562.615	8.45
562.957	8.44
563.299	8.43
563.641	8.5
563.983	8.44
564.325	8.26
564.667	8.39
565.008	8.52
565.35	8.52
565.692	8.56
566.033	8.64
566.375	8.35
566.716	8.64
567.058	8.56
567.399	8.66
567.741	8.62
568.082	8.51
568.423	8.71
568.764	8.71
569.105	8.82
569.447	8.77
569.788	8.76
570.129	8.83
570.47	8.85
570.811	8.91
571.151	8.84
571.492	9.13
571.833	8.98
572.174	9.11
572.514	8.84
572.855	9.05
573.195	8.92
573.536	9.05
573.876	9.04
574.217	9.12
574.557	9.03
574.898	9.17
575.238	9.04
575.578	9.2
575.918	9.26
576.258	9.15
576.598	9.2
576.938	9.42
577.278	9.36
577.618	9.47
577.958	9.27
578.298	9.39
578.638	9.43
578.977	9.49
579.317	9.71
579.657	9.6
579.996	9.37
580.336	9.59
580.675	9.51
581.014	9.95
581.354	9.87
581.693	9.8
582.032	9.54
582.372	9.91
582.711	9.85
583.05	9.99
583.389	9.79
583.728	9.96
584.067	10.09
584.406	10.09
584.745	10
585.083	10.3
585.422	10.14
585.761	10.22
586.1	10.09
586.438	10.34
586.777	10.2
587.115	10.36
587.454	10.26
587.792	10.05
588.13	10.51
588.469	10.33
588.807	10.52
589.145	10.42
589.483	10.31
589.821	10.56
590.159	10.39
590.497	10.31
590.835	10.47
591.173	10.44
591.511	10.51
591.849	10.76
592.187	10.65
592.524	10.51
592.862	10.65
593.2	10.89
593.537	10.72
593.875	10.51
594.212	10.9
594.55	10.8
594.887	11.14
595.224	10.96
595.561	10.76
595.899	10.83
596.236	10.95
596.573	10.76
596.91	11.05
597.247	10.89
597.584	11.11
597.921	11.01
598.258	10.85
598.594	10.7
598.931	10.95
599.268	11.04
599.604	11.15
599.941	11.21
600.277	11.26
600.614	11.38
600.95	11.29
601.287	11.33
601.623	11.55
601.959	11.2
602.296	11.49
602.632	11.85
602.968	11.39
603.304	11.38
603.64	11.46
603.976	11.6
604.312	11.54
604.648	11.41
604.984	11.44
605.319	11.43
605.655	11.82
605.991	11.33
606.326	11.48
606.662	11.57
606.998	11.68
607.333	11.75
607.668	11.78
608.004	11.93
608.339	11.69
608.674	11.73
609.01	11.97
609.345	12.02
609.68	11.82
610.015	12.02
610.35	11.91
610.685	11.89
611.02	12.08
611.355	11.96
611.689	11.87
612.024	12.31
612.359	12.25
612.694	12.29
613.028	12.65
613.363	12.22
613.697	12.58
614.032	12.32
614.366	12.2
614.7	12.76
615.035	12.57
615.369	12.92
615.703	13
616.037	12.68
616.371	12.54
616.705	12.47
617.039	12.67
617.373	12.57
617.707	12.72
618.041	12.78
618.375	12.93
618.709	12.69
619.042	12.95
619.376	12.6
619.71	12.71
620.043	12.96
620.377	12.88
620.71	13.15
621.043	12.86
621.377	12.95
621.71	13.16
622.043	13.37
622.376	12.94
622.709	13.66
623.043	12.91
623.376	13.41
623.709	13.68
624.041	13.16
624.374	12.96
624.707	13.3
625.04	13.6
625.373	13.34
625.705	13.32
626.038	13.58
626.37	13.49
626.703	13.45
627.035	13.5
627.368	13.72
627.7	13.44
628.032	13.5
628.365	13.54
628.697	13.34
629.029	13.64
629.361	13.75
629.693	14.1
630.025	13.7
630.357	13.9
630.689	14.16
631.021	14.07
631.353	14.06
631.684	13.63
632.016	13.65
632.348	14.03
632.679	13.92
633.011	13.73
633.342	14.04
633.674	13.77
634.005	14.3
634.336	14.06
634.668	13.77
634.999	14.22
635.33	14.06
635.661	14.39
635.992	14.08
636.323	14.3
636.654	14.48
636.985	14.51
637.316	14.3
637.647	14.68
637.977	14.35
638.308	14
638.639	14.38
638.969	14.35
639.3	14.68
639.63	14.43
639.961	14.81
640.291	14.98
640.622	14.9
640.952	14.34
641.282	14.61
641.612	14.37
641.943	14.92
642.273	14.78
642.603	15.34
642.933	14.61
643.263	15.28
643.592	14.94
643.922	15.2
644.252	14.98
644.582	14.68
644.911	14.97
645.241	15.03
645.571	14.79
645.9	15.24
646.23	15.02
646.559	15.21
646.888	15.19
647.218	15.31
647.547	15.23
647.876	15.52
648.205	14.93
648.534	15.23
648.863	15.49
649.192	15.3
649.521	15.75
649.85	15.57
650.179	15.02
650.508	15.67
650.837	15.07
651.165	15.39
651.494	16.03
651.822	15.62
652.151	15.96
652.479	15.95
652.808	15.38
653.136	15.76
653.465	15.98
653.793	16
654.121	15.8
654.449	15.78
654.777	16.16
655.105	16.08
655.433	16.04
655.761	15.43
656.089	16.47
656.417	15.89
656.745	15.98
657.073	16.58
657.4	16.5
657.728	16.37
658.056	16.16
658.383	16.09
658.711	15.62
659.038	16.32
659.365	16.41
659.693	16.19
660.02	15.71
660.347	16.18
660.674	16.37
661.001	15.76
661.329	15.74
661.656	15.98
661.982	16.36
662.309	16.63
662.636	16.51
662.963	16.72
663.29	16.22
663.616	16.94
663.943	16.61
664.27	16.97
664.596	15.85
664.923	17.02
665.249	16.57
665.576	17.04
665.902	16.81
666.228	16.72
666.554	16.13
666.881	16.97
667.207	16.71
667.533	17.66
667.859	17.03
668.185	17.79
668.511	17.08
668.837	16.52
669.162	17.08
669.488	17.02
669.814	17.26
670.139	17.62
670.465	17.02
670.791	17.17
671.116	17.3
671.442	16.89
671.767	16.65
672.092	17.46
672.418	17.74
672.743	16.99
673.068	16.89
673.393	17.31
673.718	17.35
674.043	17.69
674.368	18.16
674.693	17.4
675.018	17.75
675.343	17.8
675.667	17.67
675.992	17.35
676.317	17.25
676.641	17.41
676.966	17.62
677.29	17.48
677.615	17.01
677.939	18.08
678.264	17.34
678.588	17.68
678.912	18.34
679.236	17.91
679.56	17.73
679.885	17.92
680.209	17.48
680.532	17.51
680.856	17.73
681.18	18.06
681.504	17.7
681.828	17.35
682.152	17.8
682.475	17.79
682.799	18.16
683.122	17.44
683.446	17.96
683.769	18.31
684.093	17.66
684.416	17.89
684.739	18.53
685.062	18.22
685.386	18.4
685.709	18.15
