Data from 0221_forehead_Reflection__4__282.txt Node

Date: Fri Sep 22 22:57:38 CDT 2023
User: ToomeyLab
Spectrometer: FLMS14357
Trigger mode: 0
Integration Time (sec): 1.000000E-2
Scans to average: 100
Electric dark correction enabled: true
Nonlinearity correction enabled: false
Boxcar width: 0
XAxis mode: Wavelengths
Number of Pixels in Spectrum: 2048
>>>>>Begin Spectral Data<<<<<
189.047	886.29
189.435	886.29
189.823	886.29
190.211	-11.57
190.599	-154.3
190.987	241.37
191.375	-72.26
191.763	504.55
192.151	83.34
192.538	-102.74
192.926	37.9
193.314	-225.55
193.702	3072.28
194.089	178.6
194.477	-53.51
194.864	140.04
195.252	68.58
195.639	138.16
196.027	52.21
196.414	-71.62
196.801	-204.16
197.189	-375.74
197.576	134.79
197.963	96.46
198.351	36.63
198.738	-4.75
199.125	40.3
199.512	3.92
199.899	46.12
200.286	30.01
200.673	1.73
201.06	29.97
201.447	87.4
201.833	25.52
202.22	51.42
202.607	49.26
202.994	42.9
203.38	50.91
203.767	23.05
204.154	45.2
204.54	19.44
204.927	12.08
205.313	35.65
205.699	44.12
206.086	59.85
206.472	48.27
206.858	45.9
207.245	44.42
207.631	33.71
208.017	23.99
208.403	20.03
208.789	46.4
209.175	35.2
209.561	38.27
209.947	42.57
210.333	52.79
210.719	6.47
211.105	18.87
211.491	37.99
211.876	40.33
212.262	53.59
212.648	46.18
213.034	47.39
213.419	40.63
213.805	38.11
214.19	6.62
214.576	30.78
214.961	26.53
215.346	5.98
215.732	44.97
216.117	2.39
216.502	44.28
216.888	11.13
217.273	46.64
217.658	37.62
218.043	8.15
218.428	25.28
218.813	-18.71
219.198	30.96
219.583	29.21
219.968	6.54
220.353	43.8
220.738	6.81
221.122	15.91
221.507	-6.45
221.892	-11.14
222.276	7.55
222.661	-14.02
223.046	23.37
223.43	22.73
223.815	14.57
224.199	1.32
224.583	23.17
224.968	17.13
225.352	-0.94
225.736	13.12
226.121	23.07
226.505	6.47
226.889	10.12
227.273	7.13
227.657	7.47
228.041	5.45
228.425	9.74
228.809	4.76
229.193	2.52
229.577	5.56
229.961	7.24
230.344	6.4
230.728	3.5
231.112	4.97
231.495	3.68
231.879	4.34
232.263	4.6
232.646	4.91
233.03	3.81
233.413	6.55
233.797	4.53
234.18	5.24
234.563	7.37
234.946	5.73
235.33	0.52
235.713	3.4
236.096	3.61
236.479	2.85
236.862	7.63
237.245	4.69
237.628	4.01
238.011	6.41
238.394	4.47
238.777	5.95
239.16	3.91
239.543	6.54
239.925	4.83
240.308	5.91
240.691	4.34
241.073	6.12
241.456	4.86
241.838	4.31
242.221	4.18
242.603	3.63
242.986	2.99
243.368	4.13
243.75	4.18
244.133	4.33
244.515	3.92
244.897	3.91
245.279	3.73
245.661	4.45
246.043	4.82
246.425	2.91
246.807	5.13
247.189	3.72
247.571	4.06
247.953	3.7
248.335	3.95
248.717	3.77
249.098	3.73
249.48	3.57
249.862	3.77
250.243	3.7
250.625	3.88
251.006	3.52
251.388	4.39
251.769	4.1
252.151	3.66
252.532	3.89
252.913	5
253.295	4.8
253.676	3.43
254.057	4.24
254.438	4.28
254.819	3.42
255.2	3.73
255.581	4.21
255.962	4.56
256.343	4.25
256.724	3.2
257.105	5.22
257.486	4.58
257.867	4.08
258.247	4.43
258.628	5.54
259.009	3.87
259.389	3.28
259.77	5.24
260.15	4.71
260.531	4.46
260.911	3.59
261.292	4.07
261.672	3.55
262.052	3.78
262.432	3.93
262.813	3.87
263.193	3.25
263.573	4.5
263.953	4.09
264.333	3.94
264.713	4.06
265.093	3.77
265.473	3.96
265.853	3.13
266.233	4.18
266.612	4.78
266.992	4.15
267.372	5.09
267.752	3.86
268.131	3.1
268.511	3.42
268.89	4.04
269.27	3.58
269.649	3.92
270.029	3.45
270.408	3.97
270.787	4.22
271.167	4.15
271.546	3.71
271.925	3.87
272.304	3.88
272.683	4.17
273.062	3.95
273.441	4.22
273.82	4.04
274.199	4.01
274.578	3.97
274.957	3.64
275.336	4.05
275.715	3.66
276.093	3.34
276.472	3.29
276.851	4.18
277.229	3.26
277.608	4.2
277.986	3.9
278.365	4.12
278.743	3.71
279.122	4.32
279.5	4.67
279.878	3.47
280.257	4.25
280.635	3.49
281.013	4.58
281.391	3.83
281.769	4.08
282.147	4.36
282.525	3.99
282.903	3.67
283.281	3.96
283.659	4.03
284.037	3.76
284.415	4.08
284.792	3.84
285.17	4
285.548	3.96
285.925	3.82
286.303	3.55
286.68	3.61
287.058	3.43
287.435	3.7
287.813	3.44
288.19	3.39
288.567	4.01
288.945	3.81
289.322	3.97
289.699	3.86
290.076	4.57
290.453	3.67
290.83	3.87
291.207	4.02
291.584	3.69
291.961	3.72
292.338	4.05
292.715	4.42
293.092	3.59
293.469	4.37
293.845	3.9
294.222	4.29
294.599	3.83
294.975	4.74
295.352	4.03
295.728	3.89
296.105	4.34
296.481	4.15
296.858	4.36
297.234	4.39
297.61	4.34
297.986	4.12
298.363	4.18
298.739	4.3
299.115	4.39
299.491	4.47
299.867	4.35
300.243	4.14
300.619	4.33
300.995	4.17
301.371	4.97
301.746	4.39
302.122	4.23
302.498	4.45
302.874	4.95
303.249	4.39
303.625	3.9
304	4.89
304.376	4.6
304.751	4.74
305.127	5.03
305.502	5.1
305.878	5.01
306.253	4.89
306.628	4.79
307.003	4.93
307.378	4.67
307.754	4.86
308.129	4.98
308.504	4.5
308.879	5.71
309.254	4.95
309.629	4.59
310.003	5.56
310.378	5.17
310.753	4.93
311.128	5.01
311.502	5.2
311.877	4.16
312.252	5.13
312.626	4.99
313.001	5.17
313.375	4.97
313.75	5.57
314.124	5.55
314.498	4.97
314.873	5.01
315.247	5.59
315.621	5.29
315.995	5.5
316.369	5.41
316.743	5.68
317.117	5.72
317.491	5.9
317.865	5.68
318.239	5.52
318.613	6
318.987	5.76
319.361	5.91
319.734	5.9
320.108	5.61
320.482	5.32
320.855	5.64
321.229	6.12
321.602	5.91
321.976	5.69
322.349	6.2
322.723	6.19
323.096	5.61
323.469	6.03
323.843	6
324.216	6.26
324.589	6.02
324.962	5.47
325.335	5.66
325.708	6.2
326.081	6.43
326.454	5.65
326.827	5.83
327.2	6.62
327.573	6.55
327.945	6.27
328.318	6.48
328.691	6.72
329.063	6.13
329.436	5.98
329.809	6.29
330.181	6.78
330.553	6.64
330.926	6.52
331.298	6.46
331.671	6.57
332.043	5.68
332.415	6.9
332.787	6.86
333.159	6.34
333.532	6.36
333.904	6.4
334.276	6.04
334.648	6.16
335.02	6.39
335.391	6.64
335.763	7.01
336.135	6.78
336.507	6.88
336.879	6.19
337.25	6.55
337.622	7.36
337.993	6.91
338.365	6.99
338.736	6.6
339.108	7.28
339.479	6.63
339.851	6.46
340.222	6.53
340.593	6.77
340.964	6.8
341.336	6.82
341.707	6.64
342.078	7.09
342.449	7.44
342.82	7.17
343.191	6.73
343.562	7.15
343.933	7.27
344.303	7.26
344.674	7.61
345.045	7.41
345.416	7.42
345.786	7.41
346.157	7.37
346.527	7.19
346.898	7.08
347.268	7.37
347.639	7.17
348.009	7.23
348.38	7.44
348.75	7.84
349.12	7.71
349.49	7.81
349.861	7.37
350.231	7.5
350.601	7.99
350.971	7.91
351.341	7.79
351.711	7.65
352.081	7.61
352.45	7.67
352.82	8.18
353.19	8.33
353.56	7.96
353.929	7.97
354.299	7.98
354.669	7.72
355.038	8.06
355.408	7.8
355.777	8.03
356.147	7.92
356.516	7.98
356.885	7.86
357.254	8.45
357.624	7.74
357.993	8.02
358.362	8.18
358.731	8.06
359.1	7.96
359.469	8.17
359.838	8.04
360.207	8.07
360.576	8.49
360.945	8.3
361.314	8.51
361.682	8.39
362.051	8.61
362.42	8.43
362.788	8.24
363.157	8.63
363.525	8.27
363.894	8.34
364.262	8.25
364.631	8.26
364.999	8.37
365.367	8.74
365.735	8.33
366.104	8.66
366.472	8.77
366.84	8.72
367.208	9.1
367.576	8.96
367.944	8.95
368.312	8.83
368.68	8.88
369.048	9.17
369.416	8.97
369.783	8.85
370.151	8.81
370.519	8.69
370.886	9.02
371.254	9.35
371.621	9.19
371.989	9.07
372.356	9.3
372.724	9.22
373.091	9.34
373.458	9.06
373.826	9.37
374.193	9.35
374.56	9.47
374.927	9.47
375.294	9.31
375.661	9.66
376.028	9.65
376.395	9.5
376.762	9.77
377.129	9.66
377.496	9.95
377.863	9.93
378.229	9.7
378.596	9.66
378.963	10.29
379.329	9.91
379.696	9.82
380.062	9.58
380.429	9.8
380.795	9.74
381.161	9.86
381.528	9.94
381.894	9.7
382.26	10
382.626	10.33
382.993	10.41
383.359	9.95
383.725	9.94
384.091	10.05
384.457	10.07
384.823	10.12
385.188	10.41
385.554	10.28
385.92	10.6
386.286	10.12
386.651	10.4
387.017	10.41
387.383	10.47
387.748	10.02
388.114	10.31
388.479	10.63
388.845	10.18
389.21	10.38
389.575	10.71
389.94	10.38
390.306	10.82
390.671	11.05
391.036	10.61
391.401	10.78
391.766	10.59
392.131	10.76
392.496	10.89
392.861	10.75
393.226	11.03
393.591	10.89
393.956	10.81
394.32	10.89
394.685	10.79
395.05	11.1
395.414	11.18
395.779	11.14
396.143	11.3
396.508	11.19
396.872	11.03
397.236	11.11
397.601	11.08
397.965	11.29
398.329	10.93
398.694	11.18
399.058	11.37
399.422	11.29
399.786	11.41
400.15	11.26
400.514	11.48
400.878	11.2
401.242	11.52
401.605	11.5
401.969	11.18
402.333	11.73
402.697	11.56
403.06	11.62
403.424	11.63
403.787	11.89
404.151	11.82
404.514	12.17
404.878	11.75
405.241	12.12
405.604	12.1
405.968	11.91
406.331	11.85
406.694	11.67
407.057	11.56
407.42	12.03
407.783	11.78
408.146	11.88
408.509	12.05
408.872	11.99
409.235	12.11
409.598	11.98
409.961	12.38
410.323	12.23
410.686	12.43
411.049	12.32
411.411	12.55
411.774	12.45
412.136	11.91
412.499	12.28
412.861	12.46
413.223	12.46
413.586	12.56
413.948	12.56
414.31	12.31
414.672	12.45
415.035	12.39
415.397	12.65
415.759	13.05
416.121	12.6
416.483	12.58
416.845	12.55
417.206	12.78
417.568	12.82
417.93	12.66
418.292	12.96
418.653	12.7
419.015	12.64
419.377	12.63
419.738	12.77
420.1	12.69
420.461	12.83
420.822	12.59
421.184	12.72
421.545	12.67
421.906	12.71
422.267	12.83
422.629	12.77
422.99	12.85
423.351	12.7
423.712	12.59
424.073	12.83
424.434	12.89
424.795	12.93
425.155	12.99
425.516	13.05
425.877	13.05
426.238	12.82
426.598	12.97
426.959	13.04
427.32	13.05
427.68	13.12
428.041	13.21
428.401	13.37
428.761	13.61
429.122	13.51
429.482	13.47
429.842	13.51
430.202	13.48
430.563	13.58
430.923	13.92
431.283	13.86
431.643	13.84
432.003	13.92
432.363	13.98
432.722	13.98
433.082	13.92
433.442	14.01
433.802	14
434.161	13.98
434.521	14.09
434.881	14.18
435.24	13.98
435.6	14.02
435.959	13.93
436.319	14.02
436.678	14.12
437.037	14.25
437.396	14.13
437.756	14.23
438.115	14.34
438.474	14.29
438.833	14.43
439.192	14.42
439.551	14.34
439.91	14.31
440.269	14.68
440.628	14.47
440.987	14.43
441.345	14.55
441.704	14.54
442.063	14.32
442.421	14.43
442.78	14.52
443.138	14.53
443.497	14.49
443.855	14.65
444.214	14.64
444.572	14.88
444.93	14.79
445.288	14.85
445.647	14.91
446.005	14.91
446.363	14.92
446.721	15.05
447.079	14.85
447.437	14.93
447.795	14.92
448.153	14.88
448.51	14.96
448.868	14.83
449.226	14.96
449.584	14.96
449.941	15.03
450.299	15.09
450.656	15.33
451.014	15.39
451.371	15.48
451.729	15.38
452.086	15.43
452.443	15.63
452.801	15.49
453.158	15.6
453.515	15.65
453.872	15.6
454.229	15.64
454.586	15.67
454.943	15.65
455.3	15.73
455.657	15.84
456.014	15.84
456.371	15.85
456.727	16.01
457.084	16.03
457.441	16.02
457.797	16.04
458.154	16.15
458.51	16.13
458.867	16.06
459.223	16.12
459.58	16.28
459.936	16.19
460.292	16.4
460.648	16.34
461.005	16.25
461.361	16.2
461.717	16
462.073	15.99
462.429	15.93
462.785	16.04
463.141	16.21
463.496	16.45
463.852	16.52
464.208	16.68
464.564	16.73
464.919	16.74
465.275	16.94
465.631	16.9
465.986	16.94
466.342	17
466.697	16.94
467.052	16.93
467.408	16.89
467.763	17.17
468.118	16.93
468.473	17.07
468.829	17.27
469.184	17.18
469.539	17.32
469.894	17.14
470.249	17.18
470.603	17.33
470.958	17.5
471.313	17.27
471.668	17.32
472.023	17.43
472.377	17.47
472.732	17.48
473.086	17.67
473.441	17.33
473.795	17.69
474.15	17.38
474.504	17.76
474.859	17.69
475.213	17.64
475.567	17.51
475.921	17.8
476.275	17.81
476.63	17.84
476.984	17.65
477.338	18.02
477.692	17.94
478.045	18.1
478.399	18.07
478.753	17.89
479.107	17.9
479.461	17.95
479.814	18.07
480.168	18.17
480.521	18.18
480.875	18.31
481.228	18.27
481.582	17.99
481.935	18.15
482.289	18.35
482.642	18.22
482.995	18.37
483.348	18.22
483.701	18.25
484.055	18.16
484.408	18.03
484.761	18.13
485.114	17.93
485.466	17.71
485.819	17.5
486.172	17.42
486.525	17.51
486.878	17.63
487.23	17.79
487.583	17.92
487.936	18.14
488.288	18.17
488.641	18.27
488.993	18.07
489.345	18.14
489.698	17.96
490.05	17.99
490.402	18.04
490.754	18.08
491.107	18.25
491.459	18.47
491.811	18.57
492.163	18.82
492.515	18.68
492.866	18.77
493.218	18.75
493.57	18.6
493.922	18.38
494.274	18.49
494.625	18.59
494.977	18.74
495.328	19.14
495.68	19.2
496.031	19.48
496.383	19.55
496.734	19.59
497.086	19.63
497.437	19.56
497.788	19.75
498.139	19.79
498.49	19.67
498.842	19.56
499.193	19.46
499.544	19.66
499.894	19.69
500.245	19.75
500.596	19.76
500.947	19.83
501.298	19.94
501.648	20.17
501.999	20.15
502.35	20.13
502.7	20.3
503.051	20.16
503.401	20.28
503.752	20.41
504.102	20.49
504.452	20.45
504.803	20.56
505.153	20.38
505.503	20.56
505.853	20.68
506.203	20.65
506.553	20.58
506.903	20.61
507.253	20.62
507.603	20.68
507.953	20.84
508.303	20.89
508.652	20.75
509.002	20.92
509.352	20.88
509.701	20.86
510.051	20.9
510.4	20.88
510.75	20.96
511.099	20.8
511.449	20.89
511.798	20.97
512.147	21.03
512.496	20.86
512.846	21.04
513.195	20.95
513.544	21.22
513.893	21.19
514.242	21.17
514.591	21.33
514.939	21.32
515.288	21.16
515.637	21.4
515.986	21.36
516.334	21.51
516.683	21.57
517.032	21.7
517.38	21.79
517.729	21.58
518.077	21.72
518.426	21.78
518.774	21.85
519.122	21.77
519.47	21.84
519.819	21.71
520.167	21.57
520.515	21.58
520.863	21.56
521.211	21.62
521.559	21.64
521.907	21.75
522.255	21.98
522.602	21.84
522.95	22.1
523.298	22.18
523.645	22.3
523.993	22.33
524.341	22.15
524.688	22.4
525.036	22.31
525.383	22.36
525.73	22.5
526.078	22.48
526.425	22.46
526.772	22.55
527.119	22.36
527.466	22.38
527.814	22.14
528.161	22.1
528.508	22.22
528.854	22.41
529.201	22.26
529.548	22.22
529.895	22.29
530.242	22.1
530.588	21.93
530.935	21.8
531.282	21.87
531.628	22.14
531.975	22.17
532.321	22.18
532.667	22.38
533.014	22.55
533.36	22.6
533.706	22.88
534.052	22.89
534.399	22.87
534.745	22.81
535.091	22.81
535.437	22.58
535.783	22.51
536.129	22.81
536.474	22.89
536.82	23
537.166	23.33
537.512	23.45
537.857	23.36
538.203	23.46
538.549	23.34
538.894	23.24
539.239	23.28
539.585	23.41
539.93	23.57
540.276	23.7
540.621	23.91
540.966	23.85
541.311	23.99
541.656	23.95
542.001	24.12
542.346	23.97
542.691	24.04
543.036	23.6
543.381	23.34
543.726	23.35
544.071	23.41
544.415	23.5
544.76	23.64
545.105	23.78
545.449	23.74
545.794	23.88
546.138	24.04
546.483	24.14
546.827	24.31
547.171	24.41
547.516	24.47
547.86	24.58
548.204	24.72
548.548	24.7
548.892	24.59
549.236	24.4
549.58	24.66
549.924	24.82
550.268	24.93
550.612	25.04
550.956	25.08
551.3	25.29
551.643	25.39
551.987	25.45
552.33	25.56
552.674	25.57
553.017	25.4
553.361	25.47
553.704	25.67
554.048	25.6
554.391	25.55
554.734	25.63
555.077	25.39
555.42	25.48
555.764	25.51
556.107	25.8
556.45	25.82
556.793	25.67
557.135	25.78
557.478	25.78
557.821	26.01
558.164	26.28
558.507	26
558.849	25.97
559.192	26.01
559.534	26.4
559.877	26.45
560.219	26.21
560.562	26.37
560.904	26.53
561.246	26.58
561.589	26.64
561.931	26.66
562.273	26.58
562.615	26.37
562.957	26.57
563.299	26.79
563.641	26.72
563.983	26.79
564.325	26.87
564.667	26.72
565.008	26.81
565.35	27.19
565.692	27.14
566.033	26.89
566.375	26.93
566.716	27.01
567.058	26.75
567.399	27.09
567.741	26.97
568.082	27.1
568.423	27.01
568.764	27.06
569.105	26.99
569.447	27.1
569.788	27.01
570.129	27.33
570.47	27.47
570.811	27.4
571.151	27.48
571.492	27.4
571.833	27.6
572.174	27.38
572.514	27.85
572.855	27.65
573.195	27.78
573.536	27.66
573.876	27.7
574.217	27.46
574.557	27.72
574.898	27.6
575.238	27.7
575.578	27.88
575.918	27.72
576.258	27.86
576.598	27.91
576.938	28
577.278	27.95
577.618	27.93
577.958	28.11
578.298	28.09
578.638	27.92
578.977	28.33
579.317	28.29
579.657	28.6
579.996	28.58
580.336	28.47
580.675	28.52
581.014	28.53
581.354	28.8
581.693	28.62
582.032	28.69
582.372	28.92
582.711	28.97
583.05	28.94
583.389	28.85
583.728	29.18
584.067	29.25
584.406	28.88
584.745	28.77
585.083	29.21
585.422	29.33
585.761	29.18
586.1	29.25
586.438	29.41
586.777	29.59
587.115	28.98
587.454	29.13
587.792	29.59
588.13	29.52
588.469	29.51
588.807	29.75
589.145	29.64
589.483	29.77
589.821	29.68
590.159	29.61
590.497	29.98
590.835	29.93
591.173	29.9
591.511	29.8
591.849	29.97
592.187	29.84
592.524	30.03
592.862	30.1
593.2	29.96
593.537	29.92
593.875	29.99
594.212	30
594.55	30.1
594.887	29.95
595.224	30.52
595.561	30.88
595.899	30.43
596.236	30.63
596.573	30.55
596.91	30.54
597.247	30.49
597.584	30.55
597.921	30.52
598.258	30.67
598.594	30.62
598.931	30.33
599.268	30.43
599.604	30.51
599.941	30.49
600.277	30.49
600.614	30.72
600.95	30.76
601.287	30.7
601.623	30.73
601.959	30.95
602.296	31.16
602.632	30.76
602.968	31.09
603.304	31.13
603.64	31.1
603.976	31.3
604.312	31.3
604.648	30.98
604.984	31.43
605.319	31.44
605.655	31.12
605.991	31.02
606.326	31.41
606.662	31.2
606.998	31.28
607.333	31.28
607.668	31.1
608.004	31.26
608.339	31.2
608.674	31.42
609.01	31.6
609.345	32.1
609.68	31.99
610.015	31.81
610.35	31.76
610.685	32.09
611.02	31.83
611.355	31.96
611.689	31.84
612.024	31.69
612.359	31.79
612.694	31.82
613.028	32
613.363	31.97
613.697	32.02
614.032	32.02
614.366	32.15
614.7	32.52
615.035	32.33
615.369	32.45
615.703	32.14
616.037	32.58
616.371	32.76
616.705	32.68
617.039	32.78
617.373	32.82
617.707	32.93
618.041	32.68
618.375	32.46
618.709	32.76
619.042	32.86
619.376	33
619.71	33.09
620.043	33.06
620.377	33.08
620.71	32.79
621.043	33.58
621.377	33
621.71	33.44
622.043	33.15
622.376	33.65
622.709	33.25
623.043	33.4
623.376	33.17
623.709	33.62
624.041	33.62
624.374	33.56
624.707	33.55
625.04	33.65
625.373	33.38
625.705	33.45
626.038	33.55
626.37	33.81
626.703	34.2
627.035	33.68
627.368	33.87
627.7	34.6
628.032	33.98
628.365	33.74
628.697	33.6
629.029	33.54
629.361	34.07
629.693	33.81
630.025	33.96
630.357	33.92
630.689	34.02
631.021	33.9
631.353	33.88
631.684	33.93
632.016	34.34
632.348	34.33
632.679	34.22
633.011	34.12
633.342	34.32
633.674	34.91
634.005	34.11
634.336	34.59
634.668	34.56
634.999	34.48
635.33	34.15
635.661	34.74
635.992	34.45
636.323	34.7
636.654	34.61
636.985	34.42
637.316	34.96
637.647	34.57
637.977	34.74
638.308	35.46
638.639	34.85
638.969	34.95
639.3	34.49
639.63	35.13
639.961	35.18
640.291	34.91
640.622	35.48
640.952	35.48
641.282	35.39
641.612	35.19
641.943	35.4
642.273	35.59
642.603	35.86
642.933	35.71
643.263	34.96
643.592	35.43
643.922	35.67
644.252	35.96
644.582	36.14
644.911	35.58
645.241	36.09
645.571	36.09
645.9	36.34
646.23	35.55
646.559	36.1
646.888	35.83
647.218	35.48
647.547	36.38
647.876	35.66
648.205	35.75
648.534	36.38
648.863	35.98
649.192	35.53
649.521	36.27
649.85	36.16
650.179	36.12
650.508	35.74
650.837	36.73
651.165	36.08
651.494	36.34
651.822	36.2
652.151	36.56
652.479	36.16
652.808	36.95
653.136	36.89
653.465	36.47
653.793	36.53
654.121	36.91
654.449	36.16
654.777	36.76
655.105	36.42
655.433	36.53
655.761	37.37
656.089	36.83
656.417	36.6
656.745	37.05
657.073	37.15
657.4	37.42
657.728	37.13
658.056	36.96
658.383	37.48
658.711	37.04
659.038	36.88
659.365	37.34
659.693	36.86
660.02	37.13
660.347	37.16
660.674	37.05
661.001	36.73
661.329	36.93
661.656	37.33
661.982	37.3
662.309	37.3
662.636	37.61
662.963	37.66
663.29	37.05
663.616	37.84
663.943	37.61
664.27	37.85
664.596	37.48
664.923	37.73
665.249	37.96
665.576	37.41
665.902	38.37
666.228	37.98
666.554	37.81
666.881	38.17
667.207	37.5
667.533	37.79
667.859	38.33
668.185	37.96
668.511	38.65
668.837	37.55
669.162	37.95
669.488	38.31
669.814	37.92
670.139	38.44
670.465	38.73
670.791	38.24
671.116	38.17
671.442	38.71
671.767	37.72
672.092	38.7
672.418	38.49
672.743	38.69
673.068	38.57
673.393	38.3
