Data from 0221_crown_Reflection__4__277.txt Node

Date: Fri Sep 22 22:56:30 CDT 2023
User: ToomeyLab
Spectrometer: FLMS14357
Trigger mode: 0
Integration Time (sec): 1.000000E-2
Scans to average: 100
Electric dark correction enabled: true
Nonlinearity correction enabled: false
Boxcar width: 0
XAxis mode: Wavelengths
Number of Pixels in Spectrum: 2048
>>>>>Begin Spectral Data<<<<<
189.047	-441.26
189.435	-441.26
189.823	-441.26
190.211	74.52
190.599	377.9
190.987	112.85
191.375	-213.25
191.763	15.28
192.151	178.92
192.538	341.04
192.926	137.15
193.314	337.96
193.702	3408.91
194.089	155.15
194.477	85.13
194.864	-57.68
195.252	64.5
195.639	47.96
196.027	-53.7
196.414	267.74
196.801	86.14
197.189	-86.65
197.576	50.27
197.963	-95.27
198.351	45.52
198.738	-1.9
199.125	-12.07
199.512	-8.64
199.899	33.73
200.286	-1.98
200.673	-19.66
201.06	-13.07
201.447	44.91
201.833	-90.48
202.22	-4.11
202.607	4.21
202.994	12.15
203.38	12.87
203.767	-1.73
204.154	27.62
204.54	20.08
204.927	-10.27
205.313	29.64
205.699	52.66
206.086	19.74
206.472	58.57
206.858	28.95
207.245	-52.4
207.631	16.09
208.017	2.37
208.403	8.66
208.789	21.62
209.175	33.24
209.561	35.83
209.947	21.69
210.333	19.89
210.719	-14.08
211.105	55.3
211.491	-11.61
211.876	24.02
212.262	17.57
212.648	9.3
213.034	12.45
213.419	25.05
213.805	4.03
214.19	-5.62
214.576	36.49
214.961	-4.4
215.346	13.23
215.732	4.76
216.117	20.56
216.502	34.77
216.888	23.06
217.273	13.73
217.658	5.57
218.043	-6.84
218.428	5.17
218.813	-24.79
219.198	21.79
219.583	-6.35
219.968	-9.1
220.353	25.16
220.738	11.95
221.122	-1.53
221.507	-10.05
221.892	-13.27
222.276	-5.13
222.661	-17.27
223.046	14.23
223.43	11.7
223.815	14.2
224.199	-7.04
224.583	10.38
224.968	4.02
225.352	1.18
225.736	4.93
226.121	0.13
226.505	9.74
226.889	9.97
227.273	3.86
227.657	1.79
228.041	-0.88
228.425	7.74
228.809	1.8
229.193	2.92
229.577	5.36
229.961	5.85
230.344	6.09
230.728	5.5
231.112	6.22
231.495	4.73
231.879	5.94
232.263	4.9
232.646	6.51
233.03	5.71
233.413	5.47
233.797	4.86
234.18	5.4
234.563	9.1
234.946	6.34
235.33	2.18
235.713	3.04
236.096	5.33
236.479	3.64
236.862	6.82
237.245	3.66
237.628	4.97
238.011	4.23
238.394	6.14
238.777	6.41
239.16	6.37
239.543	6.55
239.925	6.88
240.308	5.78
240.691	6.18
241.073	4.06
241.456	4.49
241.838	5.75
242.221	3.91
242.603	4.45
242.986	4.33
243.368	4.37
243.75	4.99
244.133	5.37
244.515	4.65
244.897	4.59
245.279	4.68
245.661	4.41
246.043	4.83
246.425	4.57
246.807	4.82
247.189	3.79
247.571	5.03
247.953	5.15
248.335	4.94
248.717	4.87
249.098	4.59
249.48	4.51
249.862	4.54
250.243	4.93
250.625	4.5
251.006	4.14
251.388	4.78
251.769	5.24
252.151	4.51
252.532	4.32
252.913	4.57
253.295	5.33
253.676	5.06
254.057	4.65
254.438	4.91
254.819	3.9
255.2	5.03
255.581	4.72
255.962	4.4
256.343	3.41
256.724	3.4
257.105	4.57
257.486	4.53
257.867	4.04
258.247	4.68
258.628	5.32
259.009	3.88
259.389	3.7
259.77	4.44
260.15	4.1
260.531	4.17
260.911	3.85
261.292	3.95
261.672	4.22
262.052	4.3
262.432	4.32
262.813	4.41
263.193	3.91
263.573	4.6
263.953	3.9
264.333	4.4
264.713	3.67
265.093	4.18
265.473	4.33
265.853	4.3
266.233	4.09
266.612	3.59
266.992	3.64
267.372	4.88
267.752	4.2
268.131	3.43
268.511	3.55
268.89	4.57
269.27	4.46
269.649	4.2
270.029	3.84
270.408	3.44
270.787	3.96
271.167	3.86
271.546	4.22
271.925	4.42
272.304	4
272.683	4.23
273.062	4.57
273.441	3.84
273.82	4.24
274.199	4.27
274.578	4.42
274.957	3.55
275.336	3.92
275.715	3.96
276.093	3.66
276.472	3.63
276.851	4.35
277.229	3.17
277.608	4.35
277.986	3.82
278.365	3.76
278.743	4.11
279.122	4.02
279.5	4.56
279.878	3.26
280.257	4.4
280.635	4.08
281.013	4.15
281.391	3.54
281.769	3.51
282.147	4.29
282.525	3.6
282.903	3.77
283.281	4.58
283.659	4.02
284.037	3.87
284.415	4.2
284.792	4.39
285.17	4.01
285.548	4.25
285.925	3.95
286.303	4.03
286.68	3.65
287.058	3.36
287.435	4.01
287.813	3.95
288.19	3.5
288.567	4
288.945	3.61
289.322	3.84
289.699	3.66
290.076	3.87
290.453	3.61
290.83	3.24
291.207	3.74
291.584	3.13
291.961	3.5
292.338	3.95
292.715	3.89
293.092	3.53
293.469	3.46
293.845	3.58
294.222	3.67
294.599	3.79
294.975	4.15
295.352	3.95
295.728	3
296.105	4.12
296.481	3.62
296.858	3.68
297.234	3.81
297.61	3.59
297.986	3.81
298.363	3.61
298.739	3.58
299.115	3.69
299.491	3.85
299.867	3.71
300.243	3.51
300.619	3.74
300.995	3.16
301.371	3.74
301.746	3.97
302.122	3.14
302.498	3.47
302.874	3.55
303.249	3.38
303.625	3.34
304	3.81
304.376	3.72
304.751	3.43
305.127	3.74
305.502	3.65
305.878	3.45
306.253	3.83
306.628	3.64
307.003	3.79
307.378	3.31
307.754	3.03
308.129	3.51
308.504	3.22
308.879	4.19
309.254	3.02
309.629	3.79
310.003	3.94
310.378	4.14
310.753	3.34
311.128	3.42
311.502	3.6
311.877	3.21
312.252	3.51
312.626	3.19
313.001	3.7
313.375	3.57
313.75	4.01
314.124	4.01
314.498	3.05
314.873	3.55
315.247	3.78
315.621	3.83
315.995	3.47
316.369	3.49
316.743	3.61
317.117	4.14
317.491	3.67
317.865	3.29
318.239	3.93
318.613	3.87
318.987	3.39
319.361	3.43
319.734	3.47
320.108	3.78
320.482	3.53
320.855	3.58
321.229	3.29
321.602	3.75
321.976	3.85
322.349	3.63
322.723	3.35
323.096	3.41
323.469	3.1
323.843	3.49
324.216	3.41
324.589	3.55
324.962	3.13
325.335	3.63
325.708	3.46
326.081	3.84
326.454	3.37
326.827	3.63
327.2	3.81
327.573	3.92
327.945	3.6
328.318	3.99
328.691	3.73
329.063	3.7
329.436	3.86
329.809	3.93
330.181	4.03
330.553	3.38
330.926	3.52
331.298	3.53
331.671	3.69
332.043	2.85
332.415	3.09
332.787	3.63
333.159	3.51
333.532	3.54
333.904	3.42
334.276	3.04
334.648	3.25
335.02	3.3
335.391	3.43
335.763	3.81
336.135	3.88
336.507	3.54
336.879	3.01
337.25	3.37
337.622	3.87
337.993	3.47
338.365	3.67
338.736	3.38
339.108	3.78
339.479	3.34
339.851	3.36
340.222	3.54
340.593	3.26
340.964	3.08
341.336	3.26
341.707	3.45
342.078	3.56
342.449	4.05
342.82	3.31
343.191	3.1
343.562	3.57
343.933	3.54
344.303	3.41
344.674	3.75
345.045	3.68
345.416	3.92
345.786	2.97
346.157	3.59
346.527	3.44
346.898	3.23
347.268	3.83
347.639	3.55
348.009	4.16
348.38	3.61
348.75	4.26
349.12	3.69
349.49	3.87
349.861	3.75
350.231	3.78
350.601	3.59
350.971	3.62
351.341	2.99
351.711	3.25
352.081	3.44
352.45	3.57
352.82	3.69
353.19	3.79
353.56	3.66
353.929	3.86
354.299	3.7
354.669	3.68
355.038	3.65
355.408	3.65
355.777	3.54
356.147	3.51
356.516	3.76
356.885	3.74
357.254	4.04
357.624	3.36
357.993	3.47
358.362	3.62
358.731	3.42
359.1	3.44
359.469	3.78
359.838	3.5
360.207	3.64
360.576	3.53
360.945	3.67
361.314	3.69
361.682	3.87
362.051	3.73
362.42	3.8
362.788	3.55
363.157	4.02
363.525	3.48
363.894	3.52
364.262	3.65
364.631	3.8
364.999	3.46
365.367	3.96
365.735	3.78
366.104	3.62
366.472	3.89
366.84	3.56
367.208	3.97
367.576	3.72
367.944	3.67
368.312	3.99
368.68	3.9
369.048	3.96
369.416	3.66
369.783	3.36
370.151	3.46
370.519	3.62
370.886	3.7
371.254	3.93
371.621	3.51
371.989	3.76
372.356	3.57
372.724	3.84
373.091	4.02
373.458	3.47
373.826	3.7
374.193	3.94
374.56	4.07
374.927	3.78
375.294	3.9
375.661	3.89
376.028	3.95
376.395	3.74
376.762	4.05
377.129	4.06
377.496	3.94
377.863	4.17
378.229	3.96
378.596	3.75
378.963	4.29
379.329	3.66
379.696	3.89
380.062	3.64
380.429	4
380.795	3.62
381.161	3.77
381.528	3.63
381.894	3.56
382.26	3.78
382.626	3.97
382.993	3.89
383.359	3.53
383.725	3.82
384.091	3.88
384.457	3.78
384.823	3.68
385.188	4.09
385.554	4.08
385.92	4.35
386.286	3.84
386.651	3.85
387.017	3.98
387.383	3.77
387.748	4.16
388.114	3.77
388.479	4.14
388.845	3.98
389.21	3.82
389.575	4.09
389.94	3.9
390.306	3.9
390.671	4.39
391.036	3.52
391.401	3.9
391.766	3.88
392.131	4.06
392.496	3.84
392.861	3.96
393.226	4.14
393.591	4.02
393.956	3.97
394.32	3.96
394.685	3.73
395.05	4.21
395.414	4.07
395.779	4.07
396.143	3.81
396.508	3.8
396.872	4
397.236	3.74
397.601	3.69
397.965	4.03
398.329	3.83
398.694	3.77
399.058	3.68
399.422	3.95
399.786	4.27
400.15	4.17
400.514	4.21
400.878	4.06
401.242	4.07
401.605	4.03
401.969	3.79
402.333	4.19
402.697	3.84
403.06	4.01
403.424	3.94
403.787	4.35
404.151	4.02
404.514	4.33
404.878	4.28
405.241	4.32
405.604	4.08
405.968	4.02
406.331	4.15
406.694	4
407.057	3.8
407.42	4.25
407.783	4.01
408.146	4.08
408.509	3.91
408.872	4.03
409.235	4.1
409.598	4.1
409.961	4.08
410.323	4.13
410.686	3.93
411.049	3.98
411.411	4.2
411.774	3.93
412.136	3.92
412.499	4.23
412.861	4.05
413.223	4.03
413.586	4.21
413.948	4.14
414.31	4.01
414.672	4.13
415.035	3.97
415.397	4.15
415.759	4.47
416.121	3.77
416.483	4.04
416.845	3.98
417.206	4.09
417.568	4.01
417.93	3.97
418.292	4.17
418.653	3.9
419.015	4.11
419.377	4.11
419.738	4.15
420.1	4.07
420.461	4.05
420.822	4.05
421.184	3.84
421.545	4.07
421.906	3.97
422.267	3.99
422.629	4.06
422.99	4
423.351	3.94
423.712	3.93
424.073	3.92
424.434	4.13
424.795	4.06
425.155	4.05
425.516	4
425.877	3.94
426.238	3.82
426.598	3.94
426.959	3.98
427.32	4.02
427.68	4.05
428.041	3.92
428.401	4.1
428.761	4.25
429.122	4.07
429.482	4.11
429.842	3.86
430.202	4.02
430.563	4.04
430.923	4.32
431.283	4.16
431.643	4.13
432.003	4.14
432.363	4.04
432.722	4.09
433.082	4.06
433.442	4.12
433.802	4.07
434.161	3.91
434.521	4.04
434.881	4.01
435.24	4.08
435.6	3.9
435.959	4.02
436.319	4.04
436.678	4.16
437.037	4.14
437.396	4.01
437.756	4.18
438.115	4.08
438.474	3.98
438.833	4.16
439.192	4.3
439.551	4.17
439.91	4.21
440.269	4.13
440.628	3.85
440.987	4.06
441.345	4.12
441.704	4.13
442.063	4.01
442.421	4.05
442.78	4.1
443.138	4.08
443.497	3.98
443.855	4.11
444.214	4.05
444.572	4.13
444.93	4.1
445.288	4.14
445.647	4.19
446.005	4.09
446.363	4.14
446.721	4.01
447.079	3.89
447.437	4.12
447.795	4.12
448.153	3.92
448.51	4.03
448.868	4.04
449.226	4.07
449.584	4.06
449.941	3.95
450.299	4.09
450.656	4.19
451.014	4.18
451.371	4.05
451.729	4.12
452.086	4.19
452.443	4.08
452.801	4.14
453.158	4.01
453.515	4.25
453.872	4.19
454.229	4.23
454.586	4.18
454.943	4.15
455.3	4.2
455.657	4.04
456.014	4.15
456.371	4.06
456.727	4.16
457.084	4.19
457.441	4.04
457.797	4.19
458.154	4.07
458.51	3.95
458.867	4.11
459.223	4.24
459.58	4.18
459.936	4.28
460.292	4.25
460.648	4.25
461.005	4.21
461.361	4.22
461.717	4
462.073	4.07
462.429	4
462.785	4.09
463.141	4.19
463.496	4.23
463.852	4.14
464.208	4.12
464.564	4.17
464.919	4.03
465.275	4.23
465.631	4.41
465.986	4.36
466.342	4.29
466.697	4.17
467.052	4.03
467.408	4.18
467.763	4.22
468.118	4.26
468.473	4.09
468.829	4.28
469.184	4.07
469.539	4.19
469.894	4.13
470.249	4.13
470.603	4.13
470.958	4.24
471.313	4.3
471.668	4.37
472.023	4.18
472.377	4.18
472.732	4.21
473.086	4.36
473.441	3.93
473.795	4.44
474.15	4.02
474.504	4.24
474.859	4.35
475.213	4.07
475.567	4.26
475.921	4.18
476.275	4.16
476.63	4.16
476.984	4.06
477.338	4.24
477.692	4.12
478.045	4.34
478.399	4.21
478.753	4.19
479.107	4.1
479.461	4.08
479.814	4.19
480.168	4.08
480.521	4.2
480.875	4.37
481.228	4.09
481.582	4.04
481.935	4.14
482.289	4.16
482.642	4.1
482.995	4.11
483.348	4.19
483.701	4.08
484.055	4.01
484.408	4.12
484.761	4.14
485.114	3.92
485.466	3.89
485.819	3.88
486.172	3.86
486.525	3.87
486.878	3.88
487.23	3.93
487.583	4.03
487.936	4.06
488.288	4.02
488.641	3.99
488.993	3.96
489.345	3.89
489.698	3.92
490.05	3.91
490.402	3.95
490.754	3.89
491.107	3.93
491.459	4.06
491.811	4.04
492.163	4.11
492.515	4.08
492.866	4.05
493.218	4.01
493.57	3.98
493.922	3.94
494.274	3.97
494.625	3.97
494.977	4.06
495.328	4.17
495.68	4.12
496.031	4.13
496.383	4.21
496.734	4.17
497.086	4.21
497.437	4.28
497.788	4.12
498.139	4.25
498.49	4.19
498.842	4.02
499.193	4.04
499.544	4.14
499.894	4.08
500.245	4.12
500.596	4.06
500.947	4.23
501.298	4.24
501.648	4.23
501.999	4.18
502.35	4.26
502.7	4.2
503.051	4.25
503.401	4.32
503.752	4.23
504.102	4.22
504.452	4.12
504.803	4.1
505.153	4.18
505.503	4.29
505.853	4.27
506.203	4.21
506.553	4.16
506.903	4.18
507.253	4.13
507.603	4.26
507.953	4.25
508.303	4.2
508.652	4.07
509.002	4.28
509.352	4.12
509.701	4.21
510.051	4.15
510.4	4.19
510.75	4.15
511.099	4.04
511.449	4.2
511.798	4.15
512.147	4.09
512.496	4.13
512.846	4.21
513.195	4.12
513.544	4.18
513.893	4.19
514.242	4.06
514.591	4.17
514.939	4.21
515.288	4.14
515.637	4.25
515.986	4.07
516.334	4.22
516.683	4.22
517.032	4.32
517.38	4.17
517.729	4.09
518.077	4.33
518.426	4.19
518.774	4.17
519.122	4.16
519.47	4.12
519.819	4.09
520.167	4.14
520.515	4.1
520.863	4.01
521.211	4.05
521.559	4.17
521.907	4.06
522.255	4.14
522.602	4.2
522.95	4.12
523.298	4.14
523.645	4.22
523.993	4.16
524.341	4.11
524.688	4.25
525.036	4.18
525.383	4.12
525.73	4.2
526.078	4.2
526.425	4.14
526.772	4.19
527.119	4.08
527.466	4.01
527.814	4.06
528.161	3.97
528.508	4.07
528.854	4.1
529.201	4.09
529.548	4.11
529.895	4
530.242	3.9
530.588	3.95
530.935	3.85
531.282	3.91
531.628	3.94
531.975	3.91
532.321	3.99
532.667	4.02
533.014	4.04
533.36	4.1
533.706	4.1
534.052	4.16
534.399	4.11
534.745	4.09
535.091	3.98
535.437	3.96
535.783	3.88
536.129	4
536.474	4.03
536.82	4.03
537.166	4.18
537.512	4.18
537.857	4
538.203	4.1
538.549	4.07
538.894	3.97
539.239	4.01
539.585	4.01
539.93	4.14
540.276	4.01
540.621	4.08
540.966	4.11
541.311	4.19
541.656	4.02
542.001	4.13
542.346	4.12
542.691	4.21
543.036	4.04
543.381	3.95
543.726	3.94
544.071	3.91
544.415	3.96
544.76	3.91
545.105	3.94
545.449	3.93
545.794	4.07
546.138	4.08
546.483	4.07
546.827	4.04
547.171	4.1
547.516	4.18
547.86	4.15
548.204	4.09
548.548	4.08
548.892	4.12
549.236	4.01
549.58	4.18
549.924	4.11
550.268	4.2
550.612	3.99
550.956	4.12
551.3	4.24
551.643	4.14
551.987	4.18
552.33	4.27
552.674	4.12
553.017	4
553.361	4.08
553.704	4.2
554.048	4.18
554.391	4.17
554.734	4.14
555.077	4.07
555.42	4.03
555.764	4.02
556.107	4.24
556.45	4.17
556.793	4.14
557.135	4.14
557.478	4.01
557.821	4.16
558.164	4.37
558.507	4.21
558.849	4.1
559.192	4.29
559.534	4.29
559.877	4.09
560.219	4.35
560.562	4.22
560.904	4.29
561.246	4.38
561.589	4.18
561.931	4.18
562.273	4.04
562.615	4.1
562.957	4.06
563.299	4.18
563.641	4.19
563.983	4.31
564.325	4.19
564.667	4.25
565.008	4.22
565.35	4.03
565.692	4.23
566.033	4.11
566.375	4.18
566.716	4.13
567.058	4.16
567.399	4.17
567.741	4.21
568.082	4.05
568.423	4.16
568.764	4.31
569.105	3.9
569.447	4.16
569.788	3.89
570.129	4.1
570.47	4.22
570.811	4.18
571.151	4.14
571.492	4.04
571.833	3.94
572.174	4.06
572.514	4.08
572.855	4.19
573.195	4.04
573.536	4.13
573.876	3.98
574.217	4.03
574.557	4.16
574.898	4.26
575.238	4.1
575.578	4.14
575.918	4.1
576.258	3.97
576.598	4.18
576.938	4.1
577.278	4.26
577.618	3.96
577.958	4.15
578.298	4.21
578.638	4.14
578.977	4.15
579.317	4
579.657	4.2
579.996	4.14
580.336	4.11
580.675	4.41
581.014	4.01
581.354	3.94
581.693	4.14
582.032	4.28
582.372	4.09
582.711	4.18
583.05	4.01
583.389	4.11
583.728	4.25
584.067	4.27
584.406	4.05
584.745	3.99
585.083	4.48
585.422	4.26
585.761	3.92
586.1	4.17
586.438	4.05
586.777	4.18
587.115	4.25
587.454	3.92
587.792	4.33
588.13	4.2
588.469	4.28
588.807	4.25
589.145	4.29
589.483	4.08
589.821	4.06
590.159	4.09
590.497	4.22
590.835	4.2
591.173	4.16
591.511	4.06
591.849	4.19
592.187	4.19
592.524	4.3
592.862	4.13
593.2	3.97
593.537	4.1
593.875	4.12
594.212	4.04
594.55	4.28
594.887	4.12
595.224	4.14
595.561	4.57
595.899	4.35
596.236	4.48
596.573	4.11
596.91	4.25
597.247	4.14
597.584	4.24
597.921	4.21
598.258	4.21
598.594	4.18
598.931	4.03
599.268	4.03
599.604	4.24
599.941	4.23
600.277	4.01
600.614	4.1
600.95	4.32
601.287	3.99
601.623	4.01
601.959	4.18
602.296	4.08
602.632	4.06
602.968	4.23
603.304	4.26
603.64	4.01
603.976	4.2
604.312	4.14
604.648	4.16
604.984	4.23
605.319	4.09
605.655	3.86
605.991	4.03
606.326	4.27
606.662	4.05
606.998	4.1
607.333	4.11
607.668	4.03
608.004	4.27
608.339	4.09
608.674	4.09
609.01	4.09
609.345	3.96
609.68	4.16
610.015	4.11
610.35	4.06
610.685	4.35
611.02	4.5
611.355	4.27
611.689	4.17
612.024	4.23
612.359	4.12
612.694	4.06
613.028	4.11
613.363	4.17
613.697	4.06
614.032	4.16
614.366	3.97
614.7	4.29
615.035	4.15
615.369	3.98
615.703	3.92
616.037	3.85
616.371	4.38
616.705	4.27
617.039	4.16
617.373	3.98
617.707	4.17
618.041	4.23
618.375	3.96
618.709	4.25
619.042	4.22
619.376	4.27
619.71	4.08
620.043	3.84
620.377	4.05
620.71	4.19
621.043	4.18
621.377	4.21
621.71	4.33
622.043	3.78
622.376	4.07
622.709	4
623.043	4.13
623.376	3.95
623.709	4.23
624.041	4.35
624.374	4.19
624.707	4.34
625.04	4.18
625.373	3.86
625.705	4.42
626.038	3.88
626.37	4.12
626.703	4.25
627.035	4.44
627.368	4.34
627.7	4.55
628.032	4.34
628.365	4.24
628.697	4.02
629.029	4.12
629.361	4.23
629.693	4.26
630.025	4.34
630.357	4.18
630.689	4.31
631.021	4.33
631.353	4.15
631.684	4.27
632.016	4.36
632.348	4.28
632.679	4.11
633.011	4.24
633.342	4.34
633.674	4.2
634.005	4.28
634.336	4.43
634.668	4.52
634.999	4.37
635.33	4.25
635.661	4.22
635.992	4.06
636.323	4.16
636.654	3.97
636.985	4.07
637.316	3.85
637.647	4.39
637.977	3.42
638.308	4.32
638.639	3.97
638.969	4.41
639.3	4.21
639.63	4.57
639.961	4.06
640.291	4.38
640.622	4.35
640.952	4.47
641.282	3.96
641.612	4.32
641.943	4.59
642.273	4.08
642.603	4.26
642.933	4.14
643.263	3.56
643.592	3.98
643.922	4.2
644.252	3.98
644.582	4.71
644.911	4.42
645.241	4.31
645.571	3.96
645.9	4.38
646.23	4.61
646.559	4.01
646.888	4.12
647.218	4.17
647.547	4.25
647.876	4.35
648.205	3.73
648.534	4.44
648.863	4.45
649.192	3.72
649.521	4.36
649.85	4.42
650.179	4.04
650.508	3.86
650.837	4.08
651.165	4.28
651.494	4.08
651.822	4.04
652.151	3.97
652.479	4.18
652.808	4.38
653.136	4.45
653.465	4.06
653.793	3.98
654.121	4.54
654.449	4.02
654.777	4.38
655.105	4.47
655.433	4.18
655.761	4.74
656.089	4.27
656.417	4.01
656.745	4.12
657.073	4.3
657.4	4.29
657.728	4.45
658.056	4.06
658.383	4.18
658.711	4
659.038	3.91
659.365	4.31
659.693	4.2
660.02	4.28
660.347	4.42
660.674	4.06
661.001	4.09
661.329	3.98
661.656	4.46
661.982	4.09
662.309	4.4
662.636	4.01
662.963	4.47
663.29	4.47
663.616	4.28
663.943	4.69
664.27	4.04
664.596	4.19
664.923	3.85
665.249	4.33
665.576	3.59
665.902	4.76
666.228	4.13
666.554	3.96
666.881	4.67
667.207	4.15
667.533	3.8
667.859	4.58
668.185	4.57
668.511	4.58
668.837	3.9
669.162	4.38
669.488	4.38
669.814	4.19
670.139	4.26
670.465	4.27
670.791	4.44
671.116	3.91
671.442	4.96
671.767	3.69
672.092	5.14
672.418	4.59
672.743	4.37
673.068	4.53
673.393	4.33
673.718	4.67
674.043	5.05
674.368	4.33
674.693	3.99
675.018	3.77
675.343	4.38
675.667	4.52
675.992	4.31
676.317	4.74
676.641	4.36
676.966	4.78
677.29	3.8
677.615	4.44
677.939	4.85
678.264	4.25
678.588	4.68
678.912	4.46
679.236	4.73
679.56	4.54
679.885	4.46
680.209	5.36
680.532	4.26
680.856	4.63
681.18	4.46
681.504	4.73
681.828	4.54
682.152	4.09
682.475	5.02
682.799	5.31
683.122	4.38
683.446	4.61
683.769	4.39
684.093	5.2
684.416	4.68
684.739	4.31
685.062	5.24
685.386	4.47
685.709	4.7
686.032	4.24
686.355	4.19
686.678	4.9
687.001	4.81
687.324	4.48
687.646	4.61
687.969	5.08
688.292	4.35
688.614	4.61
688.937	4.55
689.26	3.63
689.582	4.37
689.904	4.77
690.227	4.72
690.549	4.71
690.871	4.56
691.194	4.12
691.516	4.9
691.838	4.99
692.16	4.2
692.482	4.78
692.804	4.02
