Data from 0221_crown_Reflection__3__276.txt Node

Date: Fri Sep 22 22:56:10 CDT 2023
User: ToomeyLab
Spectrometer: FLMS14357
Trigger mode: 0
Integration Time (sec): 1.000000E-2
Scans to average: 100
Electric dark correction enabled: true
Nonlinearity correction enabled: false
Boxcar width: 0
XAxis mode: Wavelengths
Number of Pixels in Spectrum: 2048
>>>>>Begin Spectral Data<<<<<
189.047	11.19
189.435	11.19
189.823	11.19
190.211	-468.52
190.599	146.89
190.987	274.46
191.375	-107.02
191.763	-29.47
192.151	117.38
192.538	-523.12
192.926	86.51
193.314	704.62
193.702	5021.78
194.089	91.78
194.477	516.02
194.864	112.99
195.252	35.2
195.639	-22.14
196.027	188.81
196.414	-93.29
196.801	54.85
197.189	-158.15
197.576	118.34
197.963	-100.2
198.351	40.14
198.738	9.18
199.125	1.34
199.512	49.32
199.899	26.05
200.286	13.17
200.673	30.82
201.06	-11.18
201.447	54.8
201.833	17.46
202.22	61.5
202.607	30.09
202.994	46.97
203.38	10.14
203.767	22.26
204.154	61.45
204.54	16.31
204.927	0
205.313	43.45
205.699	49.77
206.086	21.47
206.472	42.33
206.858	24
207.245	30.71
207.631	33.54
208.017	11.51
208.403	5.51
208.789	52.92
209.175	37.82
209.561	71.98
209.947	28.5
210.333	12.11
210.719	-9.84
211.105	28.2
211.491	21.31
211.876	35.14
212.262	44.58
212.648	17.41
213.034	26.05
213.419	-20.97
213.805	56.96
214.19	-15.68
214.576	21.84
214.961	2.47
215.346	-11.3
215.732	28.39
216.117	29.43
216.502	25.15
216.888	16.57
217.273	1.48
217.658	-7.6
218.043	14.3
218.428	17.89
218.813	-8.72
219.198	-11.95
219.583	19
219.968	-5.1
220.353	37.37
220.738	-3.78
221.122	22.17
221.507	-2.62
221.892	-4.39
222.276	8.42
222.661	-19.56
223.046	20.64
223.43	24.59
223.815	5.24
224.199	-2.58
224.583	11.34
224.968	17.53
225.352	12.78
225.736	11.95
226.121	2.59
226.505	11.52
226.889	13.64
227.273	12.72
227.657	2.39
228.041	-1.09
228.425	11.2
228.809	9.5
229.193	3.9
229.577	10.1
229.961	5.58
230.344	9.49
230.728	4.81
231.112	7
231.495	7.02
231.879	7.2
232.263	6.35
232.646	6.53
233.03	7.43
233.413	6.55
233.797	7.15
234.18	7.31
234.563	11.85
234.946	6.05
235.33	2.89
235.713	3.95
236.096	6.45
236.479	5.21
236.862	7.98
237.245	7.23
237.628	6.69
238.011	7.29
238.394	7.44
238.777	7.44
239.16	7.24
239.543	7.62
239.925	7.34
240.308	5.9
240.691	6.1
241.073	6.66
241.456	5.52
241.838	6.9
242.221	5.56
242.603	6.52
242.986	6.71
243.368	6.32
243.75	6.96
244.133	7.08
244.515	6.64
244.897	6.23
245.279	6.21
245.661	6.17
246.043	5.96
246.425	6.22
246.807	6.47
247.189	5.77
247.571	7.42
247.953	6.3
248.335	6.36
248.717	6.32
249.098	6.22
249.48	6.05
249.862	6.11
250.243	5.91
250.625	6.33
251.006	5.84
251.388	6.23
251.769	6.42
252.151	6.58
252.532	6.58
252.913	6.59
253.295	5.95
253.676	6.78
254.057	6.51
254.438	6.85
254.819	5.75
255.2	5.82
255.581	5.11
255.962	7.14
256.343	5.2
256.724	4.45
257.105	6.06
257.486	6.3
257.867	6.47
258.247	5.38
258.628	6.29
259.009	5.81
259.389	6.06
259.77	5.44
260.15	6.28
260.531	5.29
260.911	5.79
261.292	5.82
261.672	5.15
262.052	5.71
262.432	5.66
262.813	5.83
263.193	5.23
263.573	6.24
263.953	5.58
264.333	5.52
264.713	5.17
265.093	5.46
265.473	5.75
265.853	5.17
266.233	5.84
266.612	6.16
266.992	5.85
267.372	6.36
267.752	5.62
268.131	5.58
268.511	5.34
268.89	5.36
269.27	5.32
269.649	5.63
270.029	5.39
270.408	5.27
270.787	5.06
271.167	5.57
271.546	4.89
271.925	5.57
272.304	5.72
272.683	5.8
273.062	5.42
273.441	5.26
273.82	5.56
274.199	5.33
274.578	5.81
274.957	5.26
275.336	5.3
275.715	5.17
276.093	5.33
276.472	5.85
276.851	5.88
277.229	4.39
277.608	5.34
277.986	4.86
278.365	5.28
278.743	4.95
279.122	5.25
279.5	4.56
279.878	5.5
280.257	5.6
280.635	5.27
281.013	5.4
281.391	4.95
281.769	4.64
282.147	5.21
282.525	5.59
282.903	5.87
283.281	5.67
283.659	5.73
284.037	4.69
284.415	5.24
284.792	5.29
285.17	5.11
285.548	5.73
285.925	5.12
286.303	4.89
286.68	4.91
287.058	5.03
287.435	5.04
287.813	4.67
288.19	4.72
288.567	4.91
288.945	4.8
289.322	4.94
289.699	4.98
290.076	5.34
290.453	4.6
290.83	4.75
291.207	4.54
291.584	4.71
291.961	4.55
292.338	4.8
292.715	5.15
293.092	5.21
293.469	4.85
293.845	4.94
294.222	4.95
294.599	4.99
294.975	5.29
295.352	5.09
295.728	4.89
296.105	4.73
296.481	5.07
296.858	4.58
297.234	4.73
297.61	4.5
297.986	4.89
298.363	4.53
298.739	4.49
299.115	4.89
299.491	4.65
299.867	4.67
300.243	4.74
300.619	4.45
300.995	4.55
301.371	5.05
301.746	5.26
302.122	5.14
302.498	4.6
302.874	4.51
303.249	4.6
303.625	4.7
304	4.82
304.376	5.34
304.751	4.54
305.127	4.46
305.502	4.77
305.878	4.85
306.253	4.66
306.628	4.89
307.003	4.58
307.378	4.59
307.754	4.44
308.129	4.21
308.504	4.62
308.879	4.93
309.254	4.79
309.629	5.25
310.003	5.69
310.378	5.24
310.753	4.39
311.128	4.48
311.502	5.02
311.877	4.24
312.252	4.7
312.626	4.51
313.001	5.08
313.375	4.64
313.75	5.2
314.124	5.12
314.498	4.52
314.873	4.61
315.247	4.7
315.621	4.98
315.995	4.85
316.369	4.33
316.743	5.07
317.117	5.18
317.491	5.16
317.865	4.76
318.239	4.42
318.613	4.97
318.987	4.19
319.361	4.14
319.734	4.79
320.108	5.03
320.482	4.34
320.855	4.05
321.229	5.51
321.602	4.69
321.976	4.28
322.349	5.06
322.723	4.76
323.096	5.02
323.469	5.08
323.843	4.2
324.216	4.84
324.589	4.93
324.962	4.24
325.335	4.22
325.708	4.63
326.081	4.73
326.454	4.59
326.827	4.68
327.2	4.41
327.573	5.2
327.945	4.52
328.318	4.97
328.691	4.89
329.063	4.49
329.436	5.06
329.809	4.89
330.181	4.34
330.553	4.7
330.926	4.5
331.298	4.76
331.671	5.09
332.043	4.3
332.415	4.48
332.787	5.14
333.159	4.18
333.532	4
333.904	5.08
334.276	4.52
334.648	3.93
335.02	4.59
335.391	4.71
335.763	5.06
336.135	4.65
336.507	4.25
336.879	4.34
337.25	4.47
337.622	4.99
337.993	4.9
338.365	4.83
338.736	4.73
339.108	4.38
339.479	4.31
339.851	4.79
340.222	4.31
340.593	4.16
340.964	4.53
341.336	4.27
341.707	4.77
342.078	4.97
342.449	4.68
342.82	4.28
343.191	4.05
343.562	4.6
343.933	4.74
344.303	4.62
344.674	4.73
345.045	4.72
345.416	4.92
345.786	4.19
346.157	4.76
346.527	4.6
346.898	4.34
347.268	4.47
347.639	5.17
348.009	5.1
348.38	4.92
348.75	4.9
349.12	4.91
349.49	5.09
349.861	4.49
350.231	4.54
350.601	4.9
350.971	4.82
351.341	4.18
351.711	4.88
352.081	4.58
352.45	4.88
352.82	5
353.19	5.04
353.56	4.69
353.929	4.93
354.299	4.35
354.669	4.51
355.038	4.59
355.408	4.74
355.777	5.04
356.147	4.41
356.516	5.02
356.885	4.53
357.254	5.11
357.624	4.48
357.993	4.78
358.362	4.86
358.731	4.68
359.1	5
359.469	4.85
359.838	4.81
360.207	4.73
360.576	4.68
360.945	4.64
361.314	5.05
361.682	4.92
362.051	4.99
362.42	4.7
362.788	4.68
363.157	4.88
363.525	4.94
363.894	4.66
364.262	4.67
364.631	4.84
364.999	4.45
365.367	5.02
365.735	4.67
366.104	4.8
366.472	5.05
366.84	4.56
367.208	5.15
367.576	5.02
367.944	4.66
368.312	5
368.68	4.89
369.048	5.34
369.416	5.11
369.783	4.84
370.151	4.93
370.519	5.13
370.886	5.04
371.254	5.03
371.621	4.35
371.989	4.56
372.356	5.03
372.724	5.3
373.091	4.95
373.458	5.13
373.826	5.09
374.193	5.08
374.56	4.9
374.927	5.17
375.294	4.74
375.661	4.91
376.028	4.84
376.395	5.36
376.762	5.17
377.129	4.86
377.496	5.31
377.863	4.9
378.229	5.18
378.596	5.01
378.963	5.25
379.329	5.08
379.696	5.12
380.062	4.7
380.429	5.08
380.795	4.95
381.161	5.03
381.528	4.89
381.894	4.39
382.26	5.26
382.626	4.94
382.993	5.12
383.359	4.83
383.725	4.75
384.091	5.13
384.457	4.73
384.823	4.78
385.188	4.93
385.554	5.06
385.92	5.09
386.286	5.1
386.651	5
387.017	5.23
387.383	5.09
387.748	5
388.114	5.22
388.479	5.32
388.845	5.04
389.21	4.69
389.575	5.19
389.94	4.87
390.306	5.22
390.671	5.28
391.036	4.9
391.401	5.22
391.766	5.05
392.131	5.17
392.496	5.23
392.861	5.1
393.226	5.38
393.591	5.32
393.956	5.04
394.32	5.25
394.685	5.07
395.05	5.15
395.414	5.12
395.779	5.06
396.143	5.34
396.508	4.92
396.872	5.02
397.236	5.19
397.601	5.06
397.965	5.24
398.329	5.05
398.694	5.06
399.058	5.1
399.422	5.23
399.786	5.33
400.15	5.39
400.514	5.21
400.878	5.12
401.242	5.34
401.605	5.14
401.969	5
402.333	5.23
402.697	5.31
403.06	5.21
403.424	5.15
403.787	5.23
404.151	5.24
404.514	5.48
404.878	5.41
405.241	5.46
405.604	5.21
405.968	5.41
406.331	5.14
406.694	5.32
407.057	5.12
407.42	5.21
407.783	5.33
408.146	5.2
408.509	5.18
408.872	5.2
409.235	5.24
409.598	5.09
409.961	5.41
410.323	5.43
410.686	5.32
411.049	5.33
411.411	5.54
411.774	5.44
412.136	5.19
412.499	5.31
412.861	5.47
413.223	5.46
413.586	5.27
413.948	5.22
414.31	5.26
414.672	5.16
415.035	5.33
415.397	5.54
415.759	5.66
416.121	5.3
416.483	5.2
416.845	5.22
417.206	5.01
417.568	5.3
417.93	5.2
418.292	5.37
418.653	5.15
419.015	5.38
419.377	5.23
419.738	5.26
420.1	5.24
420.461	5.31
420.822	5.21
421.184	5.25
421.545	5.18
421.906	5.22
422.267	5.23
422.629	5.36
422.99	5.12
423.351	5.21
423.712	5.14
424.073	5.14
424.434	5.22
424.795	5.19
425.155	5.32
425.516	5.28
425.877	5.17
426.238	5.1
426.598	5.1
426.959	5.15
427.32	5.2
427.68	5.18
428.041	5.2
428.401	5.37
428.761	5.28
429.122	5.31
429.482	5.37
429.842	5.16
430.202	5.26
430.563	5.3
430.923	5.32
431.283	5.33
431.643	5.33
432.003	5.43
432.363	5.61
432.722	5.51
433.082	5.47
433.442	5.24
433.802	5.36
434.161	5.22
434.521	5.23
434.881	5.43
435.24	5.34
435.6	5.23
435.959	5.34
436.319	5.22
436.678	5.36
437.037	5.32
437.396	5.25
437.756	5.4
438.115	5.31
438.474	5.23
438.833	5.43
439.192	5.28
439.551	5.38
439.91	5.29
440.269	5.54
440.628	5.12
440.987	5.32
441.345	5.36
441.704	5.53
442.063	5.27
442.421	5.28
442.78	5.26
443.138	5.32
443.497	5.32
443.855	5.39
444.214	5.27
444.572	5.46
444.93	5.39
445.288	5.37
445.647	5.48
446.005	5.3
446.363	5.27
446.721	5.54
447.079	5.25
447.437	5.33
447.795	5.4
448.153	5.32
448.51	5.37
448.868	5.21
449.226	5.26
449.584	5.19
449.941	5.29
450.299	5.39
450.656	5.41
451.014	5.48
451.371	5.34
451.729	5.46
452.086	5.4
452.443	5.43
452.801	5.46
453.158	5.49
453.515	5.57
453.872	5.41
454.229	5.37
454.586	5.43
454.943	5.52
455.3	5.37
455.657	5.33
456.014	5.4
456.371	5.34
456.727	5.57
457.084	5.46
457.441	5.38
457.797	5.42
458.154	5.43
458.51	5.41
458.867	5.36
459.223	5.41
459.58	5.59
459.936	5.69
460.292	5.63
460.648	5.51
461.005	5.4
461.361	5.44
461.717	5.22
462.073	5.39
462.429	5.2
462.785	5.23
463.141	5.4
463.496	5.44
463.852	5.5
464.208	5.37
464.564	5.61
464.919	5.4
465.275	5.65
465.631	5.53
465.986	5.39
466.342	5.47
466.697	5.51
467.052	5.24
467.408	5.55
467.763	5.5
468.118	5.61
468.473	5.43
468.829	5.41
469.184	5.36
469.539	5.46
469.894	5.39
470.249	5.48
470.603	5.52
470.958	5.47
471.313	5.52
471.668	5.53
472.023	5.53
472.377	5.36
472.732	5.22
473.086	5.58
473.441	5.27
473.795	5.74
474.15	5.22
474.504	5.4
474.859	5.64
475.213	5.23
475.567	5.34
475.921	5.36
476.275	5.42
476.63	5.33
476.984	5.35
477.338	5.64
477.692	5.48
478.045	5.53
478.399	5.59
478.753	5.35
479.107	5.5
479.461	5.44
479.814	5.5
480.168	5.6
480.521	5.5
480.875	5.57
481.228	5.49
481.582	5.32
481.935	5.46
482.289	5.35
482.642	5.5
482.995	5.44
483.348	5.47
483.701	5.41
484.055	5.38
484.408	5.33
484.761	5.4
485.114	5.23
485.466	5.19
485.819	5.08
486.172	5.03
486.525	5.06
486.878	5.11
487.23	5.19
487.583	5.24
487.936	5.25
488.288	5.32
488.641	5.27
488.993	5.19
489.345	5.2
489.698	5.13
490.05	5.18
490.402	5.14
490.754	5.11
491.107	5.19
491.459	5.23
491.811	5.32
492.163	5.34
492.515	5.32
492.866	5.27
493.218	5.24
493.57	5.33
493.922	5.15
494.274	5.19
494.625	5.21
494.977	5.36
495.328	5.38
495.68	5.46
496.031	5.32
496.383	5.46
496.734	5.44
497.086	5.39
497.437	5.4
497.788	5.46
498.139	5.49
498.49	5.49
498.842	5.39
499.193	5.34
499.544	5.42
499.894	5.36
500.245	5.43
500.596	5.45
500.947	5.48
501.298	5.42
501.648	5.47
501.999	5.41
502.35	5.46
502.7	5.59
503.051	5.51
503.401	5.36
503.752	5.44
504.102	5.4
504.452	5.37
504.803	5.53
505.153	5.46
505.503	5.46
505.853	5.52
506.203	5.46
506.553	5.54
506.903	5.42
507.253	5.37
507.603	5.48
507.953	5.52
508.303	5.58
508.652	5.39
509.002	5.51
509.352	5.41
509.701	5.43
510.051	5.43
510.4	5.55
510.75	5.4
511.099	5.3
511.449	5.38
511.798	5.4
512.147	5.42
512.496	5.39
512.846	5.34
513.195	5.38
513.544	5.29
513.893	5.43
514.242	5.34
514.591	5.5
514.939	5.42
515.288	5.36
515.637	5.49
515.986	5.31
516.334	5.57
516.683	5.49
517.032	5.51
517.38	5.48
517.729	5.46
518.077	5.49
518.426	5.36
518.774	5.41
519.122	5.59
519.47	5.38
519.819	5.5
520.167	5.41
520.515	5.39
520.863	5.29
521.211	5.33
521.559	5.35
521.907	5.34
522.255	5.45
522.602	5.41
522.95	5.38
523.298	5.46
523.645	5.52
523.993	5.41
524.341	5.35
524.688	5.48
525.036	5.39
525.383	5.43
525.73	5.42
526.078	5.32
526.425	5.45
526.772	5.49
527.119	5.38
527.466	5.3
527.814	5.26
528.161	5.26
528.508	5.27
528.854	5.34
529.201	5.37
529.548	5.26
529.895	5.2
530.242	5.23
530.588	5.11
530.935	5.05
531.282	5.12
531.628	5.21
531.975	5.13
532.321	5.21
532.667	5.26
533.014	5.32
533.36	5.39
533.706	5.32
534.052	5.43
534.399	5.44
534.745	5.37
535.091	5.22
535.437	5.18
535.783	5.19
536.129	5.21
536.474	5.31
536.82	5.26
537.166	5.33
537.512	5.37
537.857	5.35
538.203	5.34
538.549	5.28
538.894	5.22
539.239	5.33
539.585	5.26
539.93	5.41
540.276	5.37
540.621	5.36
540.966	5.36
541.311	5.46
541.656	5.28
542.001	5.36
542.346	5.31
542.691	5.4
543.036	5.25
543.381	5.18
543.726	5.17
544.071	5.19
544.415	5.19
544.76	5.23
545.105	5.2
545.449	5.19
545.794	5.3
546.138	5.39
546.483	5.39
546.827	5.26
547.171	5.34
547.516	5.39
547.86	5.41
548.204	5.3
548.548	5.39
548.892	5.32
549.236	5.34
549.58	5.32
549.924	5.33
550.268	5.37
550.612	5.32
550.956	5.4
551.3	5.48
551.643	5.48
551.987	5.46
552.33	5.61
552.674	5.42
553.017	5.28
553.361	5.28
553.704	5.48
554.048	5.52
554.391	5.36
554.734	5.48
555.077	5.42
555.42	5.33
555.764	5.39
556.107	5.46
556.45	5.38
556.793	5.38
557.135	5.46
557.478	5.2
557.821	5.43
558.164	5.57
558.507	5.57
558.849	5.27
559.192	5.48
559.534	5.43
559.877	5.43
560.219	5.36
560.562	5.37
560.904	5.53
561.246	5.62
561.589	5.51
561.931	5.5
562.273	5.36
562.615	5.31
562.957	5.29
563.299	5.44
563.641	5.29
563.983	5.67
564.325	5.49
564.667	5.48
565.008	5.34
565.35	5.46
565.692	5.46
566.033	5.55
566.375	5.53
566.716	5.4
567.058	5.35
567.399	5.52
567.741	5.53
568.082	5.43
568.423	5.47
568.764	5.43
569.105	5.28
569.447	5.42
569.788	5.37
570.129	5.47
570.47	5.63
570.811	5.41
571.151	5.46
571.492	5.4
571.833	5.31
572.174	5.29
572.514	5.34
572.855	5.53
573.195	5.24
573.536	5.26
573.876	5.35
574.217	5.38
574.557	5.14
574.898	5.37
575.238	5.27
575.578	5.4
575.918	5.34
576.258	5.32
576.598	5.31
576.938	5.31
577.278	5.59
577.618	5.25
577.958	5.43
578.298	5.61
578.638	5.38
578.977	5.36
579.317	5.41
579.657	5.36
579.996	5.32
580.336	5.55
580.675	5.37
581.014	5.37
581.354	5.32
581.693	5.47
582.032	5.24
582.372	5.43
582.711	5.42
583.05	5.37
583.389	5.44
583.728	5.32
584.067	5.33
584.406	5.38
584.745	5.21
585.083	5.46
585.422	5.56
585.761	5.27
586.1	5.5
586.438	5.36
586.777	5.35
587.115	5.49
587.454	5.2
587.792	5.48
588.13	5.34
588.469	5.35
588.807	5.72
589.145	5.51
589.483	5.53
589.821	5.28
590.159	5.34
590.497	5.43
590.835	5.46
591.173	5.34
591.511	5.52
591.849	5.31
592.187	5.39
592.524	5.51
592.862	5.54
593.2	5.14
593.537	5.21
593.875	5.15
594.212	5.33
594.55	5.51
594.887	5.34
595.224	5.45
595.561	5.41
595.899	5.62
596.236	5.58
596.573	5.67
596.91	5.51
597.247	5.36
597.584	5.61
597.921	5.56
598.258	5.52
598.594	5.37
598.931	5.42
599.268	5.29
599.604	5.59
599.941	5.34
600.277	5.27
600.614	5.48
600.95	5.55
601.287	5.27
601.623	5.56
601.959	5.47
602.296	5.52
602.632	5.11
602.968	5.39
603.304	5.54
603.64	5.17
603.976	5.3
604.312	5.53
604.648	5.38
604.984	5.48
605.319	5.18
605.655	5.24
605.991	5.31
606.326	5.39
606.662	5.31
606.998	5.24
607.333	5.34
607.668	5.36
608.004	5.5
608.339	5.23
608.674	5.35
609.01	5.4
609.345	5.32
609.68	5.59
610.015	5.59
610.35	5.31
610.685	5.57
611.02	5.53
611.355	5.55
611.689	5.27
612.024	5.4
612.359	5.22
612.694	5.22
613.028	5.18
613.363	5.26
613.697	5.57
614.032	5.29
614.366	5.08
614.7	5.19
615.035	5.22
615.369	5.33
615.703	5.28
616.037	5.25
616.371	5.52
616.705	5.48
617.039	5.54
617.373	5.32
617.707	5.52
618.041	5.39
618.375	5.41
618.709	5.16
619.042	5.41
619.376	5.4
619.71	5.6
620.043	5.25
620.377	5.2
620.71	5.08
621.043	5.54
621.377	4.97
621.71	5.46
622.043	5.33
622.376	5.41
622.709	5.2
623.043	5.29
623.376	5.75
623.709	5.53
624.041	5.49
624.374	5.29
624.707	5.27
625.04	5.59
625.373	5.15
625.705	5.56
626.038	5.34
626.37	5.44
626.703	5.18
627.035	5.13
627.368	5.14
627.7	5.5
628.032	5.6
628.365	5.36
628.697	5.11
629.029	5.32
629.361	5.36
629.693	5.44
630.025	5.02
630.357	5.19
630.689	5.37
631.021	5.24
631.353	5.33
631.684	5.45
632.016	5.47
632.348	5.53
632.679	5.09
633.011	5.49
633.342	5.47
633.674	5.57
634.005	5.4
634.336	5.47
634.668	5.49
634.999	5.81
635.33	5.73
635.661	5.62
635.992	5.34
636.323	5.18
636.654	5.32
636.985	5.26
637.316	5.28
637.647	5.65
637.977	5.06
638.308	5.69
638.639	5.25
638.969	5.41
639.3	5.42
639.63	5.67
639.961	5.19
640.291	5.47
640.622	5.64
640.952	5.09
641.282	5.39
641.612	5.3
641.943	5.28
642.273	5.33
642.603	5.23
642.933	5.4
643.263	4.83
643.592	5.35
643.922	5.79
644.252	5.34
644.582	5.76
644.911	5.38
645.241	5.85
645.571	5.29
645.9	5.59
646.23	5.65
646.559	5.73
646.888	5.65
647.218	5.37
647.547	5.34
647.876	5.29
648.205	5.41
648.534	5.59
648.863	5.21
649.192	5.17
649.521	5.48
649.85	5.57
650.179	5.49
650.508	5.26
650.837	5.65
651.165	5.61
651.494	5.69
651.822	5.12
652.151	5.32
652.479	5.7
652.808	5.18
653.136	6.07
653.465	5.37
653.793	5.1
654.121	5.44
654.449	4.93
654.777	5.48
655.105	5.6
655.433	5.1
655.761	5.76
656.089	5.39
656.417	5.06
656.745	5.81
657.073	5.8
657.4	5.87
657.728	5.56
658.056	5.37
658.383	5.61
658.711	5.43
659.038	5.15
659.365	5.26
659.693	4.83
660.02	5.73
660.347	5.9
660.674	5.03
661.001	5.1
661.329	5.7
661.656	5.75
661.982	5.17
662.309	5.78
662.636	5.66
662.963	5.31
663.29	5.42
663.616	5.45
663.943	5.95
664.27	5.63
664.596	5.33
664.923	5.34
665.249	5.62
665.576	4.89
665.902	5.6
666.228	5.22
666.554	5.28
666.881	5.28
667.207	5.76
667.533	5
667.859	5.26
668.185	5.72
668.511	5.41
668.837	5.47
669.162	5.47
669.488	5.53
669.814	5.45
670.139	5.38
670.465	6
670.791	5.69
671.116	5.24
671.442	6.02
671.767	5.48
672.092	6.4
672.418	5.98
672.743	5.4
673.068	5.53
673.393	5.36
673.718	5.92
674.043	5.61
674.368	5.76
674.693	5.71
675.018	5.79
675.343	5.5
675.667	5.66
675.992	5.25
676.317	5.82
676.641	5.49
676.966	5.84
677.29	5.57
677.615	5.14
677.939	5.98
678.264	5.37
678.588	5.81
678.912	5.56
679.236	5.17
679.56	5.66
679.885	5.07
680.209	6.07
680.532	5.48
680.856	5.63
681.18	6.26
681.504	6.06
681.828	5.93
682.152	5.91
682.475	6.33
682.799	5.68
683.122	5.41
683.446	5.36
683.769	5.92
684.093	5.91
684.416	5.32
684.739	5.72
685.062	5.98
685.386	5.57
685.709	6.01
686.032	5.44
686.355	5.46
686.678	5.24
687.001	5.87
687.324	6.12
687.646	5.41
687.969	6.78
688.292	5.24
688.614	6.08
688.937	6.15
689.26	5.57
689.582	6.26
689.904	5.67
690.227	6.25
690.549	5.98
690.871	5.66
691.194	5.8
691.516	5.32
691.838	5.58
692.16	5.17
692.482	5.86
692.804	5.04
