Data from 0221_crown_Reflection__2__275.txt Node

Date: Fri Sep 22 22:56:01 CDT 2023
User: ToomeyLab
Spectrometer: FLMS14357
Trigger mode: 0
Integration Time (sec): 1.000000E-2
Scans to average: 100
Electric dark correction enabled: true
Nonlinearity correction enabled: false
Boxcar width: 0
XAxis mode: Wavelengths
Number of Pixels in Spectrum: 2048
>>>>>Begin Spectral Data<<<<<
189.047	172.73
189.435	172.73
189.823	172.73
190.211	-93.27
190.599	72.2
190.987	170.95
191.375	-154.41
191.763	113
192.151	37.2
192.538	433.79
192.926	63.78
193.314	405.6
193.702	836.63
194.089	140.52
194.477	-194.03
194.864	50.15
195.252	77.61
195.639	-11.48
196.027	224.41
196.414	-393.68
196.801	83.08
197.189	-108.47
197.576	196.96
197.963	-31.39
198.351	45.89
198.738	22.71
199.125	12.07
199.512	51.54
199.899	56.88
200.286	34.98
200.673	25.68
201.06	42.88
201.447	45.24
201.833	-39.6
202.22	28.67
202.607	47.87
202.994	33.46
203.38	3.77
203.767	23.86
204.154	20.5
204.54	18.89
204.927	-6.98
205.313	34.89
205.699	66.19
206.086	47.42
206.472	48.35
206.858	30.26
207.245	-46.57
207.631	59.2
208.017	24.27
208.403	13.7
208.789	5.11
209.175	15.38
209.561	73.76
209.947	25.87
210.333	15.68
210.719	20.54
211.105	52
211.491	19.79
211.876	47.55
212.262	42.86
212.648	59.71
213.034	29.3
213.419	25.94
213.805	10.63
214.19	8.31
214.576	33.99
214.961	34.3
215.346	19.12
215.732	34.08
216.117	9.76
216.502	56.06
216.888	15.07
217.273	23.92
217.658	9.17
218.043	39.42
218.428	29.51
218.813	3.54
219.198	24.33
219.583	40.57
219.968	7.88
220.353	45.26
220.738	4.96
221.122	13.71
221.507	18.5
221.892	16.9
222.276	8.9
222.661	-16.13
223.046	22.59
223.43	18.6
223.815	6.28
224.199	-1.21
224.583	15.78
224.968	12
225.352	3.04
225.736	23.7
226.121	10.41
226.505	12.14
226.889	7.89
227.273	0.95
227.657	17.08
228.041	7.26
228.425	13.3
228.809	5.49
229.193	6.65
229.577	9.22
229.961	9.32
230.344	10.19
230.728	7.91
231.112	9.22
231.495	8.2
231.879	8.5
232.263	8.65
232.646	10.03
233.03	8.37
233.413	9.04
233.797	9.53
234.18	8.97
234.563	9.74
234.946	8.47
235.33	10.29
235.713	7.53
236.096	7.52
236.479	7.98
236.862	10.59
237.245	7.72
237.628	8.86
238.011	9.56
238.394	10.37
238.777	9.63
239.16	8.63
239.543	8.63
239.925	7.98
240.308	7.54
240.691	8.25
241.073	9.54
241.456	8.85
241.838	7.61
242.221	7.81
242.603	8.2
242.986	7.91
243.368	8.15
243.75	8.1
244.133	8.45
244.515	7.34
244.897	7.66
245.279	7.41
245.661	7.32
246.043	7.59
246.425	7.23
246.807	8.14
247.189	5.63
247.571	7.84
247.953	8.53
248.335	7.55
248.717	7.62
249.098	7.39
249.48	7.09
249.862	7.06
250.243	7.25
250.625	7.16
251.006	7.15
251.388	7.32
251.769	7.66
252.151	7.19
252.532	7.64
252.913	7.39
253.295	7.87
253.676	7.67
254.057	7.29
254.438	7.66
254.819	6.62
255.2	7.38
255.581	7.3
255.962	7.7
256.343	6.87
256.724	6.93
257.105	7.04
257.486	7.44
257.867	7.21
258.247	6.87
258.628	8.67
259.009	5.76
259.389	7.07
259.77	7.29
260.15	7.13
260.531	7.07
260.911	6.7
261.292	6.48
261.672	6.39
262.052	6.49
262.432	6.62
262.813	6.64
263.193	6.23
263.573	6.88
263.953	6.84
264.333	6.15
264.713	6.47
265.093	6.38
265.473	5.77
265.853	6.14
266.233	6.52
266.612	6.87
266.992	7.29
267.372	7.27
267.752	6.48
268.131	6.06
268.511	6.33
268.89	7.02
269.27	6.68
269.649	6.14
270.029	6.13
270.408	6.33
270.787	6.44
271.167	6.35
271.546	5.78
271.925	6.52
272.304	6.44
272.683	6.18
273.062	6.98
273.441	6.23
273.82	6.65
274.199	6.15
274.578	6.24
274.957	6.11
275.336	6.02
275.715	6.16
276.093	6.03
276.472	5.99
276.851	6.44
277.229	6
277.608	6.21
277.986	5.64
278.365	6.07
278.743	6.18
279.122	5.94
279.5	6.4
279.878	5.72
280.257	6.22
280.635	6.22
281.013	6.5
281.391	5.93
281.769	5.68
282.147	6.31
282.525	6.33
282.903	6.98
283.281	5.57
283.659	5.48
284.037	5.09
284.415	6.21
284.792	5.62
285.17	5.79
285.548	6.31
285.925	5.99
286.303	6.03
286.68	5.48
287.058	5.8
287.435	6.06
287.813	5.43
288.19	5.37
288.567	5.66
288.945	5.42
289.322	5.58
289.699	5.93
290.076	5.76
290.453	5.59
290.83	5.05
291.207	5.5
291.584	5.4
291.961	5.41
292.338	5.88
292.715	5.62
293.092	5.34
293.469	5.62
293.845	5.31
294.222	5.53
294.599	6.1
294.975	5.89
295.352	5.59
295.728	5.57
296.105	5.79
296.481	5.32
296.858	5.8
297.234	6.1
297.61	5.43
297.986	5.32
298.363	5.21
298.739	5.19
299.115	5.55
299.491	5.7
299.867	5.33
300.243	5.2
300.619	5.6
300.995	5.24
301.371	5.45
301.746	5.93
302.122	5.65
302.498	5.34
302.874	4.96
303.249	5.3
303.625	4.83
304	4.87
304.376	5.5
304.751	5.76
305.127	4.96
305.502	5.53
305.878	5.41
306.253	5.38
306.628	5.3
307.003	5.19
307.378	5.11
307.754	5.4
308.129	4.65
308.504	5.06
308.879	5.53
309.254	5.44
309.629	5.24
310.003	5.4
310.378	5.56
310.753	5.56
311.128	5.27
311.502	5.17
311.877	4.86
312.252	5.33
312.626	5.1
313.001	5.22
313.375	5.48
313.75	5.52
314.124	5.56
314.498	5.09
314.873	5.19
315.247	5.67
315.621	5.02
315.995	5.38
316.369	5.52
316.743	4.88
317.117	5.5
317.491	5.78
317.865	5.11
318.239	5.32
318.613	4.89
318.987	4.89
319.361	4.57
319.734	5.15
320.108	4.65
320.482	5.26
320.855	4.53
321.229	5.18
321.602	5.7
321.976	5.25
322.349	4.97
322.723	5.21
323.096	5.29
323.469	5.15
323.843	4.43
324.216	5.31
324.589	5.37
324.962	5.02
325.335	4.45
325.708	5.39
326.081	5.39
326.454	4.65
326.827	4.94
327.2	5.2
327.573	5.4
327.945	4.74
328.318	5.13
328.691	5.52
329.063	4.91
329.436	5.33
329.809	4.94
330.181	5
330.553	5.23
330.926	5.03
331.298	5.48
331.671	5.06
332.043	4.78
332.415	5.04
332.787	5.37
333.159	5.13
333.532	5.01
333.904	5.12
334.276	4.65
334.648	4.56
335.02	4.72
335.391	5.14
335.763	5.16
336.135	5.04
336.507	5.14
336.879	4.58
337.25	5.3
337.622	5.53
337.993	5.25
338.365	5.75
338.736	5.65
339.108	5.1
339.479	5.3
339.851	4.93
340.222	5.44
340.593	5.01
340.964	5.16
341.336	5.1
341.707	5.01
342.078	5.02
342.449	5.34
342.82	5.15
343.191	5.13
343.562	4.87
343.933	4.89
344.303	5.31
344.674	5.21
345.045	4.85
345.416	5.04
345.786	4.8
346.157	5.42
346.527	5.15
346.898	4.87
347.268	4.81
347.639	5.59
348.009	4.96
348.38	5.32
348.75	5.57
349.12	5.31
349.49	5.67
349.861	5.16
350.231	5.26
350.601	5.29
350.971	5.62
351.341	5.03
351.711	5.22
352.081	4.9
352.45	5.29
352.82	5.3
353.19	5.1
353.56	4.81
353.929	5.42
354.299	5.51
354.669	5.18
355.038	5.11
355.408	5.07
355.777	5.39
356.147	5.19
356.516	5.22
356.885	5.03
357.254	5.54
357.624	5.05
357.993	5.42
358.362	5.51
358.731	5.16
359.1	5.26
359.469	5.33
359.838	4.94
360.207	5.24
360.576	5.4
360.945	5.43
361.314	5.5
361.682	5.81
362.051	5.54
362.42	5.34
362.788	5.3
363.157	5.53
363.525	5.61
363.894	5.19
364.262	5.35
364.631	5.29
364.999	5.2
365.367	5.65
365.735	5.1
366.104	5.28
366.472	5.61
366.84	5.35
367.208	5.84
367.576	5.77
367.944	5.41
368.312	5.59
368.68	5.61
369.048	5.44
369.416	5.31
369.783	5.39
370.151	5.37
370.519	5.67
370.886	5.42
371.254	5.75
371.621	5.3
371.989	5.27
372.356	5.31
372.724	5.62
373.091	5.48
373.458	5.46
373.826	5.41
374.193	5.75
374.56	5.74
374.927	5.68
375.294	5.57
375.661	5.57
376.028	5.68
376.395	5.84
376.762	5.32
377.129	5.56
377.496	6.22
377.863	5.65
378.229	5.73
378.596	5.69
378.963	5.79
379.329	5.44
379.696	5.7
380.062	5.5
380.429	5.46
380.795	5.56
381.161	5.61
381.528	5.99
381.894	5.27
382.26	5.75
382.626	5.94
382.993	5.74
383.359	5.38
383.725	5.66
384.091	5.99
384.457	5.55
384.823	5.57
385.188	6.15
385.554	5.47
385.92	6.02
386.286	5.77
386.651	5.83
387.017	5.83
387.383	5.88
387.748	5.66
388.114	5.61
388.479	5.79
388.845	5.52
389.21	5.57
389.575	6.05
389.94	5.63
390.306	5.59
390.671	5.87
391.036	5.59
391.401	5.84
391.766	5.56
392.131	5.68
392.496	6
392.861	5.69
393.226	5.86
393.591	5.9
393.956	5.75
394.32	5.82
394.685	5.74
395.05	5.7
395.414	5.88
395.779	6.11
396.143	6.1
396.508	6.01
396.872	5.55
397.236	5.73
397.601	5.99
397.965	5.96
398.329	6.04
398.694	5.89
399.058	5.83
399.422	5.89
399.786	5.95
400.15	5.89
400.514	5.96
400.878	5.88
401.242	5.99
401.605	6.06
401.969	5.85
402.333	5.98
402.697	5.72
403.06	5.98
403.424	5.68
403.787	6.18
404.151	6.21
404.514	5.98
404.878	6.09
405.241	6.23
405.604	6
405.968	6.16
406.331	6.09
406.694	5.98
407.057	5.78
407.42	6.06
407.783	5.99
408.146	5.96
408.509	5.8
408.872	5.9
409.235	5.9
409.598	6.02
409.961	6.31
410.323	6.09
410.686	6.22
411.049	6.26
411.411	6.32
411.774	5.96
412.136	5.99
412.499	5.95
412.861	6.03
413.223	6.17
413.586	6.08
413.948	6.13
414.31	5.94
414.672	5.9
415.035	5.94
415.397	6.13
415.759	6.36
416.121	5.93
416.483	6.16
416.845	6.07
417.206	5.9
417.568	6.05
417.93	6.03
418.292	6.08
418.653	6.01
419.015	5.94
419.377	5.92
419.738	6.09
420.1	5.85
420.461	6
420.822	5.91
421.184	6
421.545	5.87
421.906	5.91
422.267	6.11
422.629	5.98
422.99	5.91
423.351	5.91
423.712	5.89
424.073	5.92
424.434	6.06
424.795	6.01
425.155	6.07
425.516	5.96
425.877	5.85
426.238	5.85
426.598	5.83
426.959	5.93
427.32	5.95
427.68	5.87
428.041	6
428.401	6.06
428.761	6.16
429.122	6.09
429.482	6.16
429.842	6.03
430.202	6.03
430.563	6.11
430.923	6.22
431.283	6.17
431.643	5.96
432.003	6.28
432.363	6.34
432.722	6.25
433.082	6.09
433.442	6
433.802	6.33
434.161	6.04
434.521	6.14
434.881	6.03
435.24	6.14
435.6	6.15
435.959	6.14
436.319	6.17
436.678	6.17
437.037	6.22
437.396	6.17
437.756	6.21
438.115	6.23
438.474	6.31
438.833	6.21
439.192	6
439.551	6.06
439.91	6.34
440.269	6.14
440.628	5.92
440.987	6.08
441.345	6.17
441.704	6.18
442.063	6.03
442.421	6.13
442.78	6.11
443.138	6.02
443.497	6.03
443.855	5.98
444.214	5.91
444.572	6.15
444.93	6.06
445.288	6.14
445.647	6.22
446.005	6.13
446.363	6.1
446.721	6.19
447.079	6.01
447.437	6.2
447.795	6.18
448.153	6
448.51	6.12
448.868	6.01
449.226	6.05
449.584	6.05
449.941	6.02
450.299	6.08
450.656	6.08
451.014	6.24
451.371	6.23
451.729	6.23
452.086	6.1
452.443	6.28
452.801	6.18
453.158	6.07
453.515	6.2
453.872	6.15
454.229	6.35
454.586	6.1
454.943	6.24
455.3	6.2
455.657	6.16
456.014	6.15
456.371	6.25
456.727	6.33
457.084	6.19
457.441	6.11
457.797	6.18
458.154	6.22
458.51	6.13
458.867	6.26
459.223	6.12
459.58	6.33
459.936	6.32
460.292	6.29
460.648	6.37
461.005	6.2
461.361	6.26
461.717	5.92
462.073	6.1
462.429	6.03
462.785	6.11
463.141	6.21
463.496	6.29
463.852	6.22
464.208	6.3
464.564	6.18
464.919	6.15
465.275	6.5
465.631	6.4
465.986	6.25
466.342	6.39
466.697	6.44
467.052	6.16
467.408	6.33
467.763	6.23
468.118	6.4
468.473	6.31
468.829	6.22
469.184	6.41
469.539	6.17
469.894	6.14
470.249	6.33
470.603	6.06
470.958	6.34
471.313	6.52
471.668	6.42
472.023	6.23
472.377	6.22
472.732	6.27
473.086	6.48
473.441	6.12
473.795	6.39
474.15	6.31
474.504	6.3
474.859	6.36
475.213	6.22
475.567	6.17
475.921	6.27
476.275	6.36
476.63	6.17
476.984	6.13
477.338	6.49
477.692	6.36
478.045	6.43
478.399	6.34
478.753	6.23
479.107	6.25
479.461	6.16
479.814	6.33
480.168	6.33
480.521	6.33
480.875	6.32
481.228	6.27
481.582	6.15
481.935	6.25
482.289	6.35
482.642	6.09
482.995	6.11
483.348	6.29
483.701	6.15
484.055	6.12
484.408	6.11
484.761	6.13
485.114	5.99
485.466	5.9
485.819	5.83
486.172	5.81
486.525	5.81
486.878	5.85
487.23	5.92
487.583	6
487.936	6
488.288	6.06
488.641	6
488.993	5.93
489.345	5.99
489.698	5.86
490.05	5.88
490.402	5.89
490.754	5.94
491.107	5.9
491.459	6.01
491.811	6.09
492.163	6.13
492.515	6.09
492.866	6.17
493.218	6.05
493.57	6.01
493.922	5.9
494.274	5.91
494.625	5.99
494.977	6.08
495.328	6.18
495.68	6.26
496.031	6.16
496.383	6.22
496.734	6.32
497.086	6.13
497.437	6.24
497.788	6.25
498.139	6.26
498.49	6.35
498.842	6.18
499.193	6.13
499.544	6.28
499.894	6.12
500.245	6.22
500.596	6.21
500.947	6.18
501.298	6.25
501.648	6.22
501.999	6.24
502.35	6.23
502.7	6.38
503.051	6.26
503.401	6.31
503.752	6.21
504.102	6.22
504.452	6.21
504.803	6.27
505.153	6.26
505.503	6.3
505.853	6.33
506.203	6.23
506.553	6.19
506.903	6.29
507.253	6.07
507.603	6.33
507.953	6.35
508.303	6.4
508.652	6.15
509.002	6.31
509.352	6.27
509.701	6.31
510.051	6.25
510.4	6.29
510.75	6.05
511.099	6.16
511.449	6.15
511.798	6.28
512.147	6.18
512.496	6.17
512.846	6.2
513.195	6.23
513.544	6.28
513.893	6.26
514.242	6.11
514.591	6.28
514.939	6.25
515.288	6.16
515.637	6.24
515.986	6.16
516.334	6.29
516.683	6.26
517.032	6.32
517.38	6.22
517.729	6.12
518.077	6.28
518.426	6.24
518.774	6.24
519.122	6.18
519.47	6.21
519.819	6.23
520.167	6.18
520.515	6.15
520.863	6.1
521.211	6.08
521.559	6.19
521.907	6.2
522.255	6.11
522.602	6.23
522.95	6.12
523.298	6.26
523.645	6.31
523.993	6.2
524.341	6.15
524.688	6.34
525.036	6.29
525.383	6.18
525.73	6.21
526.078	6.22
526.425	6.05
526.772	6.2
527.119	6.13
527.466	6.02
527.814	6.07
528.161	5.95
528.508	6.14
528.854	6.02
529.201	6.09
529.548	6.02
529.895	5.98
530.242	5.88
530.588	5.9
530.935	5.8
531.282	5.8
531.628	5.92
531.975	5.89
532.321	5.93
532.667	5.99
533.014	6.06
533.36	6.02
533.706	6.05
534.052	6.1
534.399	6.07
534.745	6.02
535.091	5.92
535.437	5.91
535.783	5.83
536.129	5.88
536.474	5.98
536.82	5.93
537.166	6.15
537.512	6.11
537.857	6.08
538.203	6.1
538.549	6.04
538.894	5.93
539.239	6
539.585	6.04
539.93	6.18
540.276	6.17
540.621	6.15
540.966	6.06
541.311	6.26
541.656	6.15
542.001	6.06
542.346	6.19
542.691	6.15
543.036	5.99
543.381	5.89
543.726	5.9
544.071	5.86
544.415	5.96
544.76	5.92
545.105	5.88
545.449	5.88
545.794	5.98
546.138	6
546.483	6.09
546.827	6.08
547.171	6.03
547.516	6.14
547.86	6.13
548.204	6.18
548.548	6.12
548.892	6.02
549.236	5.99
549.58	6.04
549.924	6.07
550.268	6.11
550.612	6.11
550.956	6.12
551.3	6.14
551.643	6.07
551.987	6.24
552.33	6.32
552.674	6.16
553.017	6.16
553.361	6.08
553.704	6.27
554.048	6.08
554.391	6.09
554.734	6.1
555.077	6.12
555.42	5.93
555.764	5.96
556.107	6.23
556.45	6.14
556.793	5.97
557.135	6.16
557.478	6
557.821	6.08
558.164	6.11
558.507	6.18
558.849	6.27
559.192	6.13
559.534	6.4
559.877	6.07
560.219	6.06
560.562	6.37
560.904	6.04
561.246	6.19
561.589	6.23
561.931	6.04
562.273	6.04
562.615	6
562.957	6.11
563.299	6.14
563.641	6.13
563.983	6.35
564.325	6.02
564.667	6.1
565.008	6.13
565.35	6.28
565.692	6.27
566.033	6.15
566.375	6.11
566.716	5.92
567.058	6.09
567.399	6.13
567.741	6.15
568.082	6.01
568.423	6.08
568.764	6.28
569.105	5.82
569.447	5.92
569.788	5.85
570.129	6.1
570.47	6.09
570.811	6.04
571.151	6.15
571.492	6.06
571.833	5.93
572.174	6.03
572.514	6.14
572.855	6
573.195	6.04
573.536	6.06
573.876	6.01
574.217	6
574.557	6.06
574.898	6.02
575.238	6.17
575.578	6.08
575.918	6.09
576.258	6.03
576.598	6.08
576.938	5.99
577.278	6.27
577.618	5.8
577.958	6.1
578.298	6.25
578.638	5.97
578.977	6.02
579.317	6.09
579.657	6.01
579.996	6.12
580.336	6.09
580.675	6.17
581.014	5.83
581.354	6.05
581.693	6.06
582.032	6.2
582.372	5.99
582.711	6.01
583.05	5.93
583.389	6.11
583.728	6.06
584.067	6.19
584.406	6.15
584.745	5.86
585.083	6.34
585.422	6.34
585.761	5.99
586.1	6.12
586.438	5.99
586.777	6
587.115	6.34
587.454	5.95
587.792	6.08
588.13	6.08
588.469	6.08
588.807	6.4
589.145	6.12
589.483	5.82
589.821	5.98
590.159	6.11
590.497	6.36
590.835	6.18
591.173	5.9
591.511	5.94
591.849	5.93
592.187	6.05
592.524	6
592.862	6.09
593.2	6.05
593.537	5.99
593.875	6.06
594.212	5.98
594.55	6.3
594.887	5.93
595.224	6.13
595.561	6.22
595.899	6.35
596.236	6.29
596.573	6.2
596.91	6.08
597.247	6.02
597.584	6.11
597.921	6.22
598.258	6.03
598.594	6.08
598.931	6.02
599.268	6.08
599.604	6.15
599.941	5.89
600.277	5.88
600.614	5.96
600.95	5.93
601.287	5.92
601.623	6.05
601.959	6.37
602.296	6.11
602.632	5.77
602.968	6.05
603.304	6
603.64	5.88
603.976	6.07
604.312	6.01
604.648	6.06
604.984	6.02
605.319	5.94
605.655	5.9
605.991	5.93
606.326	6.11
606.662	5.91
606.998	5.72
607.333	6.03
607.668	5.88
608.004	6.14
608.339	5.83
608.674	6
609.01	5.84
609.345	5.94
609.68	6.01
610.015	6.06
610.35	6.01
610.685	6.11
611.02	6.14
611.355	5.96
611.689	5.93
612.024	5.94
612.359	5.76
612.694	5.92
613.028	5.78
613.363	6.08
613.697	5.91
614.032	5.91
614.366	5.92
614.7	5.91
615.035	6.01
615.369	6.04
615.703	5.91
616.037	6.05
616.371	6.35
616.705	6.1
617.039	5.92
617.373	6.09
617.707	5.76
618.041	6.39
618.375	6.03
618.709	5.88
619.042	6.24
619.376	6.26
619.71	6.04
620.043	5.58
620.377	5.55
620.71	5.79
621.043	6.09
621.377	5.97
621.71	6.13
622.043	5.56
622.376	6.16
622.709	6.02
623.043	5.71
623.376	6.07
623.709	5.81
624.041	6.11
624.374	6.14
624.707	6.19
625.04	5.96
625.373	5.62
625.705	6.4
626.038	5.72
626.37	6.02
626.703	5.8
627.035	5.88
627.368	5.92
627.7	6.26
628.032	6.16
628.365	5.96
628.697	5.95
629.029	5.83
629.361	5.71
629.693	5.82
630.025	5.83
630.357	5.67
630.689	5.97
631.021	5.61
631.353	5.71
631.684	5.91
632.016	6.11
632.348	5.86
632.679	5.84
633.011	5.87
633.342	5.83
633.674	6
634.005	5.78
634.336	6.28
634.668	6.02
634.999	5.96
635.33	5.86
635.661	5.96
635.992	5.77
636.323	5.98
636.654	5.97
636.985	5.82
637.316	6.01
637.647	5.84
637.977	5.52
638.308	5.93
638.639	5.99
638.969	5.89
639.3	5.93
639.63	6.15
639.961	5.87
640.291	5.69
640.622	5.85
640.952	5.72
641.282	6.09
641.612	6.07
641.943	5.93
642.273	5.52
642.603	5.78
642.933	6.57
643.263	5.43
643.592	6.03
643.922	6.07
644.252	5.88
644.582	6.06
644.911	5.88
645.241	6.08
645.571	5.85
645.9	6.25
646.23	6.45
646.559	5.92
646.888	6.3
647.218	5.67
647.547	5.73
647.876	6.17
648.205	5.58
648.534	5.83
648.863	5.98
649.192	5.66
649.521	5.78
649.85	6.15
650.179	5.85
650.508	5.58
650.837	6.55
651.165	5.84
651.494	5.61
651.822	6.13
652.151	6.33
652.479	5.9
652.808	5.91
653.136	6.5
653.465	5.55
653.793	5.39
654.121	5.89
654.449	5.41
654.777	5.84
655.105	5.93
655.433	5.52
655.761	6.24
656.089	5.6
656.417	5.66
656.745	6.09
657.073	5.92
657.4	6.51
657.728	6.35
658.056	5.77
658.383	6.26
658.711	5.69
659.038	5.82
659.365	6
659.693	5.44
660.02	6.1
660.347	6.14
660.674	5.93
661.001	5.35
661.329	5.88
661.656	6.12
661.982	5.7
662.309	6.03
662.636	5.74
662.963	6.33
663.29	6.05
663.616	6.27
663.943	6.04
664.27	6.01
664.596	6.23
664.923	5.33
665.249	5.84
665.576	5.59
665.902	5.59
666.228	6.08
666.554	5.78
666.881	6.21
667.207	5.84
667.533	6.3
667.859	6.18
668.185	6.15
668.511	6.33
668.837	5.97
669.162	6.43
669.488	6.21
669.814	6.03
670.139	5.84
670.465	6.34
670.791	6.05
671.116	6.15
671.442	6.4
671.767	5.84
672.092	6.55
672.418	6.23
672.743	6.12
673.068	6.03
673.393	5.72
673.718	6.55
674.043	6.25
674.368	6.14
674.693	6
675.018	6.25
675.343	6.63
675.667	6.42
675.992	5.72
676.317	6.42
676.641	5.77
676.966	6.23
677.29	6.05
677.615	6.49
677.939	6.73
678.264	6.12
678.588	6.71
678.912	6.12
679.236	6.68
679.56	6.11
679.885	6.17
680.209	6.45
680.532	5.97
680.856	6.37
681.18	6.26
681.504	6.28
681.828	6.3
682.152	5.77
682.475	6.66
682.799	6.29
683.122	6.51
683.446	6.17
683.769	5.97
684.093	6.24
684.416	5.98
684.739	5.81
685.062	6.26
685.386	5.77
685.709	5.97
686.032	5.94
686.355	6.57
686.678	6.46
687.001	6.38
687.324	6.68
687.646	6.52
687.969	6.44
688.292	5.97
688.614	6.48
688.937	6.22
689.26	5.5
689.582	6.41
689.904	5.66
690.227	6.77
690.549	6.24
690.871	6.21
691.194	6.9
691.516	6.88
691.838	6.84
692.16	6.19
692.482	6.06
692.804	5.82
693.126	5.78
693.448	6.37
693.769	5.9
