Data from 0221_forehead_Reflection__0__278.txt Node

Date: Fri Sep 22 22:56:59 CDT 2023
User: ToomeyLab
Spectrometer: FLMS14357
Trigger mode: 0
Integration Time (sec): 1.000000E-2
Scans to average: 100
Electric dark correction enabled: true
Nonlinearity correction enabled: false
Boxcar width: 0
XAxis mode: Wavelengths
Number of Pixels in Spectrum: 2048
>>>>>Begin Spectral Data<<<<<
189.047	136.36
189.435	136.36
189.823	136.36
190.211	-456.95
190.599	162.69
190.987	107.86
191.375	-130.61
191.763	-88.52
192.151	-110.22
192.538	118.06
192.926	26.86
193.314	1490.75
193.702	5688.12
194.089	97.6
194.477	142.3
194.864	58.46
195.252	66.8
195.639	15.57
196.027	64.69
196.414	238
196.801	-61.93
197.189	-291.78
197.576	107.76
197.963	-139.94
198.351	67.52
198.738	15.82
199.125	2.66
199.512	30.52
199.899	60.7
200.286	10.04
200.673	36.54
201.06	28.66
201.447	41.57
201.833	-53.57
202.22	35.53
202.607	41.61
202.994	52.73
203.38	44.72
203.767	46.21
204.154	44
204.54	24.27
204.927	11.15
205.313	14.56
205.699	46.37
206.086	23.93
206.472	70.24
206.858	31.29
207.245	50.35
207.631	45.9
208.017	12.87
208.403	-4.09
208.789	27.88
209.175	59
209.561	46.99
209.947	34.82
210.333	51.65
210.719	20.08
211.105	86.07
211.491	16.82
211.876	28.91
212.262	23.63
212.648	38.49
213.034	60.49
213.419	26.27
213.805	-5.38
214.19	29.9
214.576	27.46
214.961	-0.34
215.346	-4.56
215.732	37.75
216.117	-18.5
216.502	25.74
216.888	17.85
217.273	42.08
217.658	1
218.043	7.76
218.428	28.52
218.813	-6.06
219.198	20.56
219.583	18.75
219.968	5.81
220.353	45.03
220.738	13.95
221.122	34.83
221.507	3.4
221.892	24.9
222.276	7.81
222.661	-8.4
223.046	6.27
223.43	29.88
223.815	3.37
224.199	8.2
224.583	27
224.968	15.28
225.352	0.87
225.736	11.91
226.121	4.43
226.505	13.67
226.889	13.1
227.273	4.24
227.657	9.23
228.041	7.07
228.425	9.94
228.809	-0.31
229.193	7.35
229.577	5.73
229.961	8.43
230.344	5.72
230.728	3.32
231.112	5.64
231.495	4.87
231.879	4.6
232.263	4.76
232.646	5.26
233.03	4.57
233.413	5.14
233.797	5.6
234.18	5.96
234.563	7.81
234.946	4.84
235.33	1.93
235.713	3.03
236.096	3.29
236.479	4.29
236.862	7.14
237.245	6.69
237.628	5.71
238.011	4.95
238.394	4.81
238.777	6.75
239.16	5.29
239.543	7.59
239.925	5.11
240.308	3.74
240.691	4.4
241.073	6.2
241.456	5.86
241.838	4.83
242.221	5.23
242.603	5.04
242.986	4.07
243.368	4.63
243.75	5.24
244.133	4.57
244.515	4.82
244.897	4.72
245.279	4.5
245.661	4.89
246.043	4.89
246.425	4.81
246.807	5.83
247.189	3.35
247.571	5.01
247.953	5.13
248.335	4.82
248.717	4.73
249.098	4.7
249.48	4.7
249.862	4.21
250.243	4.27
250.625	4.67
251.006	4.77
251.388	5.12
251.769	4.83
252.151	5.31
252.532	5.33
252.913	4.37
253.295	5.73
253.676	4.5
254.057	4.68
254.438	5.44
254.819	4.16
255.2	4.57
255.581	5.09
255.962	5.94
256.343	5.21
256.724	3.18
257.105	6.02
257.486	5.55
257.867	5.46
258.247	4.92
258.628	4.52
259.009	4.36
259.389	4.07
259.77	4.71
260.15	5.76
260.531	4.65
260.911	4.24
261.292	4.37
261.672	4.41
262.052	4.44
262.432	4.41
262.813	4.56
263.193	4.12
263.573	5.24
263.953	4.73
264.333	4.56
264.713	4.54
265.093	4.36
265.473	4.7
265.853	4.17
266.233	4.73
266.612	4.86
266.992	5.46
267.372	4.81
267.752	5.39
268.131	4.37
268.511	4.1
268.89	4.68
269.27	4.13
269.649	4.36
270.029	4.02
270.408	4.15
270.787	4.61
271.167	4.97
271.546	4.27
271.925	4.79
272.304	3.72
272.683	5.06
273.062	5.47
273.441	4.68
273.82	5.19
274.199	4.4
274.578	4.43
274.957	3.96
275.336	4.49
275.715	4.47
276.093	3.88
276.472	4.45
276.851	4.61
277.229	3.95
277.608	4.83
277.986	4.13
278.365	4.99
278.743	4.67
279.122	4.61
279.5	4.64
279.878	4.37
280.257	4.98
280.635	5.02
281.013	4.64
281.391	3.94
281.769	4.56
282.147	4.44
282.525	4.38
282.903	4.73
283.281	4.79
283.659	4.39
284.037	4.22
284.415	4.55
284.792	4.41
285.17	4.44
285.548	4.92
285.925	4.31
286.303	4.17
286.68	4.37
287.058	4.1
287.435	4.08
287.813	4.38
288.19	3.68
288.567	4.5
288.945	4.76
289.322	4.84
289.699	4.55
290.076	4.72
290.453	4.17
290.83	3.8
291.207	4.74
291.584	4.15
291.961	4.23
292.338	4.6
292.715	4.27
293.092	4.19
293.469	4.92
293.845	4.02
294.222	5.18
294.599	4.52
294.975	5.18
295.352	4.77
295.728	4.75
296.105	4.78
296.481	4.74
296.858	5.08
297.234	4.43
297.61	4.93
297.986	4.71
298.363	4.79
298.739	5.01
299.115	5.09
299.491	4.86
299.867	4.94
300.243	4.61
300.619	4.67
300.995	4.97
301.371	5.26
301.746	5.05
302.122	4.75
302.498	5.27
302.874	4.61
303.249	4.52
303.625	4.88
304	5.73
304.376	5.33
304.751	5.14
305.127	5.38
305.502	5.39
305.878	5.6
306.253	5.27
306.628	5.4
307.003	5.31
307.378	5.34
307.754	5.33
308.129	5.55
308.504	4.82
308.879	5.38
309.254	5.46
309.629	4.91
310.003	5.68
310.378	6.17
310.753	5.75
311.128	5.14
311.502	5.42
311.877	5.64
312.252	5.53
312.626	5.29
313.001	5.49
313.375	5.69
313.75	5.9
314.124	6.15
314.498	5.68
314.873	5.53
315.247	5.7
315.621	6.03
315.995	5.72
316.369	5.7
316.743	5.95
317.117	6.02
317.491	6.18
317.865	5.9
318.239	5.99
318.613	5.77
318.987	5.22
319.361	5.93
319.734	6.26
320.108	6.61
320.482	5.88
320.855	5.6
321.229	6.56
321.602	6.75
321.976	5.96
322.349	6.08
322.723	5.98
323.096	6.24
323.469	6.46
323.843	5.95
324.216	6.66
324.589	6.33
324.962	5.93
325.335	5.94
325.708	6.44
326.081	6.5
326.454	6.08
326.827	6.5
327.2	6.43
327.573	7.16
327.945	6.56
328.318	6.84
328.691	6.48
329.063	6.55
329.436	6.7
329.809	6.69
330.181	6.63
330.553	6.56
330.926	6.4
331.298	6.22
331.671	6.43
332.043	6.26
332.415	6.91
332.787	7.27
333.159	6.7
333.532	6.53
333.904	6.57
334.276	6.51
334.648	6.46
335.02	6.45
335.391	6.79
335.763	7.19
336.135	6.26
336.507	6.67
336.879	6.33
337.25	6.8
337.622	6.85
337.993	7.48
338.365	7.23
338.736	7.48
339.108	7.03
339.479	6.67
339.851	6.54
340.222	7.01
340.593	7.01
340.964	6.78
341.336	6.68
341.707	6.94
342.078	6.85
342.449	7.07
342.82	7.09
343.191	6.67
343.562	6.99
343.933	7.09
344.303	6.95
344.674	7.04
345.045	7.19
345.416	7.55
345.786	7.04
346.157	7.41
346.527	7.23
346.898	7.21
347.268	7.13
347.639	7.62
348.009	6.99
348.38	7.14
348.75	7.38
349.12	7.2
349.49	7.67
349.861	7.24
350.231	7.63
350.601	7.54
350.971	7.52
351.341	7.48
351.711	7.73
352.081	7.18
352.45	7.5
352.82	7.81
353.19	7.88
353.56	7.34
353.929	7.94
354.299	7.73
354.669	7.5
355.038	7.29
355.408	7.72
355.777	8.12
356.147	7.52
356.516	7.97
356.885	7.47
357.254	7.96
357.624	8.14
357.993	7.76
358.362	7.93
358.731	7.74
359.1	7.63
359.469	7.8
359.838	7.54
360.207	7.87
360.576	8.02
360.945	7.98
361.314	7.99
361.682	8.22
362.051	8.18
362.42	8.06
362.788	7.68
363.157	8.13
363.525	7.86
363.894	8.03
364.262	8.06
364.631	7.86
364.999	8.01
365.367	8.42
365.735	8.16
366.104	7.94
366.472	8.3
366.84	8.27
367.208	8.39
367.576	8.19
367.944	8.38
368.312	8.41
368.68	8.67
369.048	8.44
369.416	8.36
369.783	8.31
370.151	8.67
370.519	8.6
370.886	8.44
371.254	8.88
371.621	8.38
371.989	8.75
372.356	8.57
372.724	8.78
373.091	8.7
373.458	8.94
373.826	8.89
374.193	9
374.56	8.83
374.927	9.1
375.294	8.77
375.661	8.78
376.028	9.25
376.395	9.24
376.762	8.95
377.129	9.14
377.496	9.34
377.863	9.35
378.229	9.06
378.596	9.22
378.963	9.13
379.329	9.18
379.696	9.27
380.062	8.98
380.429	9.23
380.795	9.2
381.161	9.03
381.528	9.07
381.894	9.15
382.26	9.11
382.626	9.36
382.993	9.47
383.359	9.3
383.725	9.46
384.091	9.88
384.457	9.52
384.823	9.6
385.188	9.84
385.554	9.58
385.92	10.11
386.286	9.5
386.651	9.29
387.017	9.7
387.383	9.64
387.748	9.74
388.114	10.03
388.479	9.73
388.845	9.64
389.21	9.74
389.575	10.13
389.94	9.78
390.306	10.01
390.671	10.16
391.036	9.41
391.401	9.94
391.766	9.72
392.131	10
392.496	9.95
392.861	9.95
393.226	10.13
393.591	10.22
393.956	10.14
394.32	10.01
394.685	9.97
395.05	10.38
395.414	10.44
395.779	10.24
396.143	10.15
396.508	10.04
396.872	10.18
397.236	10.35
397.601	10.16
397.965	10.67
398.329	10.55
398.694	10.45
399.058	10.48
399.422	10.4
399.786	10.44
400.15	10.62
400.514	10.59
400.878	10.77
401.242	10.67
401.605	10.49
401.969	10.39
402.333	10.65
402.697	10.67
403.06	10.96
403.424	10.57
403.787	10.76
404.151	10.73
404.514	10.81
404.878	10.87
405.241	11.1
405.604	11.21
405.968	10.89
406.331	10.97
406.694	10.74
407.057	10.87
407.42	11.06
407.783	11.08
408.146	11.13
408.509	10.91
408.872	10.96
409.235	10.91
409.598	11
409.961	11.5
410.323	11.25
410.686	11.17
411.049	11.36
411.411	11.39
411.774	11.34
412.136	11.4
412.499	11.27
412.861	11.4
413.223	11.54
413.586	11.39
413.948	11.33
414.31	11.27
414.672	11.7
415.035	11.51
415.397	11.73
415.759	11.87
416.121	11.45
416.483	11.45
416.845	11.72
417.206	11.46
417.568	11.51
417.93	11.5
418.292	11.54
418.653	11.52
419.015	11.5
419.377	11.52
419.738	11.69
420.1	11.6
420.461	11.57
420.822	11.69
421.184	11.66
421.545	11.6
421.906	11.6
422.267	11.67
422.629	11.81
422.99	11.6
423.351	11.59
423.712	11.57
424.073	11.65
424.434	11.86
424.795	11.85
425.155	11.84
425.516	11.74
425.877	11.88
426.238	11.71
426.598	11.88
426.959	11.97
427.32	12.01
427.68	11.93
428.041	12.01
428.401	12.2
428.761	12.33
429.122	12.2
429.482	12.42
429.842	12.25
430.202	12.37
430.563	12.36
430.923	12.73
431.283	12.62
431.643	12.61
432.003	12.75
432.363	12.65
432.722	12.68
433.082	12.61
433.442	12.5
433.802	12.68
434.161	12.74
434.521	12.71
434.881	12.82
435.24	12.58
435.6	12.57
435.959	12.66
436.319	12.84
436.678	12.84
437.037	12.92
437.396	12.77
437.756	13.2
438.115	12.95
438.474	12.97
438.833	12.88
439.192	12.95
439.551	13.08
439.91	13.08
440.269	13.1
440.628	13.01
440.987	13.09
441.345	13.21
441.704	13.09
442.063	13.03
442.421	13.06
442.78	13.15
443.138	13.04
443.497	13.1
443.855	13.27
444.214	13.14
444.572	13.4
444.93	13.48
445.288	13.56
445.647	13.6
446.005	13.48
446.363	13.28
446.721	13.62
447.079	13.39
447.437	13.39
447.795	13.69
448.153	13.37
448.51	13.53
448.868	13.48
449.226	13.48
449.584	13.54
449.941	13.43
450.299	13.62
450.656	13.79
451.014	13.86
451.371	13.83
451.729	13.79
452.086	13.9
452.443	14.06
452.801	14.14
453.158	13.94
453.515	14.15
453.872	14.06
454.229	14.16
454.586	14.18
454.943	14.05
455.3	14.21
455.657	14.14
456.014	14.21
456.371	14.27
456.727	14.59
457.084	14.29
457.441	14.38
457.797	14.54
458.154	14.51
458.51	14.5
458.867	14.65
459.223	14.57
459.58	14.59
459.936	14.59
460.292	14.74
460.648	14.73
461.005	14.64
461.361	14.54
461.717	14.36
462.073	14.28
462.429	14.28
462.785	14.48
463.141	14.51
463.496	14.91
463.852	14.95
464.208	14.71
464.564	15.07
464.919	14.83
465.275	15.15
465.631	15.17
465.986	15.31
466.342	15.29
466.697	15.29
467.052	15.33
467.408	15.24
467.763	15.3
468.118	15.42
468.473	15.25
468.829	15.31
469.184	15.28
469.539	15.21
469.894	15.39
470.249	15.52
470.603	15.38
470.958	15.53
471.313	15.5
471.668	15.49
472.023	15.44
472.377	15.52
472.732	15.56
473.086	15.93
473.441	15.63
473.795	15.88
474.15	15.76
474.504	15.76
474.859	15.96
475.213	15.6
475.567	15.88
475.921	15.94
476.275	15.86
476.63	15.86
476.984	16.04
477.338	16.04
477.692	15.84
478.045	16.27
478.399	16.2
478.753	16.12
479.107	15.96
479.461	16.1
479.814	16.25
480.168	16.17
480.521	16.28
480.875	16.26
481.228	16.34
481.582	16.27
481.935	16.36
482.289	16.32
482.642	16.38
482.995	16.39
483.348	16.4
483.701	16.29
484.055	16.33
484.408	16.31
484.761	16.31
485.114	16.1
485.466	15.92
485.819	15.67
486.172	15.59
486.525	15.68
486.878	15.87
487.23	15.89
487.583	16.14
487.936	16.2
488.288	16.41
488.641	16.41
488.993	16.27
489.345	16.23
489.698	16.11
490.05	16.1
490.402	16.17
490.754	16.21
491.107	16.43
491.459	16.59
491.811	16.68
492.163	16.83
492.515	16.78
492.866	16.79
493.218	16.76
493.57	16.67
493.922	16.49
494.274	16.58
494.625	16.67
494.977	16.9
495.328	17.18
495.68	17.25
496.031	17.35
496.383	17.46
496.734	17.55
497.086	17.46
497.437	17.7
497.788	17.62
498.139	17.83
498.49	17.79
498.842	17.56
499.193	17.46
499.544	17.62
499.894	17.62
500.245	17.77
500.596	17.84
500.947	17.92
501.298	17.87
501.648	18.06
501.999	18.1
502.35	18.13
502.7	18.24
503.051	18.06
503.401	18.29
503.752	18.29
504.102	18.39
504.452	18.35
504.803	18.36
505.153	18.39
505.503	18.4
505.853	18.64
506.203	18.5
506.553	18.44
506.903	18.59
507.253	18.41
507.603	18.66
507.953	18.74
508.303	18.75
508.652	18.69
509.002	18.93
509.352	18.74
509.701	18.94
510.051	18.85
510.4	18.87
510.75	18.87
511.099	18.75
511.449	18.82
511.798	18.95
512.147	18.84
512.496	18.86
512.846	19.04
513.195	19.01
513.544	18.97
513.893	18.94
514.242	19.04
514.591	19.06
514.939	19.24
515.288	19.17
515.637	19.28
515.986	19.05
516.334	19.37
516.683	19.55
517.032	19.47
517.38	19.55
517.729	19.65
518.077	19.53
518.426	19.64
518.774	19.63
519.122	19.69
519.47	19.57
519.819	19.67
520.167	19.62
520.515	19.54
520.863	19.33
521.211	19.29
521.559	19.54
521.907	19.58
522.255	19.6
522.602	19.79
522.95	19.85
523.298	19.91
523.645	20.15
523.993	20.04
524.341	20.02
524.688	20.13
525.036	20.11
525.383	20.2
525.73	20.28
526.078	20.3
526.425	20.22
526.772	20.3
527.119	20.33
527.466	20.01
527.814	19.92
528.161	20.03
528.508	20.2
528.854	20.19
529.201	20.19
529.548	20.28
529.895	20.18
530.242	19.97
530.588	19.93
530.935	19.76
531.282	19.81
531.628	20.03
531.975	20.06
532.321	20.07
532.667	20.35
533.014	20.39
533.36	20.64
533.706	20.76
534.052	20.78
534.399	20.72
534.745	20.8
535.091	20.67
535.437	20.47
535.783	20.45
536.129	20.57
536.474	20.75
536.82	20.82
537.166	21.12
537.512	21.12
537.857	21.22
538.203	21.36
538.549	21.2
538.894	21.03
539.239	21.08
539.585	21.19
539.93	21.37
540.276	21.41
540.621	21.56
540.966	21.77
541.311	21.71
541.656	21.73
542.001	21.87
542.346	21.74
542.691	21.75
543.036	21.58
543.381	21.32
543.726	21.21
544.071	21.34
544.415	21.45
544.76	21.44
545.105	21.59
545.449	21.74
545.794	21.79
546.138	21.94
546.483	22.05
546.827	22.11
547.171	22.22
547.516	22.32
547.86	22.48
548.204	22.48
548.548	22.52
548.892	22.34
549.236	22.18
549.58	22.28
549.924	22.59
550.268	22.73
550.612	22.88
550.956	22.8
551.3	23.07
551.643	23.11
551.987	23.26
552.33	23.53
552.674	23.13
553.017	23.17
553.361	23.13
553.704	23.4
554.048	23.31
554.391	23.46
554.734	23.26
555.077	23.18
555.42	23.32
555.764	23.49
556.107	23.47
556.45	23.62
556.793	23.52
557.135	23.8
557.478	23.73
557.821	23.73
558.164	23.95
558.507	23.93
558.849	23.93
559.192	23.98
559.534	24.15
559.877	24.09
560.219	24.09
560.562	24.29
560.904	24.26
561.246	24.35
561.589	24.55
561.931	24.27
562.273	24.39
562.615	24.42
562.957	24.49
563.299	24.53
563.641	24.55
563.983	24.65
564.325	24.5
564.667	24.49
565.008	24.71
565.35	24.66
565.692	24.69
566.033	24.88
566.375	24.8
566.716	24.79
567.058	24.98
567.399	24.77
567.741	25.08
568.082	24.89
568.423	24.95
568.764	24.91
569.105	24.84
569.447	24.86
569.788	25.03
570.129	24.94
570.47	25.29
570.811	25.31
571.151	25.27
571.492	25.35
571.833	25.44
572.174	25.49
572.514	25.61
572.855	25.55
573.195	25.51
573.536	25.34
573.876	25.6
574.217	25.49
574.557	25.45
574.898	25.41
575.238	25.66
575.578	25.71
575.918	25.71
576.258	25.77
576.598	26.08
576.938	25.91
577.278	25.96
577.618	25.9
577.958	25.99
578.298	25.92
578.638	25.98
578.977	26.15
579.317	26.18
579.657	26.35
579.996	26.45
580.336	26.44
580.675	26.49
581.014	26.34
581.354	26.5
581.693	26.68
582.032	26.56
582.372	26.92
582.711	26.96
583.05	26.38
583.389	26.92
583.728	26.75
584.067	26.87
584.406	26.94
584.745	26.91
585.083	26.98
585.422	27.25
585.761	27.03
586.1	27.29
586.438	27.13
586.777	27.2
587.115	27.13
587.454	27.01
587.792	27.24
588.13	27.7
588.469	27.63
588.807	27.55
589.145	27.27
589.483	27.62
589.821	27.9
590.159	27.61
590.497	27.73
590.835	27.67
591.173	27.71
591.511	27.83
591.849	27.91
592.187	27.71
592.524	27.7
592.862	27.57
593.2	28.01
593.537	27.91
593.875	27.89
594.212	27.64
594.55	28.2
594.887	27.85
595.224	28.21
595.561	28.19
595.899	28.3
596.236	28.27
596.573	28.25
596.91	28.33
597.247	28.2
597.584	28.41
597.921	28.37
598.258	28.42
598.594	28.19
598.931	28.24
599.268	28.32
599.604	28.5
599.941	28.43
600.277	28.39
600.614	28.59
600.95	28.8
601.287	28.7
601.623	28.79
601.959	29.11
602.296	29.19
602.632	28.78
602.968	29.1
603.304	29.29
603.64	29.07
603.976	29.05
604.312	29.01
604.648	29.21
604.984	29.21
605.319	29.22
605.655	29.3
605.991	29.47
606.326	29.2
606.662	29.03
606.998	29.19
607.333	29.3
607.668	29.22
608.004	29.23
608.339	29.13
608.674	29.45
609.01	29.57
609.345	29.8
609.68	29.73
610.015	29.9
610.35	29.86
610.685	30.26
611.02	29.94
611.355	30.01
611.689	29.79
612.024	29.69
612.359	29.7
612.694	29.88
613.028	29.82
613.363	29.89
613.697	30.06
614.032	30.03
614.366	30.34
614.7	30.35
615.035	30.52
615.369	30.21
615.703	30.37
616.037	30.52
616.371	30.46
616.705	30.56
617.039	30.68
617.373	30.76
617.707	30.96
618.041	30.82
618.375	30.64
618.709	30.55
619.042	31.17
619.376	30.82
619.71	30.95
620.043	31.03
620.377	30.86
620.71	31.02
621.043	30.83
621.377	31.09
621.71	31.17
622.043	31.41
622.376	31.05
622.709	31.2
623.043	31.43
623.376	31.13
623.709	31.4
624.041	31.05
624.374	31.48
624.707	31.71
625.04	31.45
625.373	31.17
625.705	31.55
626.038	31.54
626.37	31.58
626.703	31.7
627.035	31.7
627.368	31.96
627.7	32.02
628.032	31.71
628.365	32.05
628.697	32.02
629.029	32.09
629.361	31.97
629.693	31.93
630.025	31.72
630.357	31.94
630.689	32.02
631.021	32
631.353	31.95
631.684	31.99
632.016	32.38
632.348	32.37
632.679	32.31
633.011	32.24
633.342	32.26
633.674	32.26
634.005	32.39
634.336	32.69
634.668	32.46
634.999	32.73
635.33	32.58
635.661	32.29
635.992	32.35
636.323	33.04
636.654	33.13
636.985	32.83
637.316	32.8
637.647	33.1
637.977	32.47
638.308	32.94
638.639	32.79
638.969	33.17
639.3	33.54
639.63	33.21
639.961	33.11
640.291	32.75
640.622	33.2
640.952	33.12
641.282	33.22
641.612	33.27
641.943	33.34
642.273	33.01
642.603	32.97
642.933	33.26
643.263	33.01
643.592	33.84
643.922	33.39
644.252	33.47
644.582	33.76
644.911	33.55
645.241	33.75
645.571	33.63
645.9	33.78
646.23	34.03
646.559	33.73
646.888	34.15
647.218	33.8
647.547	33.85
647.876	33.73
648.205	33.63
648.534	34.15
648.863	34.2
649.192	33.64
649.521	34.32
649.85	34.29
650.179	34.45
650.508	34.66
650.837	34.81
651.165	34.18
651.494	34.52
651.822	34.62
652.151	34.45
652.479	34.82
652.808	34.56
653.136	34.32
653.465	34.85
653.793	34.42
654.121	35.05
654.449	34.6
654.777	34.99
655.105	34.42
655.433	34.77
655.761	34.98
656.089	35.01
656.417	34.77
656.745	34.9
657.073	35.09
657.4	34.92
657.728	34.64
658.056	35.08
658.383	35.61
658.711	35.05
659.038	34.64
659.365	35.38
659.693	35.19
660.02	35.67
660.347	34.8
660.674	35.3
661.001	34.76
661.329	35.34
661.656	35.35
661.982	35.38
662.309	35.51
662.636	35.68
662.963	35.66
663.29	35.77
663.616	35.59
663.943	35.47
664.27	35.54
664.596	35.82
664.923	35.35
665.249	36.01
665.576	35.72
665.902	35.73
666.228	36.18
666.554	35.59
666.881	36.79
667.207	36.06
667.533	36.03
667.859	36.36
668.185	35.64
668.511	36.6
668.837	35.7
669.162	35.86
669.488	36.08
669.814	36.39
670.139	36.26
670.465	36.6
670.791	36.15
671.116	36.19
671.442	37
671.767	35.93
672.092	37.21
672.418	36.8
672.743	36.96
673.068	37.19
673.393	36.16
673.718	37.15
