Data from 0221_chest_Reflection__3__270.txt Node

Date: Fri Sep 22 22:54:31 CDT 2023
User: ToomeyLab
Spectrometer: FLMS14357
Trigger mode: 0
Integration Time (sec): 1.000000E-2
Scans to average: 100
Electric dark correction enabled: true
Nonlinearity correction enabled: false
Boxcar width: 0
XAxis mode: Wavelengths
Number of Pixels in Spectrum: 2048
>>>>>Begin Spectral Data<<<<<
189.047	-204.76
189.435	-204.76
189.823	-204.76
190.211	-244.8
190.599	14.16
190.987	247.69
191.375	5.58
191.763	-18.2
192.151	109.98
192.538	-800
192.926	70
193.314	-461.31
193.702	102.97
194.089	104.99
194.477	-29.32
194.864	123.84
195.252	54.75
195.639	20.42
196.027	60.27
196.414	-347.52
196.801	330.85
197.189	-313.22
197.576	111.61
197.963	-239.78
198.351	22.11
198.738	12.78
199.125	23.2
199.512	-5.56
199.899	45.86
200.286	17.67
200.673	4.37
201.06	11.68
201.447	26.12
201.833	-34.04
202.22	48.47
202.607	31.21
202.994	27.01
203.38	29.36
203.767	-15.91
204.154	50.23
204.54	21.29
204.927	19.23
205.313	6.31
205.699	48.03
206.086	39.28
206.472	43.55
206.858	50.18
207.245	-19.55
207.631	10.17
208.017	19.04
208.403	10.64
208.789	3.62
209.175	22.16
209.561	35.99
209.947	48.08
210.333	22.54
210.719	25.36
211.105	46.92
211.491	4.55
211.876	18.13
212.262	18.2
212.648	16.02
213.034	9.28
213.419	0.9
213.805	9.89
214.19	38.37
214.576	36.67
214.961	22.31
215.346	-15.53
215.732	6.35
216.117	-1.54
216.502	30.56
216.888	6.54
217.273	1.32
217.658	-17.25
218.043	38.51
218.428	21.23
218.813	-4.15
219.198	8.05
219.583	2.18
219.968	-10.87
220.353	28.28
220.738	-5.19
221.122	0.93
221.507	2.4
221.892	-6.2
222.276	-1.11
222.661	-47.75
223.046	13.93
223.43	22.47
223.815	6.97
224.199	-0.91
224.583	16.8
224.968	4.34
225.352	1.91
225.736	16.06
226.121	15.19
226.505	5.23
226.889	4.17
227.273	1.61
227.657	3.87
228.041	-1.8
228.425	5.3
228.809	1.84
229.193	0.43
229.577	4.81
229.961	3.91
230.344	2.77
230.728	2.11
231.112	3.72
231.495	3.06
231.879	3.29
232.263	2.24
232.646	3.84
233.03	2.62
233.413	3.57
233.797	3.28
234.18	2.38
234.563	4.1
234.946	3.9
235.33	0.12
235.713	0.62
236.096	1.43
236.479	3.64
236.862	3.92
237.245	5.14
237.628	3.51
238.011	2.26
238.394	4.81
238.777	5.91
239.16	3.6
239.543	4.97
239.925	3.76
240.308	2.97
240.691	3.22
241.073	5.01
241.456	3.21
241.838	2.84
242.221	2.19
242.603	3.07
242.986	2.49
243.368	2.73
243.75	3.67
244.133	3.74
244.515	2.76
244.897	3.09
245.279	2.92
245.661	3.05
246.043	3.22
246.425	3.41
246.807	3.18
247.189	1.87
247.571	4.15
247.953	3.82
248.335	3.01
248.717	3.38
249.098	3.09
249.48	2.87
249.862	3.22
250.243	3.27
250.625	3.21
251.006	2.7
251.388	3.09
251.769	3.21
252.151	2.72
252.532	2.82
252.913	3.63
253.295	3.89
253.676	3.76
254.057	3.51
254.438	3.43
254.819	2.76
255.2	3.2
255.581	2.82
255.962	3.27
256.343	3.49
256.724	1.6
257.105	2.46
257.486	3.19
257.867	3.67
258.247	4.19
258.628	3.99
259.009	2.66
259.389	2.08
259.77	3.78
260.15	3.27
260.531	3.01
260.911	2.8
261.292	3.11
261.672	2.63
262.052	2.94
262.432	2.94
262.813	3.01
263.193	2.96
263.573	3.11
263.953	2.92
264.333	2.76
264.713	2.27
265.093	2.85
265.473	2.71
265.853	2.25
266.233	2.68
266.612	3.22
266.992	3.2
267.372	3.88
267.752	3.02
268.131	2.71
268.511	2.5
268.89	3.59
269.27	2.75
269.649	2.82
270.029	2.86
270.408	2.61
270.787	2.6
271.167	3.19
271.546	2.78
271.925	2.58
272.304	2.64
272.683	3.19
273.062	3.53
273.441	2.8
273.82	3.2
274.199	2.95
274.578	2.84
274.957	2.87
275.336	2.92
275.715	2.86
276.093	2.38
276.472	2.89
276.851	3.11
277.229	2.09
277.608	2.97
277.986	2.61
278.365	3.1
278.743	2.61
279.122	3.38
279.5	3.15
279.878	2.92
280.257	3.25
280.635	3.03
281.013	3.54
281.391	3.17
281.769	3.06
282.147	3.21
282.525	2.75
282.903	2.48
283.281	3.56
283.659	3.41
284.037	2.94
284.415	2.59
284.792	2.9
285.17	2.9
285.548	3.48
285.925	2.92
286.303	3.02
286.68	2.5
287.058	2.8
287.435	3.04
287.813	2.55
288.19	2.53
288.567	2.91
288.945	2.7
289.322	2.94
289.699	3.4
290.076	3.24
290.453	2.69
290.83	2.35
291.207	3
291.584	2.35
291.961	2.72
292.338	3.07
292.715	3.44
293.092	2.82
293.469	2.98
293.845	3.15
294.222	3.38
294.599	3.36
294.975	3.07
295.352	2.94
295.728	3.11
296.105	3.33
296.481	3.09
296.858	3.27
297.234	2.96
297.61	3.48
297.986	3.29
298.363	2.91
298.739	2.76
299.115	3.13
299.491	3.27
299.867	3.09
300.243	2.91
300.619	3.08
300.995	2.74
301.371	3.14
301.746	3.42
302.122	3.34
302.498	3.01
302.874	3.17
303.249	3.11
303.625	2.84
304	3.43
304.376	3.32
304.751	3.24
305.127	3.41
305.502	3.4
305.878	3.32
306.253	3.2
306.628	3.63
307.003	3.53
307.378	2.88
307.754	2.67
308.129	2.94
308.504	3.47
308.879	3.15
309.254	2.99
309.629	3.41
310.003	3.35
310.378	3.63
310.753	3.23
311.128	3.4
311.502	3.43
311.877	3.03
312.252	3.26
312.626	3.02
313.001	3.45
313.375	3.19
313.75	4.02
314.124	3.74
314.498	3.26
314.873	3.81
315.247	3.71
315.621	3.36
315.995	3.02
316.369	2.9
316.743	3.23
317.117	3.89
317.491	3.81
317.865	3.14
318.239	3.51
318.613	3.57
318.987	3.45
319.361	2.73
319.734	3.21
320.108	3.53
320.482	3.26
320.855	3.23
321.229	3.89
321.602	4.1
321.976	3
322.349	3.59
322.723	3.76
323.096	2.67
323.469	3.91
323.843	3.82
324.216	3.63
324.589	3.87
324.962	3.12
325.335	3.63
325.708	3.18
326.081	3.7
326.454	3.07
326.827	3.66
327.2	3.31
327.573	3.8
327.945	3.84
328.318	3.64
328.691	3.49
329.063	3.51
329.436	3.75
329.809	3.59
330.181	3.54
330.553	4.05
330.926	3.95
331.298	4.05
331.671	3.6
332.043	3.6
332.415	3.49
332.787	3.78
333.159	3.59
333.532	3.61
333.904	3.73
334.276	3.52
334.648	3.41
335.02	3.29
335.391	3.98
335.763	3.93
336.135	3.85
336.507	4.12
336.879	3.38
337.25	4.08
337.622	4.08
337.993	3.74
338.365	3.75
338.736	3.67
339.108	4.04
339.479	3.44
339.851	3.13
340.222	3.8
340.593	3.72
340.964	3.49
341.336	3.32
341.707	3.87
342.078	3.62
342.449	3.82
342.82	3.54
343.191	3.5
343.562	3.56
343.933	3.9
344.303	3.73
344.674	3.95
345.045	3.47
345.416	4.06
345.786	3.38
346.157	3.67
346.527	3.75
346.898	3.54
347.268	3.62
347.639	3.92
348.009	3.8
348.38	3.71
348.75	3.63
349.12	3.62
349.49	3.93
349.861	3.6
350.231	3.9
350.601	3.7
350.971	4.11
351.341	3.67
351.711	3.79
352.081	3.39
352.45	3.6
352.82	3.56
353.19	3.98
353.56	3.73
353.929	3.52
354.299	3.44
354.669	3.1
355.038	3.88
355.408	3.94
355.777	3.9
356.147	3.69
356.516	3.89
356.885	3.52
357.254	3.91
357.624	3.51
357.993	3.71
358.362	3.8
358.731	3.75
359.1	3.52
359.469	3.83
359.838	3.66
360.207	3.76
360.576	4.04
360.945	3.97
361.314	3.86
361.682	4.16
362.051	4.04
362.42	3.92
362.788	3.45
363.157	3.89
363.525	3.77
363.894	3.54
364.262	3.84
364.631	3.68
364.999	3.48
365.367	3.93
365.735	3.76
366.104	4
366.472	3.91
366.84	3.66
367.208	4.2
367.576	3.81
367.944	3.59
368.312	3.93
368.68	3.68
369.048	4.03
369.416	3.89
369.783	4.17
370.151	3.86
370.519	3.97
370.886	3.75
371.254	4.17
371.621	3.95
371.989	3.88
372.356	3.65
372.724	4.15
373.091	4.04
373.458	4.02
373.826	4.16
374.193	4.12
374.56	4.18
374.927	4.01
375.294	3.71
375.661	3.76
376.028	3.62
376.395	4.3
376.762	3.69
377.129	4.08
377.496	4.14
377.863	4.18
378.229	3.89
378.596	3.82
378.963	3.99
379.329	3.88
379.696	4.1
380.062	3.88
380.429	3.97
380.795	4
381.161	3.85
381.528	4.03
381.894	3.74
382.26	3.88
382.626	4.12
382.993	4.16
383.359	3.69
383.725	3.72
384.091	4.2
384.457	3.99
384.823	3.97
385.188	4.14
385.554	4.03
385.92	4.35
386.286	4.06
386.651	3.65
387.017	4.05
387.383	4.13
387.748	4.11
388.114	3.83
388.479	4.34
388.845	3.94
389.21	3.99
389.575	4.32
389.94	3.91
390.306	4.24
390.671	4.37
391.036	3.88
391.401	4.1
391.766	4.07
392.131	4.03
392.496	4.2
392.861	4.01
393.226	4.32
393.591	4.39
393.956	4.11
394.32	4.11
394.685	3.97
395.05	4.32
395.414	4.31
395.779	4.2
396.143	4.18
396.508	4.03
396.872	3.98
397.236	4.01
397.601	4.01
397.965	4.21
398.329	4.11
398.694	3.97
399.058	3.99
399.422	4.03
399.786	4.24
400.15	4.27
400.514	4.25
400.878	4.34
401.242	4.15
401.605	4.15
401.969	3.83
402.333	4.07
402.697	4.08
403.06	4.24
403.424	4.01
403.787	4.46
404.151	4.23
404.514	4.18
404.878	4.19
405.241	4.43
405.604	4.13
405.968	4.32
406.331	4.23
406.694	4.29
407.057	4.19
407.42	4.22
407.783	4.33
408.146	4.23
408.509	4.04
408.872	3.94
409.235	4.17
409.598	4.34
409.961	4.46
410.323	4.25
410.686	4.24
411.049	4.33
411.411	4.23
411.774	4.26
412.136	4.27
412.499	4.23
412.861	4.18
413.223	4.36
413.586	4.33
413.948	4.26
414.31	4.31
414.672	4.2
415.035	4.13
415.397	4.43
415.759	4.58
416.121	4.29
416.483	4.15
416.845	3.95
417.206	4.34
417.568	4.29
417.93	4.1
418.292	4.3
418.653	4.33
419.015	4.08
419.377	4.09
419.738	4.27
420.1	4.18
420.461	4.22
420.822	4.15
421.184	4.23
421.545	4.24
421.906	4.17
422.267	4.26
422.629	4.23
422.99	4.21
423.351	4.12
423.712	4.08
424.073	4.21
424.434	4.3
424.795	4.19
425.155	4.41
425.516	4.19
425.877	4.21
426.238	4.19
426.598	4.11
426.959	4.21
427.32	4.3
427.68	4.2
428.041	4.16
428.401	4.34
428.761	4.38
429.122	4.22
429.482	4.3
429.842	4.2
430.202	4.22
430.563	4.34
430.923	4.48
431.283	4.52
431.643	4.37
432.003	4.44
432.363	4.47
432.722	4.53
433.082	4.51
433.442	4.38
433.802	4.56
434.161	4.38
434.521	4.48
434.881	4.49
435.24	4.39
435.6	4.3
435.959	4.25
436.319	4.38
436.678	4.52
437.037	4.49
437.396	4.3
437.756	4.48
438.115	4.44
438.474	4.52
438.833	4.5
439.192	4.34
439.551	4.46
439.91	4.63
440.269	4.42
440.628	4.33
440.987	4.43
441.345	4.56
441.704	4.38
442.063	4.37
442.421	4.42
442.78	4.44
443.138	4.46
443.497	4.45
443.855	4.48
444.214	4.43
444.572	4.55
444.93	4.61
445.288	4.52
445.647	4.55
446.005	4.44
446.363	4.39
446.721	4.48
447.079	4.52
447.437	4.46
447.795	4.61
448.153	4.42
448.51	4.49
448.868	4.39
449.226	4.47
449.584	4.48
449.941	4.37
450.299	4.47
450.656	4.58
451.014	4.61
451.371	4.64
451.729	4.59
452.086	4.58
452.443	4.54
452.801	4.62
453.158	4.62
453.515	4.66
453.872	4.62
454.229	4.54
454.586	4.7
454.943	4.65
455.3	4.45
455.657	4.53
456.014	4.61
456.371	4.72
456.727	4.78
457.084	4.62
457.441	4.5
457.797	4.67
458.154	4.54
458.51	4.65
458.867	4.53
459.223	4.64
459.58	4.75
459.936	4.75
460.292	4.74
460.648	4.87
461.005	4.7
461.361	4.73
461.717	4.44
462.073	4.45
462.429	4.44
462.785	4.58
463.141	4.56
463.496	4.68
463.852	4.75
464.208	4.54
464.564	4.79
464.919	4.76
465.275	4.81
465.631	4.7
465.986	4.72
466.342	4.92
466.697	4.82
467.052	4.68
467.408	4.79
467.763	4.8
468.118	4.88
468.473	4.72
468.829	4.71
469.184	4.81
469.539	4.71
469.894	4.82
470.249	4.7
470.603	4.72
470.958	4.86
471.313	4.91
471.668	4.84
472.023	4.85
472.377	4.87
472.732	4.83
473.086	5.07
473.441	4.69
473.795	5.05
474.15	4.87
474.504	4.64
474.859	4.9
475.213	4.65
475.567	4.76
475.921	4.87
476.275	4.96
476.63	4.89
476.984	4.93
477.338	4.97
477.692	5
478.045	5.05
478.399	5.04
478.753	4.79
479.107	5.01
479.461	4.93
479.814	4.91
480.168	4.83
480.521	4.93
480.875	5
481.228	4.85
481.582	4.92
481.935	4.9
482.289	4.81
482.642	4.79
482.995	4.98
483.348	4.97
483.701	4.88
484.055	4.94
484.408	4.86
484.761	4.92
485.114	4.78
485.466	4.69
485.819	4.64
486.172	4.61
486.525	4.63
486.878	4.63
487.23	4.68
487.583	4.77
487.936	4.75
488.288	4.8
488.641	4.81
488.993	4.76
489.345	4.76
489.698	4.7
490.05	4.7
490.402	4.77
490.754	4.74
491.107	4.78
491.459	4.86
491.811	4.9
492.163	4.94
492.515	4.89
492.866	4.92
493.218	4.98
493.57	4.95
493.922	4.79
494.274	4.84
494.625	4.91
494.977	4.92
495.328	5.1
495.68	5.07
496.031	5.14
496.383	5.1
496.734	5.14
497.086	5.09
497.437	5.15
497.788	5.15
498.139	5.13
498.49	5.26
498.842	5.06
499.193	5.19
499.544	5.15
499.894	5.11
500.245	5.09
500.596	5.26
500.947	5.23
501.298	5.25
501.648	5.25
501.999	5.25
502.35	5.2
502.7	5.35
503.051	5.3
503.401	5.25
503.752	5.37
504.102	5.26
504.452	5.33
504.803	5.37
505.153	5.27
505.503	5.35
505.853	5.39
506.203	5.34
506.553	5.34
506.903	5.36
507.253	5.24
507.603	5.42
507.953	5.48
508.303	5.41
508.652	5.39
509.002	5.46
509.352	5.4
509.701	5.46
510.051	5.52
510.4	5.45
510.75	5.39
511.099	5.31
511.449	5.29
511.798	5.43
512.147	5.4
512.496	5.45
512.846	5.39
513.195	5.46
513.544	5.39
513.893	5.46
514.242	5.41
514.591	5.47
514.939	5.51
515.288	5.39
515.637	5.49
515.986	5.43
516.334	5.58
516.683	5.59
517.032	5.64
517.38	5.61
517.729	5.57
518.077	5.58
518.426	5.66
518.774	5.56
519.122	5.57
519.47	5.52
519.819	5.57
520.167	5.61
520.515	5.55
520.863	5.49
521.211	5.46
521.559	5.55
521.907	5.57
522.255	5.58
522.602	5.63
522.95	5.59
523.298	5.74
523.645	5.76
523.993	5.64
524.341	5.66
524.688	5.82
525.036	5.72
525.383	5.8
525.73	5.78
526.078	5.79
526.425	5.83
526.772	5.77
527.119	5.75
527.466	5.59
527.814	5.65
528.161	5.59
528.508	5.67
528.854	5.7
529.201	5.74
529.548	5.66
529.895	5.7
530.242	5.61
530.588	5.59
530.935	5.51
531.282	5.52
531.628	5.63
531.975	5.6
532.321	5.64
532.667	5.76
533.014	5.78
533.36	5.86
533.706	5.9
534.052	5.97
534.399	5.9
534.745	5.84
535.091	5.79
535.437	5.74
535.783	5.72
536.129	5.84
536.474	5.94
536.82	5.84
537.166	6.04
537.512	6.06
537.857	6
538.203	6.08
538.549	6
538.894	6
539.239	6.01
539.585	5.98
539.93	6.15
540.276	6.09
540.621	6.19
540.966	6.2
541.311	6.21
541.656	6.11
542.001	6.24
542.346	6.32
542.691	6.26
543.036	6.18
543.381	6.03
543.726	6.07
544.071	6.07
544.415	6.03
544.76	6.1
545.105	6.09
545.449	6.13
545.794	6.23
546.138	6.28
546.483	6.22
546.827	6.18
547.171	6.37
547.516	6.43
547.86	6.49
548.204	6.53
548.548	6.44
548.892	6.59
549.236	6.35
549.58	6.43
549.924	6.53
550.268	6.63
550.612	6.44
550.956	6.61
551.3	6.66
551.643	6.76
551.987	6.8
552.33	6.91
552.674	6.78
553.017	6.66
553.361	6.64
553.704	6.89
554.048	6.99
554.391	6.79
554.734	6.86
555.077	6.72
555.42	6.72
555.764	6.72
556.107	6.86
556.45	6.77
556.793	6.83
557.135	6.94
557.478	6.75
557.821	7.03
558.164	7.08
558.507	7.1
558.849	6.85
559.192	7.16
559.534	7.24
559.877	7.2
560.219	7.04
560.562	7.2
560.904	7.25
561.246	7.57
561.589	7.26
561.931	7.36
562.273	7.15
562.615	7.24
562.957	7.16
563.299	7.34
563.641	7.35
563.983	7.49
564.325	7.58
564.667	7.56
565.008	7.43
565.35	7.55
565.692	7.38
566.033	7.49
566.375	7.27
566.716	7.4
567.058	7.4
567.399	7.53
567.741	7.69
568.082	7.47
568.423	7.66
568.764	7.71
569.105	7.47
569.447	7.54
569.788	7.37
570.129	7.71
570.47	7.55
570.811	7.61
571.151	7.83
571.492	7.75
571.833	7.74
572.174	7.78
572.514	8.01
572.855	7.76
573.195	7.56
573.536	7.79
573.876	7.82
574.217	7.86
574.557	7.9
574.898	7.84
575.238	7.76
575.578	7.92
575.918	7.85
576.258	7.69
576.598	7.87
576.938	8.12
577.278	8.17
577.618	7.86
577.958	8.15
578.298	8.08
578.638	8.07
578.977	8.29
579.317	7.97
579.657	8.21
579.996	8.3
580.336	8.1
580.675	8.31
581.014	8.11
581.354	8.33
581.693	8.46
582.032	8.46
582.372	8.61
582.711	8.35
583.05	8.35
583.389	8.41
583.728	8.68
584.067	8.65
584.406	8.66
584.745	8.51
585.083	8.68
585.422	8.64
585.761	8.6
586.1	8.57
586.438	8.61
586.777	8.62
587.115	8.68
587.454	8.46
587.792	8.83
588.13	8.94
588.469	8.89
588.807	9
589.145	9.03
589.483	8.87
589.821	8.88
590.159	8.94
590.497	9.25
590.835	9.19
591.173	8.91
591.511	9.1
591.849	8.82
592.187	9.06
592.524	9.23
592.862	9.08
593.2	9.03
593.537	9.01
593.875	9.14
594.212	9.24
594.55	9.47
594.887	9.1
595.224	9.53
595.561	9.63
595.899	9.46
596.236	9.59
596.573	9.46
596.91	9.52
597.247	9.22
597.584	9.55
597.921	9.73
598.258	9.52
598.594	9.66
598.931	9.62
599.268	9.54
599.604	9.64
599.941	9.62
600.277	9.64
600.614	9.66
600.95	9.78
601.287	9.83
601.623	9.67
601.959	9.9
602.296	9.91
602.632	9.63
602.968	9.98
603.304	10.02
603.64	10.02
603.976	9.95
604.312	10.04
604.648	10.2
604.984	10.14
605.319	10.06
605.655	9.89
605.991	9.98
606.326	10.18
606.662	10.05
606.998	10.08
607.333	10.3
607.668	10.14
608.004	10.4
608.339	9.99
608.674	10.22
609.01	10.37
609.345	10.57
609.68	10.59
610.015	10.58
610.35	10.45
610.685	10.61
611.02	10.57
611.355	10.8
611.689	10.48
612.024	10.52
612.359	10.38
612.694	10.47
613.028	10.52
613.363	10.49
613.697	10.74
614.032	10.64
614.366	10.95
614.7	10.87
615.035	10.71
615.369	11.04
615.703	10.6
616.037	11.15
616.371	11.27
616.705	11.13
617.039	11.2
617.373	11.16
617.707	11.12
618.041	11.15
618.375	11.05
618.709	11.31
619.042	11.46
619.376	11.38
619.71	11.33
620.043	11.03
620.377	11.1
620.71	11.09
621.043	11.43
621.377	11.41
621.71	11.71
622.043	11.43
622.376	11.6
622.709	11.27
623.043	11.48
623.376	11.73
623.709	11.64
624.041	11.56
624.374	12.03
624.707	11.8
625.04	11.62
625.373	11.23
625.705	11.7
626.038	11.72
626.37	12.02
626.703	11.92
627.035	12.01
627.368	11.7
627.7	12.32
628.032	11.92
628.365	12.06
628.697	11.85
629.029	12.22
629.361	12.04
629.693	12.07
630.025	12.12
630.357	11.88
630.689	12.36
631.021	12.03
631.353	12.07
631.684	12.02
632.016	12.14
632.348	12.44
632.679	12.32
633.011	12.45
633.342	12.3
633.674	12.76
634.005	12.66
634.336	12.5
634.668	12.84
634.999	12.65
635.33	12.62
635.661	12.7
635.992	12.35
636.323	12.46
636.654	12.13
636.985	12.57
637.316	12.59
637.647	12.93
637.977	12.68
638.308	12.91
638.639	12.91
638.969	12.74
639.3	12.88
639.63	13.26
639.961	12.74
640.291	12.95
640.622	12.94
640.952	12.93
641.282	13.07
641.612	13.19
641.943	13.35
642.273	13.35
642.603	13.19
642.933	13.02
643.263	13.12
643.592	13.13
643.922	13.43
644.252	13.4
644.582	13.79
644.911	13.19
645.241	13.71
645.571	13.32
645.9	13.72
646.23	13.15
646.559	13.79
646.888	13.76
647.218	13.56
647.547	13.81
647.876	14.05
648.205	13.59
648.534	14.07
648.863	13.78
649.192	13.4
649.521	13.76
649.85	14.04
650.179	13.75
650.508	13.79
650.837	13.95
651.165	14.04
651.494	14.55
651.822	14.5
652.151	14.01
652.479	13.88
652.808	13.87
653.136	14.35
653.465	13.93
653.793	13.78
654.121	14.46
654.449	14.02
654.777	14.36
655.105	14.33
655.433	14.3
655.761	14.73
656.089	14.69
656.417	14.38
656.745	14.26
657.073	14.55
657.4	14.74
657.728	14.58
658.056	14.96
658.383	14.81
658.711	15.17
659.038	14.46
659.365	14.6
659.693	14.57
660.02	14.77
660.347	14.77
660.674	14.3
661.001	14.79
661.329	14.88
661.656	14.95
661.982	14.78
662.309	15.09
662.636	14.49
662.963	15.08
663.29	15.17
663.616	15.08
663.943	15.45
664.27	15.42
664.596	15.35
664.923	15.14
665.249	15.33
665.576	15.06
665.902	15.37
666.228	15.18
666.554	15.03
666.881	15.46
667.207	15.1
667.533	14.98
667.859	15.65
668.185	15.75
668.511	15.9
668.837	15.34
669.162	15.71
669.488	15.78
669.814	15.45
670.139	15.24
670.465	16.24
670.791	16.42
671.116	16.16
671.442	16.53
671.767	15.44
672.092	16.33
672.418	16.24
672.743	15.84
673.068	15.61
673.393	15.67
673.718	15.98
674.043	16.23
674.368	16.45
674.693	15.98
675.018	16
675.343	15.84
675.667	15.83
675.992	15.93
676.317	16.74
676.641	15.83
676.966	16.59
677.29	15.82
677.615	16.59
677.939	16.77
678.264	15.8
678.588	17.22
678.912	17.12
679.236	16.61
679.56	16.46
679.885	16.47
680.209	17.63
680.532	16.92
680.856	16.17
681.18	16.57
681.504	16.46
681.828	16.67
682.152	16.91
682.475	17.16
682.799	17.03
683.122	16.9
683.446	16.63
683.769	16.95
684.093	17.05
684.416	17.39
684.739	17.28
685.062	18.08
685.386	16.89
685.709	17.04
686.032	16.78
686.355	17.28
686.678	17.26
687.001	17.21
