Data from 0221_forehead_Reflection__3__281.txt Node

Date: Fri Sep 22 22:57:29 CDT 2023
User: ToomeyLab
Spectrometer: FLMS14357
Trigger mode: 0
Integration Time (sec): 1.000000E-2
Scans to average: 100
Electric dark correction enabled: true
Nonlinearity correction enabled: false
Boxcar width: 0
XAxis mode: Wavelengths
Number of Pixels in Spectrum: 2048
>>>>>Begin Spectral Data<<<<<
189.047	-292.31
189.435	-292.31
189.823	-292.31
190.211	-104.54
190.599	101.38
190.987	143.07
191.375	-190.64
191.763	-269.77
192.151	87.01
192.538	291.93
192.926	48.22
193.314	515.33
193.702	3320.79
194.089	69.3
194.477	-120
194.864	15.67
195.252	19.06
195.639	68.1
196.027	102.23
196.414	-226.04
196.801	-241.14
197.189	76.77
197.576	69.94
197.963	-91.77
198.351	88.79
198.738	41.1
199.125	58.5
199.512	35.44
199.899	44.02
200.286	26.66
200.673	23.85
201.06	76.02
201.447	45.95
201.833	-18.76
202.22	0.84
202.607	48.71
202.994	51.8
203.38	46.09
203.767	20.48
204.154	55.64
204.54	19.38
204.927	37.17
205.313	-4.89
205.699	39.62
206.086	66.25
206.472	40.87
206.858	17.7
207.245	-13.83
207.631	23.85
208.017	48.81
208.403	41.08
208.789	51.97
209.175	57.35
209.561	56.6
209.947	57.22
210.333	54.98
210.719	50.78
211.105	68.62
211.491	43.91
211.876	49.66
212.262	20.33
212.648	31.68
213.034	32.82
213.419	34.88
213.805	-21.95
214.19	36.45
214.576	30.92
214.961	17.01
215.346	59.55
215.732	61.4
216.117	-5.33
216.502	54.6
216.888	25.75
217.273	28.27
217.658	27.49
218.043	21.25
218.428	29.84
218.813	6.67
219.198	0.56
219.583	23.15
219.968	18.41
220.353	38.11
220.738	11.71
221.122	24.67
221.507	9.02
221.892	11.26
222.276	10.53
222.661	-10.58
223.046	12.4
223.43	31.9
223.815	21.38
224.199	21.12
224.583	20.94
224.968	7.21
225.352	12.71
225.736	15.45
226.121	12.4
226.505	0.95
226.889	13.02
227.273	10.33
227.657	20.77
228.041	11.58
228.425	15.27
228.809	4.64
229.193	6.75
229.577	9.18
229.961	8.7
230.344	6.8
230.728	5.32
231.112	5.95
231.495	5.81
231.879	5.2
232.263	4.56
232.646	5.99
233.03	4.12
233.413	4.85
233.797	6.27
234.18	5.91
234.563	8.54
234.946	6.61
235.33	3.46
235.713	3.27
236.096	5.95
236.479	4.9
236.862	6.73
237.245	5.91
237.628	7.12
238.011	6.01
238.394	5.6
238.777	6.12
239.16	6.46
239.543	5.79
239.925	6.68
240.308	6.5
240.691	6.56
241.073	6.27
241.456	4.89
241.838	5.23
242.221	4.37
242.603	5.1
242.986	5.38
243.368	5.09
243.75	5.75
244.133	5.62
244.515	4.87
244.897	4.09
245.279	4.93
245.661	5.15
246.043	5.2
246.425	4.47
246.807	5.8
247.189	4.2
247.571	6.29
247.953	5.15
248.335	5.45
248.717	4.87
249.098	4.87
249.48	4.65
249.862	4.41
250.243	4.86
250.625	5.07
251.006	4.24
251.388	4.83
251.769	5.64
252.151	4.78
252.532	5.77
252.913	6.28
253.295	6.19
253.676	6.04
254.057	5.17
254.438	5.32
254.819	4.8
255.2	4.82
255.581	5.1
255.962	5.2
256.343	3.64
256.724	3.26
257.105	5.91
257.486	5.28
257.867	5.34
258.247	4.59
258.628	5.94
259.009	5.12
259.389	4.54
259.77	5.88
260.15	5.68
260.531	5.27
260.911	4.85
261.292	4.62
261.672	4.37
262.052	4.6
262.432	4.67
262.813	4.63
263.193	4.52
263.573	4.97
263.953	5.2
264.333	4.72
264.713	4.47
265.093	4.22
265.473	4.65
265.853	4.45
266.233	5.16
266.612	5.22
266.992	5
267.372	4.71
267.752	5.61
268.131	4.34
268.511	4.76
268.89	5.09
269.27	4.68
269.649	4.25
270.029	4.59
270.408	5.17
270.787	4.68
271.167	4.34
271.546	4.34
271.925	5.27
272.304	4.81
272.683	5.17
273.062	5.77
273.441	4.59
273.82	4.78
274.199	4.93
274.578	4.96
274.957	4.35
275.336	4.47
275.715	4.89
276.093	4.4
276.472	4.81
276.851	4.87
277.229	4.29
277.608	4.97
277.986	4.72
278.365	5.78
278.743	4.88
279.122	5.14
279.5	4.91
279.878	4.63
280.257	5.25
280.635	4.5
281.013	5.74
281.391	4.06
281.769	4.86
282.147	4.72
282.525	4.92
282.903	4.58
283.281	5.18
283.659	4.5
284.037	4.38
284.415	4.84
284.792	5.31
285.17	5.14
285.548	5.2
285.925	4.73
286.303	4.5
286.68	4.3
287.058	4.35
287.435	4.54
287.813	4.65
288.19	4.03
288.567	4.62
288.945	4.64
289.322	4.55
289.699	4.76
290.076	4.81
290.453	4.63
290.83	4.24
291.207	4.51
291.584	4.47
291.961	4.83
292.338	5.12
292.715	4.87
293.092	4.69
293.469	5.06
293.845	4.53
294.222	4.97
294.599	4.81
294.975	5.55
295.352	4.55
295.728	4.59
296.105	4.94
296.481	5.04
296.858	4.97
297.234	4.92
297.61	5.03
297.986	5.12
298.363	4.94
298.739	5.1
299.115	5.34
299.491	5.11
299.867	4.98
300.243	4.99
300.619	5.29
300.995	5.01
301.371	5.38
301.746	5.49
302.122	4.96
302.498	4.92
302.874	4.66
303.249	5.13
303.625	4.71
304	5.49
304.376	5.52
304.751	5.43
305.127	5.25
305.502	5.34
305.878	5.54
306.253	5.7
306.628	5.61
307.003	5.25
307.378	5.54
307.754	5.19
308.129	5.73
308.504	5.54
308.879	6.23
309.254	6.18
309.629	5.89
310.003	5.82
310.378	6.24
310.753	5.78
311.128	5.51
311.502	6.01
311.877	5.52
312.252	5.79
312.626	5.82
313.001	6.02
313.375	5.82
313.75	6.04
314.124	5.99
314.498	5.6
314.873	5.74
315.247	5.98
315.621	5.8
315.995	5.74
316.369	6.19
316.743	6.09
317.117	6.49
317.491	6.56
317.865	5.97
318.239	6.34
318.613	6.03
318.987	6.02
319.361	5.73
319.734	6.45
320.108	5.85
320.482	5.79
320.855	6.34
321.229	6.73
321.602	6.59
321.976	6.04
322.349	6.52
322.723	6.32
323.096	6.5
323.469	6.39
323.843	7.04
324.216	6.6
324.589	6.6
324.962	5.99
325.335	6.44
325.708	6.47
326.081	6.87
326.454	6.15
326.827	6.62
327.2	6.22
327.573	7.01
327.945	7.18
328.318	6.92
328.691	6.81
329.063	6.32
329.436	6.91
329.809	6.86
330.181	6.67
330.553	6.75
330.926	6.74
331.298	7.14
331.671	7.42
332.043	6.53
332.415	6.89
332.787	7.15
333.159	7.25
333.532	6.52
333.904	6.85
334.276	6.56
334.648	6.98
335.02	6.61
335.391	6.64
335.763	7.56
336.135	7.31
336.507	7.08
336.879	7.52
337.25	7.15
337.622	7.7
337.993	7.12
338.365	7.25
338.736	7.4
339.108	7.44
339.479	7.71
339.851	6.81
340.222	6.95
340.593	6.87
340.964	7.12
341.336	7.09
341.707	7.42
342.078	7.52
342.449	7.41
342.82	7.35
343.191	6.99
343.562	7.27
343.933	7.7
344.303	7.18
344.674	7.63
345.045	7.93
345.416	7.72
345.786	7.42
346.157	7.45
346.527	8.07
346.898	7.43
347.268	7.41
347.639	7.76
348.009	7.71
348.38	8.04
348.75	8.05
349.12	7.87
349.49	8.06
349.861	7.89
350.231	7.39
350.601	7.79
350.971	8.15
351.341	7.82
351.711	8.03
352.081	7.72
352.45	7.92
352.82	8.22
353.19	8.44
353.56	8.1
353.929	8.02
354.299	8.27
354.669	7.51
355.038	8.21
355.408	8.05
355.777	8.84
356.147	8.31
356.516	8.1
356.885	8.03
357.254	8.4
357.624	7.9
357.993	8.39
358.362	8.3
358.731	8.62
359.1	8.46
359.469	8.12
359.838	7.86
360.207	8.29
360.576	8.36
360.945	8.32
361.314	8.45
361.682	8.65
362.051	8.73
362.42	8.54
362.788	8.36
363.157	8.51
363.525	8.33
363.894	8.4
364.262	8.66
364.631	8.59
364.999	8.71
365.367	8.75
365.735	8.67
366.104	8.6
366.472	8.74
366.84	8.64
367.208	9.39
367.576	9.13
367.944	8.62
368.312	8.89
368.68	9.02
369.048	9.24
369.416	9.18
369.783	8.76
370.151	8.88
370.519	9.28
370.886	9.24
371.254	9.4
371.621	9.17
371.989	9.37
372.356	9.13
372.724	9.77
373.091	9.43
373.458	9.34
373.826	9.43
374.193	9.38
374.56	9.59
374.927	9.39
375.294	9.21
375.661	9.59
376.028	9.54
376.395	9.58
376.762	9.47
377.129	9.43
377.496	9.76
377.863	9.72
378.229	9.66
378.596	9.68
378.963	9.83
379.329	9.7
379.696	9.8
380.062	9.74
380.429	9.76
380.795	9.77
381.161	10.05
381.528	9.95
381.894	9.61
382.26	10.08
382.626	9.94
382.993	10.01
383.359	9.86
383.725	9.89
384.091	9.97
384.457	9.97
384.823	10.32
385.188	10.29
385.554	10.1
385.92	10.67
386.286	10.27
386.651	10.09
387.017	10.2
387.383	10.33
387.748	10.46
388.114	10.35
388.479	10.49
388.845	10.07
389.21	10.37
389.575	10.81
389.94	10.22
390.306	10.67
390.671	10.72
391.036	10.24
391.401	10.91
391.766	10.4
392.131	10.76
392.496	10.6
392.861	10.53
393.226	10.64
393.591	10.71
393.956	10.52
394.32	10.64
394.685	10.57
395.05	10.96
395.414	10.98
395.779	10.75
396.143	10.99
396.508	10.91
396.872	10.93
397.236	11.02
397.601	10.94
397.965	11.31
398.329	11.24
398.694	11.25
399.058	11.21
399.422	11.39
399.786	11.32
400.15	11.46
400.514	11.3
400.878	11.28
401.242	11.57
401.605	11.24
401.969	11.38
402.333	11.37
402.697	11.35
403.06	11.51
403.424	11.37
403.787	11.65
404.151	11.6
404.514	11.52
404.878	11.66
405.241	11.81
405.604	11.63
405.968	11.65
406.331	11.62
406.694	11.73
407.057	11.39
407.42	11.81
407.783	11.76
408.146	11.76
408.509	11.67
408.872	11.7
409.235	11.92
409.598	11.94
409.961	12.1
410.323	11.91
410.686	12.14
411.049	12.17
411.411	12.24
411.774	11.79
412.136	12.15
412.499	11.97
412.861	12.06
413.223	12.25
413.586	12.14
413.948	11.85
414.31	12.39
414.672	12.31
415.035	12.27
415.397	12.32
415.759	12.56
416.121	12.34
416.483	12.19
416.845	12.37
417.206	12.27
417.568	12.44
417.93	12.36
418.292	12.45
418.653	12.29
419.015	12.54
419.377	12.24
419.738	12.54
420.1	12.45
420.461	12.45
420.822	12.32
421.184	12.4
421.545	12.47
421.906	12.32
422.267	12.43
422.629	12.49
422.99	12.26
423.351	12.28
423.712	12.28
424.073	12.34
424.434	12.58
424.795	12.58
425.155	12.72
425.516	12.56
425.877	12.55
426.238	12.58
426.598	12.54
426.959	12.66
427.32	12.75
427.68	12.61
428.041	12.75
428.401	12.79
428.761	13.13
429.122	13.01
429.482	13
429.842	13.1
430.202	13.1
430.563	13.37
430.923	13.44
431.283	13.31
431.643	13.36
432.003	13.14
432.363	13.27
432.722	13.42
433.082	13.51
433.442	13.47
433.802	13.58
434.161	13.53
434.521	13.56
434.881	13.51
435.24	13.38
435.6	13.46
435.959	13.43
436.319	13.62
436.678	13.65
437.037	13.63
437.396	13.63
437.756	13.76
438.115	13.78
438.474	13.82
438.833	13.93
439.192	13.97
439.551	13.94
439.91	14.09
440.269	13.89
440.628	13.74
440.987	13.93
441.345	14.06
441.704	14.03
442.063	13.82
442.421	13.81
442.78	13.96
443.138	14.03
443.497	13.96
443.855	14.08
444.214	14.17
444.572	14.16
444.93	14.24
445.288	14.22
445.647	14.33
446.005	14.28
446.363	14.12
446.721	14.43
447.079	14.31
447.437	14.3
447.795	14.33
448.153	14.16
448.51	14.25
448.868	14.12
449.226	14.26
449.584	14.4
449.941	14.35
450.299	14.49
450.656	14.61
451.014	14.7
451.371	14.79
451.729	14.87
452.086	14.74
452.443	14.81
452.801	14.99
453.158	14.97
453.515	14.97
453.872	15.09
454.229	15.02
454.586	15.02
454.943	15.02
455.3	15.11
455.657	15.04
456.014	15.27
456.371	15.27
456.727	15.26
457.084	15.33
457.441	15.2
457.797	15.3
458.154	15.29
458.51	15.32
458.867	15.38
459.223	15.42
459.58	15.44
459.936	15.56
460.292	15.44
460.648	15.55
461.005	15.46
461.361	15.52
461.717	15.4
462.073	15.25
462.429	15.21
462.785	15.26
463.141	15.43
463.496	15.71
463.852	15.78
464.208	15.69
464.564	15.9
464.919	15.88
465.275	15.95
465.631	16.13
465.986	16.07
466.342	15.98
466.697	16.16
467.052	16.14
467.408	16.01
467.763	16.19
468.118	16.43
468.473	16.21
468.829	16.31
469.184	16.24
469.539	16.18
469.894	16.31
470.249	16.33
470.603	16.26
470.958	16.38
471.313	16.67
471.668	16.58
472.023	16.6
472.377	16.53
472.732	16.61
473.086	16.63
473.441	16.63
473.795	16.71
474.15	16.66
474.504	16.66
474.859	16.74
475.213	16.54
475.567	16.74
475.921	16.98
476.275	16.84
476.63	16.88
476.984	16.81
477.338	17.16
477.692	16.94
478.045	17.23
478.399	17.19
478.753	17.09
479.107	16.98
479.461	16.97
479.814	17.23
480.168	17.25
480.521	17.21
480.875	17.21
481.228	17.1
481.582	17.09
481.935	17.26
482.289	17.32
482.642	17.04
482.995	17.35
483.348	17.44
483.701	17.21
484.055	17.27
484.408	17.2
484.761	17.25
485.114	17.04
485.466	16.88
485.819	16.59
486.172	16.54
486.525	16.66
486.878	16.7
487.23	16.83
487.583	17.06
487.936	17.19
488.288	17.15
488.641	17.38
488.993	17.2
489.345	17.17
489.698	17.06
490.05	17.11
490.402	17.14
490.754	17.24
491.107	17.29
491.459	17.51
491.811	17.65
492.163	17.72
492.515	17.88
492.866	17.87
493.218	17.9
493.57	17.69
493.922	17.46
494.274	17.45
494.625	17.71
494.977	17.84
495.328	18.08
495.68	18.13
496.031	18.31
496.383	18.49
496.734	18.52
497.086	18.58
497.437	18.7
497.788	18.6
498.139	18.74
498.49	18.82
498.842	18.67
499.193	18.49
499.544	18.66
499.894	18.64
500.245	18.8
500.596	18.79
500.947	18.86
501.298	18.92
501.648	18.95
501.999	19.06
502.35	19.07
502.7	19.15
503.051	19.24
503.401	19.29
503.752	19.29
504.102	19.4
504.452	19.36
504.803	19.24
505.153	19.38
505.503	19.31
505.853	19.6
506.203	19.45
506.553	19.53
506.903	19.7
507.253	19.58
507.603	19.68
507.953	19.61
508.303	19.67
508.652	19.73
509.002	19.75
509.352	19.69
509.701	19.85
510.051	19.83
510.4	19.96
510.75	19.83
511.099	19.65
511.449	19.85
511.798	19.91
512.147	19.8
512.496	19.85
512.846	19.87
513.195	19.88
513.544	20
513.893	20.08
514.242	20.1
514.591	20.12
514.939	20.28
515.288	20.12
515.637	20.24
515.986	20.25
516.334	20.42
516.683	20.32
517.032	20.47
517.38	20.74
517.729	20.37
518.077	20.48
518.426	20.85
518.774	20.46
519.122	20.75
519.47	20.59
519.819	20.63
520.167	20.6
520.515	20.49
520.863	20.36
521.211	20.52
521.559	20.55
521.907	20.61
522.255	20.63
522.602	20.78
522.95	20.91
523.298	21.1
523.645	21.01
523.993	21.14
524.341	21.1
524.688	21.2
525.036	21.25
525.383	21.29
525.73	21.34
526.078	21.21
526.425	21.38
526.772	21.45
527.119	21.24
527.466	21.18
527.814	20.99
528.161	21.08
528.508	21.16
528.854	21.22
529.201	21.24
529.548	21.18
529.895	21.14
530.242	20.98
530.588	20.87
530.935	20.77
531.282	20.83
531.628	20.99
531.975	21.1
532.321	21.15
532.667	21.27
533.014	21.52
533.36	21.61
533.706	21.76
534.052	21.84
534.399	21.81
534.745	21.83
535.091	21.59
535.437	21.44
535.783	21.46
536.129	21.59
536.474	21.75
536.82	21.8
537.166	22.04
537.512	22.24
537.857	22.17
538.203	22.41
538.549	22.28
538.894	22.18
539.239	22.13
539.585	22.34
539.93	22.39
540.276	22.56
540.621	22.58
540.966	22.66
541.311	22.79
541.656	22.8
542.001	22.9
542.346	22.88
542.691	22.86
543.036	22.7
543.381	22.32
543.726	22.28
544.071	22.29
544.415	22.48
544.76	22.54
545.105	22.65
545.449	22.76
545.794	22.82
546.138	22.99
546.483	23.1
546.827	23.2
547.171	23.38
547.516	23.43
547.86	23.45
548.204	23.58
548.548	23.43
548.892	23.38
549.236	23.46
549.58	23.45
549.924	23.57
550.268	23.81
550.612	23.86
550.956	23.92
551.3	24.17
551.643	23.99
551.987	24.36
552.33	24.31
552.674	24.43
553.017	24.29
553.361	24.32
553.704	24.35
554.048	24.43
554.391	24.38
554.734	24.36
555.077	24.31
555.42	24.28
555.764	24.36
556.107	24.64
556.45	24.6
556.793	24.61
557.135	24.64
557.478	24.67
557.821	24.84
558.164	25.12
558.507	25.06
558.849	24.88
559.192	25.05
559.534	25.35
559.877	25.04
560.219	25.13
560.562	25.14
560.904	25.27
561.246	25.46
561.589	25.47
561.931	25.4
562.273	25.46
562.615	25.29
562.957	25.42
563.299	25.62
563.641	25.69
563.983	25.58
564.325	25.61
564.667	25.58
565.008	25.64
565.35	25.73
565.692	25.52
566.033	26
566.375	26.18
566.716	25.89
567.058	25.88
567.399	25.91
567.741	25.95
568.082	25.86
568.423	25.78
568.764	25.95
569.105	25.71
569.447	25.89
569.788	25.96
570.129	26.25
570.47	26.45
570.811	26.44
571.151	26.5
571.492	26.23
571.833	26.49
572.174	26.34
572.514	26.53
572.855	26.25
573.195	26.5
573.536	26.52
573.876	26.44
574.217	26.45
574.557	26.46
574.898	26.41
575.238	26.55
575.578	26.72
575.918	26.79
576.258	26.72
576.598	26.82
576.938	26.88
577.278	27.05
577.618	26.76
577.958	27.13
578.298	26.96
578.638	27.14
578.977	27.07
579.317	27.21
579.657	27.18
579.996	27.23
580.336	27.55
580.675	27.42
581.014	27.25
581.354	27.53
581.693	27.86
582.032	27.57
582.372	27.58
582.711	27.65
583.05	27.96
583.389	27.86
583.728	28.09
584.067	28.07
584.406	28.07
584.745	27.93
585.083	28.12
585.422	28.09
585.761	28.17
586.1	28.05
586.438	28.43
586.777	28.09
587.115	28.26
587.454	28.21
587.792	28.47
588.13	28.45
588.469	28.41
588.807	28.49
589.145	28.55
589.483	28.46
589.821	28.61
590.159	28.36
590.497	28.53
590.835	28.85
591.173	28.57
591.511	28.73
591.849	28.83
592.187	28.55
592.524	28.99
592.862	29.09
593.2	29
593.537	28.57
593.875	29.02
594.212	28.77
594.55	29.15
594.887	28.87
595.224	29.09
595.561	29.16
595.899	29.1
596.236	29.29
596.573	29.36
596.91	29.39
597.247	29.21
597.584	29.58
597.921	29.28
598.258	29.43
598.594	29.23
598.931	29.39
599.268	29.23
599.604	29.31
599.941	29.14
600.277	29.36
600.614	29.49
600.95	29.64
601.287	29.4
601.623	29.54
601.959	29.88
602.296	30.03
602.632	29.87
602.968	30.11
603.304	30.31
603.64	30.35
603.976	29.99
604.312	30.15
604.648	30.08
604.984	30.36
605.319	30.32
605.655	30.1
605.991	30.11
606.326	30.09
606.662	30.03
606.998	30.1
607.333	30.1
607.668	30.05
608.004	30.28
608.339	29.9
608.674	30.38
609.01	30.69
609.345	30.72
609.68	30.93
610.015	30.77
610.35	30.53
610.685	31.07
611.02	30.88
611.355	30.76
611.689	31.01
612.024	30.51
612.359	30.68
612.694	30.78
613.028	30.74
613.363	30.63
613.697	30.91
614.032	31.07
614.366	31.19
614.7	31.36
615.035	31.12
615.369	31.26
615.703	31.29
616.037	31.52
616.371	31.71
616.705	31.53
617.039	31.41
617.373	31.89
617.707	31.67
618.041	31.78
618.375	31.94
618.709	31.58
619.042	31.77
619.376	31.9
619.71	31.96
620.043	31.8
620.377	32.07
620.71	31.87
621.043	31.82
621.377	31.8
621.71	32.23
622.043	32
622.376	32.19
622.709	31.84
623.043	32.26
623.376	32.12
623.709	32.51
624.041	32.37
624.374	32.29
624.707	32.57
625.04	32.14
625.373	32.04
625.705	32.63
626.038	32.71
626.37	32.83
626.703	32.73
627.035	32.72
627.368	32.51
627.7	32.65
628.032	32.57
628.365	33.02
628.697	32.85
629.029	32.84
629.361	32.96
629.693	33.06
630.025	32.82
630.357	32.51
630.689	32.75
631.021	32.89
631.353	32.95
631.684	32.98
632.016	33
632.348	33.36
632.679	33.12
633.011	33.19
633.342	33.51
633.674	33.57
634.005	33.4
634.336	33.64
634.668	33.75
634.999	33.59
635.33	33.36
635.661	33.27
635.992	33.01
636.323	33.39
636.654	33.4
636.985	33.76
637.316	33.67
637.647	33.93
637.977	33.58
638.308	33.9
638.639	33.92
638.969	34.07
639.3	34.03
639.63	34.13
639.961	34.02
640.291	33.98
640.622	34.3
640.952	34.36
641.282	34.26
641.612	34.19
641.943	34.85
642.273	34.25
642.603	34.17
642.933	34.38
643.263	33.93
643.592	34.68
643.922	34.65
644.252	34.45
644.582	34.42
644.911	34.45
645.241	34.43
645.571	34.59
645.9	34.95
646.23	34.6
646.559	35.12
646.888	35.01
647.218	34.54
647.547	34.67
647.876	34.66
648.205	34.64
648.534	35.39
648.863	35.06
649.192	35.09
649.521	35.07
649.85	35.09
650.179	35.33
650.508	34.76
650.837	35.29
651.165	34.99
651.494	35.38
651.822	35.12
652.151	35.18
652.479	35.51
652.808	35.48
653.136	35.96
653.465	35.66
653.793	35.38
654.121	35.92
654.449	35.85
654.777	35.8
655.105	35.75
655.433	35.64
655.761	35.97
656.089	35.66
656.417	35.66
656.745	35.73
657.073	36.11
657.4	36.6
657.728	35.93
658.056	35.97
658.383	36.32
658.711	36.2
659.038	35.93
659.365	35.9
659.693	35.72
660.02	36.26
660.347	36.17
660.674	36.04
661.001	35.99
661.329	36.02
661.656	36.12
661.982	36.08
662.309	36.65
662.636	36.27
662.963	36.24
663.29	36.54
663.616	36.41
663.943	36.68
664.27	37.07
664.596	36.76
664.923	36.44
665.249	36.66
665.576	36.03
665.902	36.41
666.228	36.75
666.554	36.81
666.881	37.36
667.207	37.26
667.533	36.15
667.859	37.31
668.185	37.26
668.511	36.97
668.837	36.94
669.162	37.21
669.488	37.4
669.814	36.53
670.139	36.85
670.465	37.6
670.791	36.96
671.116	37.28
671.442	37.73
671.767	37.16
672.092	37.72
672.418	37.85
