Data from 0221_chest_Reflection__5__272.txt Node

Date: Fri Sep 22 22:54:52 CDT 2023
User: ToomeyLab
Spectrometer: FLMS14357
Trigger mode: 0
Integration Time (sec): 1.000000E-2
Scans to average: 100
Electric dark correction enabled: true
Nonlinearity correction enabled: false
Boxcar width: 0
XAxis mode: Wavelengths
Number of Pixels in Spectrum: 2048
>>>>>Begin Spectral Data<<<<<
189.047	-135.66
189.435	-135.66
189.823	-135.66
190.211	609.96
190.599	2.75
190.987	138.82
191.375	9.6
191.763	170.53
192.151	161.06
192.538	-259.64
192.926	105.55
193.314	698.3
193.702	2829.7
194.089	91.96
194.477	-71.41
194.864	129.55
195.252	18.8
195.639	47.83
196.027	91.37
196.414	47.62
196.801	-63.75
197.189	218.49
197.576	145.51
197.963	-91.14
198.351	59.23
198.738	0.15
199.125	19.36
199.512	10.39
199.899	45.95
200.286	-36.34
200.673	9.08
201.06	35.03
201.447	62.05
201.833	-60.55
202.22	1.04
202.607	14.74
202.994	40.84
203.38	32.98
203.767	0.31
204.154	45.13
204.54	-1.96
204.927	0.65
205.313	29.45
205.699	41.48
206.086	43.45
206.472	50.37
206.858	29.86
207.245	10.47
207.631	34.06
208.017	-1.75
208.403	10.54
208.789	24.17
209.175	39.96
209.561	38.76
209.947	43.16
210.333	13.01
210.719	15.79
211.105	35.31
211.491	28
211.876	16.17
212.262	5.29
212.648	-2.01
213.034	32.36
213.419	25.6
213.805	11.05
214.19	8.56
214.576	48.68
214.961	35.56
215.346	39.42
215.732	11.21
216.117	-2.55
216.502	45.77
216.888	11.6
217.273	19.71
217.658	-5.18
218.043	12.44
218.428	25.11
218.813	-13.03
219.198	12.82
219.583	14.34
219.968	-20.48
220.353	37.78
220.738	-3.41
221.122	-15.88
221.507	-4.94
221.892	-10.86
222.276	3.53
222.661	-6.42
223.046	26.8
223.43	23.72
223.815	6.19
224.199	2.22
224.583	11.2
224.968	4.55
225.352	3.29
225.736	-5.16
226.121	2.13
226.505	10.5
226.889	11.05
227.273	5.79
227.657	-2.78
228.041	6.86
228.425	11.27
228.809	4.29
229.193	5.4
229.577	5.96
229.961	6.45
230.344	5.73
230.728	2.87
231.112	4.56
231.495	3.76
231.879	3.89
232.263	4.1
232.646	3.3
233.03	3.51
233.413	3.81
233.797	4.28
234.18	3.19
234.563	5.8
234.946	2.41
235.33	1.85
235.713	3.64
236.096	2.6
236.479	3.96
236.862	6.05
237.245	3.28
237.628	4.69
238.011	4.03
238.394	5.22
238.777	4.66
239.16	4.3
239.543	6.76
239.925	5.01
240.308	3.55
240.691	4.66
241.073	3.88
241.456	4.65
241.838	2.53
242.221	4.36
242.603	4.5
242.986	3.93
243.368	2.62
243.75	4.08
244.133	3.94
244.515	3.4
244.897	3.48
245.279	3.23
245.661	3.84
246.043	3.57
246.425	4.07
246.807	3.87
247.189	1.9
247.571	4.17
247.953	4.43
248.335	3.79
248.717	3.8
249.098	3.85
249.48	3.36
249.862	3.53
250.243	3.71
250.625	3.79
251.006	3.2
251.388	3.93
251.769	4.02
252.151	3.28
252.532	3.49
252.913	3.47
253.295	4.94
253.676	3.84
254.057	3.65
254.438	4.06
254.819	3.21
255.2	3.25
255.581	3.58
255.962	5.15
256.343	4.71
256.724	3.69
257.105	3.62
257.486	3.25
257.867	3.83
258.247	3.55
258.628	3.88
259.009	3.29
259.389	3.74
259.77	4.34
260.15	3.35
260.531	3.09
260.911	3.56
261.292	3.37
261.672	3.1
262.052	3.4
262.432	3.34
262.813	3.55
263.193	3.26
263.573	3.78
263.953	2.99
264.333	3.04
264.713	2.96
265.093	3.5
265.473	3.66
265.853	3
266.233	2.96
266.612	3.52
266.992	3.57
267.372	3.7
267.752	3.77
268.131	3.16
268.511	3.05
268.89	3.61
269.27	2.91
269.649	3.46
270.029	3.68
270.408	2.99
270.787	3.39
271.167	2.86
271.546	3.08
271.925	3.7
272.304	2.61
272.683	3.4
273.062	3.71
273.441	3.35
273.82	3.88
274.199	3.37
274.578	3.29
274.957	3.02
275.336	3.42
275.715	3.19
276.093	3.28
276.472	3.29
276.851	3.14
277.229	2.01
277.608	3.54
277.986	3
278.365	3.41
278.743	3.23
279.122	3.48
279.5	3.57
279.878	2.56
280.257	3.91
280.635	2.85
281.013	3.14
281.391	2.96
281.769	3.53
282.147	3.84
282.525	3.72
282.903	2.71
283.281	2.95
283.659	3.33
284.037	3.08
284.415	3.66
284.792	3.2
285.17	3.75
285.548	3.9
285.925	3.18
286.303	3.31
286.68	3.06
287.058	3.31
287.435	2.93
287.813	2.93
288.19	3.04
288.567	3.13
288.945	3.04
289.322	3.51
289.699	3.26
290.076	3.62
290.453	3.02
290.83	2.9
291.207	3.04
291.584	2.91
291.961	2.76
292.338	3.08
292.715	3.26
293.092	2.93
293.469	3.23
293.845	3.23
294.222	2.88
294.599	3.49
294.975	3.23
295.352	2.92
295.728	3.52
296.105	3.09
296.481	3.46
296.858	3.16
297.234	3.23
297.61	2.97
297.986	3.49
298.363	3.19
298.739	3.37
299.115	3.27
299.491	3.39
299.867	3.13
300.243	2.85
300.619	3.25
300.995	3.06
301.371	3.57
301.746	3.4
302.122	2.99
302.498	3.16
302.874	2.93
303.249	3.4
303.625	2.73
304	3.49
304.376	3.81
304.751	3.22
305.127	3.38
305.502	3.31
305.878	2.74
306.253	3.55
306.628	3.12
307.003	3.43
307.378	3.31
307.754	3.55
308.129	3.72
308.504	3.53
308.879	3.3
309.254	3.86
309.629	3.94
310.003	3.31
310.378	4.04
310.753	3.65
311.128	3.19
311.502	3.4
311.877	3.5
312.252	3.22
312.626	3.34
313.001	3.85
313.375	3.38
313.75	3.53
314.124	3.93
314.498	3.12
314.873	3.55
315.247	3.69
315.621	3.5
315.995	3.33
316.369	3.65
316.743	3.36
317.117	3.28
317.491	3.56
317.865	2.72
318.239	3.44
318.613	3.03
318.987	2.8
319.361	3.34
319.734	3.54
320.108	3.39
320.482	2.9
320.855	3.54
321.229	3.74
321.602	3.4
321.976	3
322.349	2.95
322.723	3.26
323.096	3.63
323.469	3.3
323.843	3.5
324.216	3.85
324.589	3.59
324.962	2.84
325.335	2.99
325.708	3.16
326.081	3.66
326.454	2.88
326.827	3.03
327.2	3.24
327.573	3.92
327.945	3.45
328.318	3.22
328.691	3.61
329.063	3.21
329.436	3.26
329.809	3.66
330.181	3.42
330.553	3.58
330.926	3.33
331.298	3.63
331.671	3.37
332.043	3.11
332.415	3.56
332.787	3.5
333.159	2.87
333.532	3.13
333.904	3.32
334.276	3.35
334.648	2.94
335.02	3.17
335.391	3.08
335.763	3.42
336.135	3.04
336.507	3.11
336.879	2.88
337.25	3.12
337.622	3.46
337.993	3.03
338.365	3.54
338.736	3.68
339.108	3.62
339.479	3.71
339.851	3.15
340.222	3.52
340.593	3.24
340.964	2.68
341.336	3.42
341.707	3.49
342.078	3.34
342.449	3.78
342.82	3.26
343.191	2.96
343.562	3.38
343.933	3.68
344.303	3.22
344.674	3.4
345.045	3.36
345.416	3.61
345.786	3.28
346.157	3.37
346.527	2.81
346.898	3.36
347.268	3.22
347.639	3.51
348.009	3.2
348.38	3.54
348.75	3.69
349.12	3.12
349.49	3.75
349.861	3.23
350.231	3.89
350.601	3.53
350.971	3.17
351.341	3.25
351.711	3.08
352.081	3.48
352.45	3.33
352.82	3.64
353.19	3.87
353.56	3.14
353.929	3.5
354.299	3.3
354.669	3.2
355.038	3.42
355.408	3.21
355.777	3.67
356.147	3.19
356.516	3.15
356.885	3.11
357.254	3.61
357.624	3
357.993	3.56
358.362	3.37
358.731	3.17
359.1	3.21
359.469	3.68
359.838	3.18
360.207	3.27
360.576	3.42
360.945	3.35
361.314	3.41
361.682	3.75
362.051	3.33
362.42	3.3
362.788	3.3
363.157	3.57
363.525	3.38
363.894	3.4
364.262	3.32
364.631	3.43
364.999	3.26
365.367	3.59
365.735	3.22
366.104	3.43
366.472	3.78
366.84	3.38
367.208	3.46
367.576	3.53
367.944	3.48
368.312	3.39
368.68	3.42
369.048	3.54
369.416	3.31
369.783	3.26
370.151	3.3
370.519	3.47
370.886	3.56
371.254	3.67
371.621	3.56
371.989	3.46
372.356	2.94
372.724	3.58
373.091	3.69
373.458	3.58
373.826	3.83
374.193	3.9
374.56	3.65
374.927	3.53
375.294	3.3
375.661	3.4
376.028	3.3
376.395	3.58
376.762	3.61
377.129	3.35
377.496	3.62
377.863	3.62
378.229	3.37
378.596	3.51
378.963	3.56
379.329	3.44
379.696	3.68
380.062	3.5
380.429	3.39
380.795	3.39
381.161	3.53
381.528	3.41
381.894	3.24
382.26	3.38
382.626	3.86
382.993	3.71
383.359	3.39
383.725	3.43
384.091	3.37
384.457	3.51
384.823	3.42
385.188	3.64
385.554	3.62
385.92	3.67
386.286	3.49
386.651	3.82
387.017	3.53
387.383	3.3
387.748	3.51
388.114	3.5
388.479	3.7
388.845	3.18
389.21	3.24
389.575	3.85
389.94	3.47
390.306	3.64
390.671	3.66
391.036	3.52
391.401	3.53
391.766	3.41
392.131	3.57
392.496	3.43
392.861	3.47
393.226	3.54
393.591	3.66
393.956	3.45
394.32	3.55
394.685	3.62
395.05	3.6
395.414	3.72
395.779	3.7
396.143	3.44
396.508	3.65
396.872	3.36
397.236	3.63
397.601	3.49
397.965	3.59
398.329	3.51
398.694	3.68
399.058	3.34
399.422	3.54
399.786	3.5
400.15	3.58
400.514	3.66
400.878	3.51
401.242	3.51
401.605	3.31
401.969	3.43
402.333	3.77
402.697	3.58
403.06	3.5
403.424	3.5
403.787	3.58
404.151	3.53
404.514	3.78
404.878	3.67
405.241	3.72
405.604	3.78
405.968	3.55
406.331	3.64
406.694	3.6
407.057	3.6
407.42	3.78
407.783	3.67
408.146	3.75
408.509	3.6
408.872	3.57
409.235	3.63
409.598	3.66
409.961	3.83
410.323	3.68
410.686	3.64
411.049	3.58
411.411	3.94
411.774	3.62
412.136	3.6
412.499	3.53
412.861	3.48
413.223	3.6
413.586	3.66
413.948	3.74
414.31	3.66
414.672	3.72
415.035	3.48
415.397	3.89
415.759	3.82
416.121	3.49
416.483	3.39
416.845	3.76
417.206	3.61
417.568	3.38
417.93	3.62
418.292	3.56
418.653	3.62
419.015	3.66
419.377	3.54
419.738	3.68
420.1	3.46
420.461	3.63
420.822	3.6
421.184	3.42
421.545	3.54
421.906	3.47
422.267	3.58
422.629	3.62
422.99	3.57
423.351	3.5
423.712	3.49
424.073	3.52
424.434	3.72
424.795	3.58
425.155	3.64
425.516	3.57
425.877	3.62
426.238	3.43
426.598	3.59
426.959	3.57
427.32	3.67
427.68	3.52
428.041	3.64
428.401	3.77
428.761	3.76
429.122	3.72
429.482	3.7
429.842	3.63
430.202	3.54
430.563	3.7
430.923	3.66
431.283	3.81
431.643	3.7
432.003	3.83
432.363	4.01
432.722	3.84
433.082	3.74
433.442	3.67
433.802	3.74
434.161	3.76
434.521	3.64
434.881	3.68
435.24	3.7
435.6	3.61
435.959	3.56
436.319	3.61
436.678	3.72
437.037	3.79
437.396	3.63
437.756	3.9
438.115	3.74
438.474	3.77
438.833	3.93
439.192	3.76
439.551	3.67
439.91	3.9
440.269	3.82
440.628	3.54
440.987	3.68
441.345	3.84
441.704	3.78
442.063	3.68
442.421	3.58
442.78	3.76
443.138	3.7
443.497	3.76
443.855	3.75
444.214	3.73
444.572	3.81
444.93	3.8
445.288	3.73
445.647	3.81
446.005	3.73
446.363	3.59
446.721	3.82
447.079	3.7
447.437	3.77
447.795	3.9
448.153	3.66
448.51	3.78
448.868	3.65
449.226	3.75
449.584	3.7
449.941	3.67
450.299	3.76
450.656	3.78
451.014	3.86
451.371	3.8
451.729	4
452.086	3.74
452.443	3.9
452.801	3.87
453.158	3.59
453.515	3.98
453.872	3.63
454.229	3.72
454.586	3.89
454.943	3.79
455.3	3.8
455.657	3.81
456.014	3.65
456.371	3.93
456.727	4
457.084	3.85
457.441	3.7
457.797	3.84
458.154	4.07
458.51	3.7
458.867	3.98
459.223	3.98
459.58	3.86
459.936	3.95
460.292	4.02
460.648	4.03
461.005	3.86
461.361	3.95
461.717	3.77
462.073	3.78
462.429	3.7
462.785	3.81
463.141	3.88
463.496	3.79
463.852	3.84
464.208	3.93
464.564	4
464.919	4.05
465.275	4.03
465.631	4.19
465.986	3.97
466.342	4.01
466.697	4.04
467.052	3.91
467.408	4.05
467.763	3.81
468.118	4.02
468.473	3.89
468.829	3.96
469.184	3.97
469.539	3.96
469.894	4.05
470.249	4.11
470.603	3.94
470.958	3.94
471.313	4.16
471.668	4.07
472.023	3.99
472.377	3.98
472.732	3.82
473.086	4.2
473.441	3.78
473.795	4.17
474.15	3.93
474.504	3.96
474.859	4.02
475.213	3.93
475.567	3.88
475.921	4.04
476.275	4.01
476.63	4.05
476.984	3.9
477.338	4.14
477.692	3.95
478.045	4.14
478.399	4.11
478.753	4
479.107	4.03
479.461	4.06
479.814	4.04
480.168	4.14
480.521	4.11
480.875	4.14
481.228	4.03
481.582	3.89
481.935	4.02
482.289	3.97
482.642	3.96
482.995	4.11
483.348	4.16
483.701	4.08
484.055	4.04
484.408	3.98
484.761	3.97
485.114	3.86
485.466	3.9
485.819	3.79
486.172	3.76
486.525	3.76
486.878	3.81
487.23	3.87
487.583	3.95
487.936	3.95
488.288	3.95
488.641	4.07
488.993	3.87
489.345	3.9
489.698	3.86
490.05	3.9
490.402	3.91
490.754	3.87
491.107	3.89
491.459	4
491.811	4.04
492.163	3.98
492.515	3.97
492.866	4.07
493.218	4.08
493.57	4.01
493.922	3.93
494.274	3.94
494.625	4
494.977	4.07
495.328	4.1
495.68	4.13
496.031	4.11
496.383	4.07
496.734	4.15
497.086	4.25
497.437	4.32
497.788	4.19
498.139	4.3
498.49	4.32
498.842	4.05
499.193	4.05
499.544	4.28
499.894	4.18
500.245	4.16
500.596	4.31
500.947	4.28
501.298	4.22
501.648	4.37
501.999	4.3
502.35	4.36
502.7	4.32
503.051	4.27
503.401	4.33
503.752	4.22
504.102	4.35
504.452	4.23
504.803	4.33
505.153	4.31
505.503	4.35
505.853	4.46
506.203	4.27
506.553	4.25
506.903	4.37
507.253	4.23
507.603	4.44
507.953	4.39
508.303	4.46
508.652	4.39
509.002	4.55
509.352	4.32
509.701	4.37
510.051	4.38
510.4	4.39
510.75	4.41
511.099	4.29
511.449	4.42
511.798	4.53
512.147	4.39
512.496	4.44
512.846	4.31
513.195	4.37
513.544	4.37
513.893	4.49
514.242	4.47
514.591	4.48
514.939	4.51
515.288	4.41
515.637	4.51
515.986	4.43
516.334	4.38
516.683	4.47
517.032	4.62
517.38	4.48
517.729	4.45
518.077	4.52
518.426	4.59
518.774	4.54
519.122	4.55
519.47	4.6
519.819	4.48
520.167	4.53
520.515	4.57
520.863	4.46
521.211	4.48
521.559	4.62
521.907	4.5
522.255	4.59
522.602	4.7
522.95	4.67
523.298	4.73
523.645	4.73
523.993	4.59
524.341	4.57
524.688	4.79
525.036	4.66
525.383	4.64
525.73	4.68
526.078	4.74
526.425	4.75
526.772	4.75
527.119	4.67
527.466	4.61
527.814	4.68
528.161	4.62
528.508	4.68
528.854	4.7
529.201	4.72
529.548	4.73
529.895	4.65
530.242	4.64
530.588	4.53
530.935	4.53
531.282	4.52
531.628	4.61
531.975	4.58
532.321	4.62
532.667	4.78
533.014	4.78
533.36	4.76
533.706	4.82
534.052	4.85
534.399	4.94
534.745	4.94
535.091	4.83
535.437	4.72
535.783	4.7
536.129	4.82
536.474	4.92
536.82	4.79
537.166	4.92
537.512	4.97
537.857	5
538.203	5.09
538.549	4.9
538.894	4.86
539.239	4.94
539.585	4.86
539.93	5.11
540.276	4.92
540.621	5.07
540.966	5.04
541.311	5.13
541.656	5.15
542.001	5.07
542.346	5.13
542.691	5.27
543.036	5.08
543.381	5
543.726	5.01
544.071	4.98
544.415	4.99
544.76	5.06
545.105	5.03
545.449	5.12
545.794	5.14
546.138	5.24
546.483	5.29
546.827	5.28
547.171	5.32
547.516	5.29
547.86	5.37
548.204	5.29
548.548	5.36
548.892	5.33
549.236	5.29
549.58	5.31
549.924	5.45
550.268	5.55
550.612	5.46
550.956	5.48
551.3	5.76
551.643	5.57
551.987	5.63
552.33	5.67
552.674	5.69
553.017	5.49
553.361	5.48
553.704	5.66
554.048	5.69
554.391	5.68
554.734	5.81
555.077	5.72
555.42	5.76
555.764	5.71
556.107	5.76
556.45	5.85
556.793	5.78
557.135	5.83
557.478	5.66
557.821	5.8
558.164	5.92
558.507	5.89
558.849	5.88
559.192	5.99
559.534	6.06
559.877	5.97
560.219	5.9
560.562	6.02
560.904	6.01
561.246	6.15
561.589	6.02
561.931	5.96
562.273	5.86
562.615	6.06
562.957	6.01
563.299	5.97
563.641	6.19
563.983	6.14
564.325	6.14
564.667	6.35
565.008	6.16
565.35	6.29
565.692	6.27
566.033	6.41
566.375	6.16
566.716	6.32
567.058	6.25
567.399	6.35
567.741	6.46
568.082	6.33
568.423	6.31
568.764	6.51
569.105	6.26
569.447	6.31
569.788	6.31
570.129	6.5
570.47	6.58
570.811	6.5
571.151	6.71
571.492	6.46
571.833	6.47
572.174	6.54
572.514	6.49
572.855	6.52
573.195	6.51
573.536	6.57
573.876	6.53
574.217	6.63
574.557	6.59
574.898	6.78
575.238	6.82
575.578	6.8
575.918	6.7
576.258	6.8
576.598	6.77
576.938	6.74
577.278	6.98
577.618	6.75
577.958	6.97
578.298	6.97
578.638	6.85
578.977	6.98
579.317	7.07
579.657	7.13
579.996	6.95
580.336	6.97
580.675	7.18
581.014	6.99
581.354	7.03
581.693	7.37
582.032	7.2
582.372	7.51
582.711	7.29
583.05	7.31
583.389	7.37
583.728	7.44
584.067	7.29
584.406	7.27
584.745	7.26
585.083	7.53
585.422	7.51
585.761	7.46
586.1	7.57
586.438	7.44
586.777	7.48
587.115	7.65
587.454	7.39
587.792	7.79
588.13	7.74
588.469	7.7
588.807	7.76
589.145	7.77
589.483	7.77
589.821	7.75
590.159	7.72
590.497	7.98
590.835	7.77
591.173	7.8
591.511	7.8
591.849	7.86
592.187	7.79
592.524	8.02
592.862	7.81
593.2	7.9
593.537	7.87
593.875	7.87
594.212	7.77
594.55	8.02
594.887	8.16
595.224	8.23
595.561	8.28
595.899	8.46
596.236	8.27
596.573	8.45
596.91	8.26
597.247	8.31
597.584	8.27
597.921	8.26
598.258	8.43
598.594	8.3
598.931	8.36
599.268	8.38
599.604	8.46
599.941	8.44
600.277	8.38
600.614	8.42
600.95	8.56
601.287	8.39
601.623	8.45
601.959	8.83
602.296	8.81
602.632	8.46
602.968	8.86
603.304	8.91
603.64	8.6
603.976	8.99
604.312	8.83
604.648	8.8
604.984	8.94
605.319	8.79
605.655	8.65
605.991	8.97
606.326	8.96
606.662	8.68
606.998	8.81
607.333	9.02
607.668	8.95
608.004	9.05
608.339	8.82
608.674	8.95
609.01	8.98
609.345	9.22
609.68	9.19
610.015	9.07
610.35	9.15
610.685	9.49
611.02	9.22
611.355	9.35
611.689	9.24
612.024	9.42
612.359	9.21
612.694	9.22
613.028	9.24
613.363	9.37
613.697	9.31
614.032	9.52
614.366	9.3
614.7	9.4
615.035	9.56
615.369	9.45
615.703	9.48
616.037	9.46
616.371	9.87
616.705	10.06
617.039	9.7
617.373	9.59
617.707	9.67
618.041	10
618.375	9.97
618.709	9.95
619.042	10.34
619.376	10.17
619.71	10.24
620.043	9.86
620.377	9.7
620.71	9.74
621.043	10.05
621.377	10.18
621.71	10.35
622.043	10.18
622.376	10.45
622.709	10.01
623.043	10.31
623.376	10.36
623.709	10.19
624.041	10.12
624.374	10.24
624.707	10.48
625.04	10.71
625.373	9.97
625.705	10.26
626.038	10.42
626.37	10.42
626.703	10.37
627.035	10.71
627.368	10.41
627.7	10.81
628.032	10.72
628.365	10.84
628.697	10.7
629.029	10.89
629.361	10.8
629.693	10.91
630.025	10.78
630.357	10.66
630.689	10.58
631.021	10.9
631.353	10.88
631.684	10.75
632.016	11.09
632.348	11.17
632.679	10.91
633.011	11.02
633.342	10.99
633.674	11.61
634.005	11.08
634.336	11.41
634.668	11.48
634.999	11.17
635.33	11.68
635.661	10.97
635.992	11.13
636.323	11.5
636.654	11.5
636.985	11.18
637.316	11.22
637.647	11.49
637.977	11.21
638.308	11.75
638.639	11.21
638.969	11.91
639.3	11.5
639.63	12.05
639.961	11.61
640.291	11.53
640.622	11.68
640.952	11.59
641.282	11.75
641.612	11.69
641.943	12.12
642.273	11.83
642.603	11.63
642.933	11.87
643.263	11.37
643.592	11.49
643.922	11.99
644.252	11.88
644.582	12.42
644.911	11.71
645.241	12.08
645.571	11.96
645.9	12.23
646.23	12.3
646.559	12.12
646.888	12.26
647.218	12.19
647.547	12.1
647.876	12.04
648.205	11.97
648.534	12.46
648.863	12.31
649.192	12.14
649.521	12.43
649.85	12.49
650.179	12.11
650.508	12.22
650.837	12.24
651.165	12.84
651.494	12.76
651.822	12.82
652.151	12.38
652.479	12.43
652.808	12.61
653.136	12.64
653.465	12.78
653.793	12.5
654.121	13.02
654.449	12.36
654.777	12.71
655.105	12.99
655.433	12.63
655.761	13.29
656.089	13.13
656.417	12.78
656.745	13.11
657.073	12.5
657.4	13.57
657.728	13.27
658.056	13.44
658.383	13.54
658.711	12.96
659.038	13.07
659.365	13.28
659.693	13
660.02	13.41
660.347	13.43
660.674	13.41
661.001	13.16
661.329	13.23
661.656	13.39
661.982	13.35
662.309	13.85
662.636	13.76
662.963	13.73
663.29	13.39
663.616	13.46
663.943	13.69
664.27	13.88
664.596	13.54
664.923	13.59
665.249	13.98
665.576	13.36
665.902	13.52
666.228	13.9
666.554	13.78
666.881	13.65
667.207	14.45
667.533	13.55
667.859	14.08
668.185	14.26
668.511	14.25
668.837	13.29
669.162	14.3
669.488	13.64
669.814	13.68
670.139	14.1
670.465	14.88
670.791	14.18
671.116	14.19
671.442	14.37
671.767	13.67
672.092	14.48
672.418	14.72
672.743	14.59
673.068	14.79
673.393	14.04
673.718	14.74
674.043	14.49
674.368	14.16
674.693	13.8
675.018	14.56
675.343	14.48
675.667	14.47
675.992	14.09
676.317	14.62
676.641	15.2
676.966	14.97
677.29	14.94
677.615	14.6
677.939	15.19
678.264	14.57
678.588	15.11
678.912	14.85
679.236	14.49
679.56	14.64
679.885	15.06
680.209	15.79
680.532	14.81
680.856	14.82
681.18	15.33
681.504	14.98
681.828	15.43
682.152	15.2
682.475	15.38
682.799	15.61
683.122	15.23
683.446	15.34
683.769	14.98
684.093	15.29
684.416	15.54
684.739	15.2
685.062	15.81
685.386	15.28
685.709	15.93
686.032	15.08
686.355	15.69
686.678	16.18
687.001	16.05
687.324	16.08
687.646	15.2
687.969	16.15
688.292	15.52
