Data from 0221_chest_Reflection__0__267.txt Node

Date: Fri Sep 22 22:53:56 CDT 2023
User: ToomeyLab
Spectrometer: FLMS14357
Trigger mode: 0
Integration Time (sec): 1.000000E-2
Scans to average: 100
Electric dark correction enabled: true
Nonlinearity correction enabled: false
Boxcar width: 0
XAxis mode: Wavelengths
Number of Pixels in Spectrum: 2048
>>>>>Begin Spectral Data<<<<<
189.047	157.2
189.435	157.2
189.823	157.2
190.211	127.09
190.599	38.56
190.987	164.21
191.375	-68.44
191.763	40.3
192.151	223.65
192.538	31.19
192.926	92.98
193.314	378.59
193.702	2768.32
194.089	35.65
194.477	-192.25
194.864	90.06
195.252	-3.43
195.639	6.31
196.027	135.4
196.414	66.47
196.801	107.66
197.189	47.75
197.576	16.55
197.963	-1.1
198.351	47.8
198.738	74.17
199.125	4.25
199.512	31.2
199.899	52.52
200.286	29.25
200.673	35.15
201.06	44.18
201.447	42.09
201.833	19.08
202.22	2.72
202.607	13.9
202.994	31.71
203.38	31.98
203.767	12.87
204.154	27.45
204.54	26.67
204.927	-9.51
205.313	27.87
205.699	62.48
206.086	55.22
206.472	58.09
206.858	35.66
207.245	7.12
207.631	26.09
208.017	17.94
208.403	23.55
208.789	20.05
209.175	68.9
209.561	65.04
209.947	28.33
210.333	23.21
210.719	24.06
211.105	17.12
211.491	35.7
211.876	38.69
212.262	33.87
212.648	-0.49
213.034	12.68
213.419	20.04
213.805	-4.29
214.19	23.78
214.576	34.99
214.961	65.67
215.346	37.71
215.732	4.26
216.117	16.73
216.502	39.59
216.888	15.91
217.273	5.31
217.658	-9.4
218.043	4
218.428	44.35
218.813	-5.87
219.198	4.49
219.583	13.02
219.968	-23.35
220.353	32.01
220.738	2.35
221.122	13.51
221.507	10.84
221.892	16.57
222.276	7.43
222.661	0.3
223.046	19.62
223.43	26.92
223.815	7.79
224.199	4.14
224.583	11.59
224.968	14.25
225.352	4.62
225.736	1.62
226.121	8.37
226.505	-2.63
226.889	7.17
227.273	7.38
227.657	5.41
228.041	8.46
228.425	9.32
228.809	0.97
229.193	3.51
229.577	6.11
229.961	6.82
230.344	6.36
230.728	4.22
231.112	4.22
231.495	3.99
231.879	5.2
232.263	3.6
232.646	4.78
233.03	3.54
233.413	4.04
233.797	4.15
234.18	3.48
234.563	7.31
234.946	3.4
235.33	3
235.713	5.23
236.096	6.11
236.479	3.56
236.862	7.16
237.245	5.8
237.628	4.74
238.011	6.11
238.394	3.77
238.777	4.83
239.16	4.36
239.543	5.78
239.925	6.7
240.308	5.65
240.691	5.07
241.073	5.49
241.456	4.91
241.838	5.17
242.221	4.81
242.603	5.4
242.986	4.03
243.368	4.32
243.75	5.48
244.133	4.91
244.515	4.66
244.897	4.41
245.279	4.8
245.661	4.24
246.043	4.88
246.425	4.59
246.807	4.47
247.189	5.27
247.571	5.3
247.953	4.97
248.335	4.5
248.717	4.79
249.098	4.45
249.48	4.55
249.862	4.43
250.243	4.64
250.625	4.72
251.006	4.02
251.388	4.75
251.769	4.54
252.151	3.57
252.532	4.63
252.913	5.26
253.295	4.65
253.676	4.6
254.057	4.88
254.438	5.32
254.819	4.34
255.2	4.45
255.581	4.82
255.962	4.84
256.343	4.93
256.724	3.48
257.105	4.48
257.486	4.14
257.867	5.35
258.247	4.63
258.628	5.23
259.009	4.62
259.389	4.17
259.77	5.19
260.15	5.16
260.531	4.65
260.911	4.51
261.292	4.3
261.672	4.09
262.052	4.27
262.432	4.14
262.813	4.41
263.193	4.01
263.573	4.62
263.953	4.85
264.333	4.93
264.713	4.44
265.093	4.44
265.473	4.07
265.853	4.34
266.233	4.73
266.612	4.21
266.992	4.09
267.372	5.84
267.752	4.92
268.131	3.94
268.511	4.42
268.89	4.79
269.27	4.26
269.649	5
270.029	3.98
270.408	4.48
270.787	4.23
271.167	4.9
271.546	4.22
271.925	4.49
272.304	3.84
272.683	4.97
273.062	4.11
273.441	4.34
273.82	4.33
274.199	4.33
274.578	4.3
274.957	4.1
275.336	4.13
275.715	4.24
276.093	4.14
276.472	4.06
276.851	4.21
277.229	3.35
277.608	3.83
277.986	3.98
278.365	4.59
278.743	4.12
279.122	3.91
279.5	4.52
279.878	4.08
280.257	4.37
280.635	3.5
281.013	4.35
281.391	3.91
281.769	4.35
282.147	4.12
282.525	4.22
282.903	3.99
283.281	3.92
283.659	4.13
284.037	4.06
284.415	4.49
284.792	4.16
285.17	3.75
285.548	4.34
285.925	3.89
286.303	4.27
286.68	4.23
287.058	4.11
287.435	3.99
287.813	3.66
288.19	3.78
288.567	4.27
288.945	3.97
289.322	4.34
289.699	4.29
290.076	4
290.453	4.08
290.83	4.04
291.207	4.51
291.584	4.11
291.961	3.57
292.338	4.22
292.715	4.81
293.092	4.26
293.469	4.24
293.845	4.12
294.222	4.64
294.599	4.89
294.975	5.07
295.352	4.61
295.728	4.66
296.105	4.77
296.481	4.77
296.858	4.45
297.234	4.56
297.61	4.9
297.986	4.76
298.363	4.58
298.739	4.71
299.115	4.44
299.491	5.06
299.867	4.77
300.243	4.73
300.619	4.44
300.995	4.52
301.371	5.12
301.746	4.86
302.122	5.27
302.498	4.72
302.874	4.99
303.249	5.13
303.625	4.84
304	5.21
304.376	5.2
304.751	5.49
305.127	5.03
305.502	4.95
305.878	4.96
306.253	4.93
306.628	4.96
307.003	5
307.378	4.45
307.754	4.65
308.129	5.01
308.504	4.74
308.879	5.26
309.254	5.27
309.629	5.26
310.003	5.48
310.378	5.75
310.753	5.11
311.128	5.2
311.502	5.02
311.877	5.14
312.252	5.26
312.626	4.92
313.001	5.34
313.375	5.11
313.75	5.12
314.124	5.58
314.498	5.03
314.873	5.66
315.247	5.64
315.621	5.2
315.995	4.9
316.369	5.07
316.743	4.93
317.117	5.84
317.491	5.64
317.865	5.18
318.239	5.19
318.613	5.33
318.987	5.56
319.361	5.41
319.734	5.06
320.108	5.66
320.482	5.8
320.855	5.07
321.229	5.73
321.602	5.97
321.976	5.22
322.349	5.39
322.723	4.86
323.096	5.56
323.469	5.55
323.843	5.32
324.216	5.91
324.589	5.66
324.962	5.56
325.335	5.55
325.708	5.2
326.081	5.4
326.454	5.02
326.827	5.5
327.2	5.63
327.573	6.1
327.945	5.14
328.318	5.9
328.691	6.09
329.063	5.59
329.436	5.89
329.809	5.98
330.181	5.78
330.553	5.59
330.926	5.68
331.298	5.2
331.671	5.47
332.043	5.17
332.415	5.2
332.787	5.82
333.159	5.87
333.532	5.49
333.904	5.62
334.276	5.32
334.648	5.17
335.02	5.39
335.391	5.95
335.763	5.75
336.135	5.69
336.507	6.14
336.879	5.77
337.25	5.99
337.622	6.21
337.993	5.9
338.365	5.91
338.736	6.1
339.108	6.02
339.479	5.81
339.851	5.64
340.222	5.55
340.593	5.66
340.964	5.31
341.336	5.17
341.707	5.38
342.078	5.64
342.449	5.69
342.82	5.6
343.191	5.37
343.562	5.2
343.933	5.41
344.303	5.79
344.674	5.91
345.045	6.06
345.416	6
345.786	6
346.157	5.59
346.527	5.36
346.898	5.44
347.268	5.47
347.639	5.89
348.009	5.52
348.38	5.96
348.75	6.11
349.12	5.73
349.49	5.72
349.861	5.89
350.231	5.7
350.601	5.93
350.971	5.37
351.341	5.94
351.711	5.63
352.081	5.61
352.45	5.82
352.82	6.21
353.19	5.73
353.56	5.85
353.929	5.77
354.299	5.66
354.669	5.54
355.038	5.68
355.408	6.16
355.777	6.3
356.147	5.7
356.516	6.14
356.885	5.8
357.254	6.23
357.624	5.53
357.993	6.05
358.362	6.12
358.731	5.51
359.1	5.55
359.469	5.75
359.838	5.77
360.207	5.79
360.576	5.89
360.945	5.77
361.314	6.03
361.682	5.83
362.051	5.82
362.42	5.58
362.788	5.69
363.157	5.9
363.525	5.92
363.894	5.71
364.262	5.74
364.631	5.78
364.999	5.6
365.367	6.04
365.735	5.84
366.104	5.98
366.472	6.13
366.84	5.81
367.208	5.83
367.576	6.03
367.944	5.82
368.312	5.78
368.68	6.04
369.048	5.99
369.416	5.83
369.783	5.74
370.151	5.7
370.519	5.78
370.886	6.31
371.254	5.86
371.621	6.02
371.989	5.79
372.356	5.94
372.724	5.96
373.091	6.1
373.458	5.84
373.826	5.94
374.193	6.01
374.56	6.14
374.927	5.98
375.294	5.8
375.661	6.11
376.028	6.08
376.395	6.12
376.762	5.75
377.129	6.09
377.496	6.23
377.863	6.24
378.229	6.3
378.596	5.93
378.963	6.09
379.329	6.02
379.696	6.09
380.062	5.96
380.429	6
380.795	5.91
381.161	6.04
381.528	5.95
381.894	5.65
382.26	5.72
382.626	6.03
382.993	6.17
383.359	5.72
383.725	6.31
384.091	6.11
384.457	6.04
384.823	5.91
385.188	6.33
385.554	6.26
385.92	6.27
386.286	6.31
386.651	5.76
387.017	6.16
387.383	6.19
387.748	5.92
388.114	5.93
388.479	6.2
388.845	5.7
389.21	6.05
389.575	6.37
389.94	5.89
390.306	6.06
390.671	6.44
391.036	6
391.401	6.3
391.766	6.21
392.131	6.13
392.496	6.08
392.861	6.21
393.226	6.19
393.591	6.09
393.956	6.21
394.32	6.24
394.685	6.15
395.05	6.47
395.414	6.4
395.779	6.31
396.143	6.2
396.508	6.2
396.872	6.29
397.236	6.15
397.601	6.11
397.965	6.27
398.329	6.24
398.694	6.22
399.058	6.35
399.422	6.17
399.786	6.3
400.15	6.47
400.514	6.42
400.878	6.1
401.242	6.37
401.605	6.35
401.969	6.02
402.333	6.38
402.697	6.19
403.06	6.28
403.424	6.18
403.787	6.44
404.151	6.48
404.514	6.36
404.878	6.48
405.241	6.68
405.604	6.36
405.968	6.41
406.331	6.5
406.694	6.28
407.057	6.07
407.42	6.29
407.783	6.47
408.146	6.23
408.509	6.36
408.872	6.01
409.235	6.48
409.598	6.34
409.961	6.49
410.323	6.39
410.686	6.34
411.049	6.36
411.411	6.4
411.774	6.4
412.136	6.28
412.499	6.38
412.861	6.36
413.223	6.54
413.586	6.22
413.948	6.39
414.31	6.23
414.672	6.24
415.035	6.41
415.397	6.79
415.759	6.74
416.121	6.4
416.483	6.39
416.845	6.38
417.206	6.43
417.568	6.48
417.93	6.53
418.292	6.38
418.653	6.32
419.015	6.35
419.377	6.36
419.738	6.47
420.1	6.34
420.461	6.34
420.822	6.39
421.184	6.4
421.545	6.23
421.906	6.24
422.267	6.36
422.629	6.36
422.99	6.37
423.351	6.26
423.712	6.26
424.073	6.3
424.434	6.39
424.795	6.41
425.155	6.45
425.516	6.45
425.877	6.36
426.238	6.23
426.598	6.35
426.959	6.46
427.32	6.38
427.68	6.38
428.041	6.33
428.401	6.5
428.761	6.61
429.122	6.61
429.482	6.56
429.842	6.39
430.202	6.6
430.563	6.66
430.923	6.76
431.283	6.51
431.643	6.81
432.003	6.87
432.363	6.79
432.722	6.93
433.082	6.74
433.442	6.63
433.802	6.62
434.161	6.59
434.521	6.66
434.881	6.8
435.24	6.64
435.6	6.66
435.959	6.6
436.319	6.62
436.678	6.71
437.037	6.79
437.396	6.58
437.756	6.89
438.115	6.89
438.474	6.79
438.833	6.88
439.192	6.67
439.551	6.74
439.91	6.7
440.269	6.81
440.628	6.56
440.987	6.68
441.345	6.76
441.704	6.66
442.063	6.64
442.421	6.68
442.78	6.73
443.138	6.71
443.497	6.66
443.855	6.77
444.214	6.76
444.572	6.95
444.93	6.78
445.288	6.86
445.647	7
446.005	6.84
446.363	6.68
446.721	6.9
447.079	6.75
447.437	6.84
447.795	6.91
448.153	6.74
448.51	6.68
448.868	6.73
449.226	6.76
449.584	6.77
449.941	6.69
450.299	6.89
450.656	6.97
451.014	6.98
451.371	6.96
451.729	7.04
452.086	7.06
452.443	7.09
452.801	7.09
453.158	6.88
453.515	6.96
453.872	7.1
454.229	7.05
454.586	7.13
454.943	6.91
455.3	7.01
455.657	6.93
456.014	6.97
456.371	7.13
456.727	7.25
457.084	7.2
457.441	7.01
457.797	7.18
458.154	7.04
458.51	7
458.867	7.17
459.223	7.13
459.58	7.08
459.936	7.28
460.292	7.16
460.648	7.31
461.005	7.23
461.361	7.07
461.717	6.93
462.073	6.97
462.429	6.87
462.785	6.97
463.141	7.06
463.496	7.17
463.852	7.2
464.208	7
464.564	7.15
464.919	7.1
465.275	7.25
465.631	7.23
465.986	7.21
466.342	7.22
466.697	7.36
467.052	7.22
467.408	7.27
467.763	7.27
468.118	7.44
468.473	7.19
468.829	7.36
469.184	7.18
469.539	7.32
469.894	7.34
470.249	7.43
470.603	7.23
470.958	7.34
471.313	7.54
471.668	7.47
472.023	7.34
472.377	7.31
472.732	7.52
473.086	7.55
473.441	7.31
473.795	7.49
474.15	7.31
474.504	7.47
474.859	7.44
475.213	7.21
475.567	7.31
475.921	7.44
476.275	7.52
476.63	7.37
476.984	7.36
477.338	7.67
477.692	7.65
478.045	7.7
478.399	7.57
478.753	7.46
479.107	7.42
479.461	7.38
479.814	7.49
480.168	7.54
480.521	7.57
480.875	7.58
481.228	7.5
481.582	7.44
481.935	7.42
482.289	7.51
482.642	7.44
482.995	7.55
483.348	7.56
483.701	7.49
484.055	7.41
484.408	7.47
484.761	7.44
485.114	7.34
485.466	7.19
485.819	7.12
486.172	7.09
486.525	7.1
486.878	7.08
487.23	7.17
487.583	7.29
487.936	7.4
488.288	7.42
488.641	7.48
488.993	7.3
489.345	7.37
489.698	7.28
490.05	7.3
490.402	7.25
490.754	7.33
491.107	7.36
491.459	7.5
491.811	7.42
492.163	7.54
492.515	7.61
492.866	7.62
493.218	7.61
493.57	7.55
493.922	7.42
494.274	7.43
494.625	7.55
494.977	7.54
495.328	7.66
495.68	7.75
496.031	7.67
496.383	7.83
496.734	7.94
497.086	7.77
497.437	7.85
497.788	7.93
498.139	7.84
498.49	7.91
498.842	7.75
499.193	7.78
499.544	7.9
499.894	7.84
500.245	7.89
500.596	7.85
500.947	7.93
501.298	8.11
501.648	7.95
501.999	8.05
502.35	8.13
502.7	8.17
503.051	8.14
503.401	8.04
503.752	8.12
504.102	8.07
504.452	7.99
504.803	7.94
505.153	8.09
505.503	8.18
505.853	8.14
506.203	8.22
506.553	8.15
506.903	8.16
507.253	8.11
507.603	8.29
507.953	8.4
508.303	8.23
508.652	8.18
509.002	8.5
509.352	8.19
509.701	8.41
510.051	8.33
510.4	8.33
510.75	8.29
511.099	8.28
511.449	8.27
511.798	8.36
512.147	8.3
512.496	8.37
512.846	8.34
513.195	8.32
513.544	8.4
513.893	8.38
514.242	8.42
514.591	8.4
514.939	8.54
515.288	8.39
515.637	8.45
515.986	8.45
516.334	8.57
516.683	8.5
517.032	8.51
517.38	8.57
517.729	8.53
518.077	8.54
518.426	8.53
518.774	8.54
519.122	8.53
519.47	8.53
519.819	8.66
520.167	8.55
520.515	8.57
520.863	8.42
521.211	8.51
521.559	8.5
521.907	8.48
522.255	8.5
522.602	8.69
522.95	8.59
523.298	8.76
523.645	8.82
523.993	8.86
524.341	8.77
524.688	8.87
525.036	8.88
525.383	8.74
525.73	8.99
526.078	8.81
526.425	8.82
526.772	8.87
527.119	8.79
527.466	8.72
527.814	8.7
528.161	8.7
528.508	8.79
528.854	8.81
529.201	8.82
529.548	8.77
529.895	8.75
530.242	8.7
530.588	8.58
530.935	8.55
531.282	8.57
531.628	8.64
531.975	8.64
532.321	8.76
532.667	8.83
533.014	8.85
533.36	8.91
533.706	9.05
534.052	9.14
534.399	9.05
534.745	9.1
535.091	8.95
535.437	8.95
535.783	8.91
536.129	8.99
536.474	9.03
536.82	9.1
537.166	9.22
537.512	9.21
537.857	9.27
538.203	9.35
538.549	9.29
538.894	9.18
539.239	9.13
539.585	9.26
539.93	9.33
540.276	9.31
540.621	9.51
540.966	9.5
541.311	9.62
541.656	9.49
542.001	9.65
542.346	9.49
542.691	9.59
543.036	9.39
543.381	9.43
543.726	9.34
544.071	9.3
544.415	9.41
544.76	9.41
545.105	9.4
545.449	9.58
545.794	9.58
546.138	9.78
546.483	9.7
546.827	9.66
547.171	9.83
547.516	9.89
547.86	9.99
548.204	9.87
548.548	9.99
548.892	9.96
549.236	9.82
549.58	9.88
549.924	9.94
550.268	10
550.612	9.99
550.956	10.2
551.3	10.3
551.643	10.34
551.987	10.25
552.33	10.44
552.674	10.34
553.017	10.29
553.361	10.53
553.704	10.43
554.048	10.55
554.391	10.39
554.734	10.57
555.077	10.31
555.42	10.23
555.764	10.44
556.107	10.51
556.45	10.67
556.793	10.51
557.135	10.48
557.478	10.47
557.821	10.75
558.164	10.83
558.507	10.77
558.849	10.82
559.192	10.97
559.534	10.97
559.877	10.79
560.219	10.9
560.562	10.91
560.904	11
561.246	11.16
561.589	11.07
561.931	11.01
562.273	10.92
562.615	11.04
562.957	10.94
563.299	11.12
563.641	11.02
563.983	11.26
564.325	11.27
564.667	11.25
565.008	11.23
565.35	11.32
565.692	11.23
566.033	11.37
566.375	11.37
566.716	11.32
567.058	11.43
567.399	11.35
567.741	11.57
568.082	11.4
568.423	11.56
568.764	11.67
569.105	11.32
569.447	11.43
569.788	11.51
570.129	11.6
570.47	11.82
570.811	11.54
571.151	11.78
571.492	11.71
571.833	11.7
572.174	11.72
572.514	12.07
572.855	11.9
573.195	11.58
573.536	11.9
573.876	11.76
574.217	11.86
574.557	11.9
574.898	11.92
575.238	11.94
575.578	12.01
575.918	12
576.258	12.03
576.598	12.06
576.938	12.16
577.278	12.43
577.618	12.17
577.958	12.26
578.298	12.26
578.638	12.39
578.977	12.35
579.317	12.43
579.657	12.44
579.996	12.41
580.336	12.46
580.675	12.64
581.014	12.39
581.354	12.49
581.693	12.89
582.032	12.77
582.372	13.06
582.711	12.82
583.05	12.86
583.389	12.79
583.728	12.93
584.067	12.92
584.406	13.03
584.745	12.94
585.083	13.04
585.422	12.97
585.761	13.09
586.1	13.32
586.438	13.21
586.777	13.31
587.115	13.17
587.454	13.26
587.792	13.22
588.13	13.48
588.469	13.2
588.807	13.51
589.145	13.26
589.483	13.48
589.821	13.49
590.159	13.56
590.497	13.73
590.835	13.81
591.173	13.7
591.511	13.36
591.849	13.71
592.187	13.65
592.524	13.68
592.862	13.82
593.2	13.73
593.537	13.73
593.875	13.86
594.212	13.68
594.55	13.98
594.887	13.84
595.224	13.79
595.561	14.06
595.899	14.1
596.236	14.2
596.573	14.34
596.91	14.19
597.247	14.09
597.584	14.22
597.921	14.46
598.258	14.24
598.594	14.3
598.931	14.07
599.268	14.18
599.604	14.4
599.941	14.21
600.277	14.18
600.614	14.41
600.95	14.36
601.287	14.27
601.623	14.63
601.959	14.66
602.296	14.66
602.632	14.52
602.968	14.75
603.304	14.81
603.64	14.94
603.976	14.74
604.312	14.8
604.648	14.61
604.984	15.06
605.319	14.69
605.655	14.66
605.991	15.04
606.326	14.8
606.662	14.83
606.998	14.92
607.333	15.04
607.668	14.95
608.004	15.05
608.339	14.94
608.674	15.29
609.01	15.36
609.345	15.26
609.68	15.5
610.015	15.32
610.35	15.53
610.685	15.38
611.02	15.31
611.355	15.46
611.689	15.48
612.024	15.44
612.359	15.53
612.694	15.72
613.028	15.56
613.363	15.55
613.697	15.74
614.032	15.76
614.366	15.73
614.7	15.82
615.035	15.87
615.369	15.88
615.703	15.97
616.037	16.07
616.371	16.13
616.705	16.63
617.039	16.06
617.373	16.45
617.707	15.89
618.041	16.05
618.375	15.96
618.709	16.02
619.042	16.6
619.376	16.32
619.71	16.64
620.043	16.25
620.377	16.28
620.71	16.49
621.043	16.39
621.377	16.36
621.71	16.76
622.043	16.43
622.376	16.73
622.709	16.78
623.043	16.42
623.376	16.98
623.709	16.65
624.041	16.99
624.374	17.19
624.707	16.9
625.04	17.18
625.373	16.91
625.705	16.67
626.038	17.11
626.37	17.15
626.703	17.19
627.035	17.3
627.368	17.22
627.7	17.39
628.032	17.27
628.365	17.42
628.697	17.23
629.029	17.36
629.361	17.16
629.693	17.5
630.025	17.28
630.357	17.01
630.689	17.55
631.021	17.48
631.353	17.04
631.684	17.5
632.016	17.75
632.348	17.78
632.679	17.61
633.011	17.56
633.342	17.74
633.674	17.79
634.005	17.53
634.336	17.78
634.668	18.15
634.999	18.04
635.33	17.72
635.661	17.85
635.992	17.96
636.323	17.9
636.654	17.66
636.985	18.01
637.316	18.3
637.647	18.44
637.977	17.9
638.308	18.21
638.639	18.22
638.969	18.54
639.3	18.32
639.63	18.56
639.961	18.42
640.291	18.47
640.622	18.69
640.952	18.6
641.282	18.76
641.612	18.64
641.943	18.83
642.273	18.86
642.603	19.28
642.933	18.96
643.263	18.31
643.592	18.86
643.922	18.9
644.252	18.77
644.582	19.37
644.911	18.75
645.241	19.31
645.571	18.99
645.9	19.29
646.23	19.26
646.559	19.02
646.888	19.69
647.218	19.26
647.547	19.29
647.876	19.36
648.205	19
648.534	19.8
648.863	19.36
649.192	19.17
649.521	19.55
649.85	19.35
650.179	19.29
650.508	19.31
650.837	19.74
651.165	19.73
651.494	19.79
651.822	19.44
652.151	19.26
652.479	19.66
652.808	19.45
653.136	20.08
653.465	19.62
653.793	19.86
654.121	20.41
654.449	19.59
654.777	20.1
655.105	20.25
655.433	20.28
655.761	20.34
656.089	19.77
656.417	20.33
656.745	20.38
657.073	20.26
657.4	20.38
657.728	20.38
658.056	20.19
658.383	20.42
658.711	20.69
659.038	20.58
659.365	20.8
659.693	19.84
660.02	20.79
660.347	20.6
660.674	20.51
661.001	20.36
661.329	20.44
661.656	21.05
661.982	20.74
662.309	20.73
662.636	20.88
662.963	20.7
663.29	20.64
663.616	20.98
663.943	21.27
664.27	21.3
664.596	21.22
664.923	21.03
665.249	21.06
665.576	20.52
665.902	20.93
666.228	21.14
666.554	20.39
666.881	22.25
667.207	21.19
667.533	21.1
667.859	21.43
668.185	21.3
668.511	21.86
668.837	20.85
669.162	21.66
669.488	20.8
669.814	21.49
670.139	21.89
670.465	21.68
670.791	21.41
671.116	21.78
671.442	22.3
671.767	21.2
672.092	22.19
672.418	22.51
672.743	21.68
673.068	22.08
673.393	21.96
673.718	22.73
674.043	21.93
674.368	22.23
674.693	21.75
675.018	22.28
675.343	22.16
675.667	22.47
675.992	22.53
676.317	21.94
676.641	21.75
676.966	22.49
677.29	22.14
677.615	22.35
677.939	22.14
678.264	22.21
678.588	23.42
678.912	21.92
679.236	22.49
679.56	22.4
679.885	22.41
680.209	23.16
680.532	22.51
680.856	22.17
681.18	23.4
681.504	22.87
681.828	22.96
682.152	22.64
682.475	23.33
682.799	23.13
683.122	23.12
683.446	23.06
683.769	22.78
684.093	23.43
684.416	22.81
