Data from 0221_forehead_Reflection__2__280.txt Node

Date: Fri Sep 22 22:57:19 CDT 2023
User: ToomeyLab
Spectrometer: FLMS14357
Trigger mode: 0
Integration Time (sec): 1.000000E-2
Scans to average: 100
Electric dark correction enabled: true
Nonlinearity correction enabled: false
Boxcar width: 0
XAxis mode: Wavelengths
Number of Pixels in Spectrum: 2048
>>>>>Begin Spectral Data<<<<<
189.047	-374.55
189.435	-374.55
189.823	-374.55
190.211	-47.73
190.599	266.89
190.987	126.29
191.375	189.33
191.763	144.96
192.151	-7.47
192.538	537.62
192.926	92.56
193.314	298.3
193.702	417.82
194.089	17.53
194.477	-82.72
194.864	-34.28
195.252	29.87
195.639	87.2
196.027	186.94
196.414	44.12
196.801	-236.18
197.189	-495.76
197.576	272.21
197.963	6.07
198.351	52.52
198.738	23.97
199.125	-5.8
199.512	28.12
199.899	58.34
200.286	53.69
200.673	55.13
201.06	0.81
201.447	61.38
201.833	-10.47
202.22	35.7
202.607	58.26
202.994	56.14
203.38	22.76
203.767	3.22
204.154	62.71
204.54	21.39
204.927	8.38
205.313	32.21
205.699	31.96
206.086	40.72
206.472	38.44
206.858	20.58
207.245	17.15
207.631	41.14
208.017	22.46
208.403	8.73
208.789	37.69
209.175	57.28
209.561	59.41
209.947	73.01
210.333	24.02
210.719	15.68
211.105	61.48
211.491	24.18
211.876	43.45
212.262	37.42
212.648	7.23
213.034	40.51
213.419	34.43
213.805	41.2
214.19	50.59
214.576	27.97
214.961	46.04
215.346	33.34
215.732	52.32
216.117	42.92
216.502	61.38
216.888	31.82
217.273	9.9
217.658	28.61
218.043	29.42
218.428	32.39
218.813	-4.41
219.198	-2.12
219.583	25.8
219.968	-9.74
220.353	38.52
220.738	33.86
221.122	8.51
221.507	16.36
221.892	10.52
222.276	13.85
222.661	11.32
223.046	13.28
223.43	15.46
223.815	22.53
224.199	1.44
224.583	23.23
224.968	14.38
225.352	5.9
225.736	18.85
226.121	6.9
226.505	10.22
226.889	12.09
227.273	1.45
227.657	8.53
228.041	10.5
228.425	9.43
228.809	7.9
229.193	7.84
229.577	8.77
229.961	8.48
230.344	7.32
230.728	3.87
231.112	6.31
231.495	4.5
231.879	5.07
232.263	4.12
232.646	5.62
233.03	3.97
233.413	4.85
233.797	5.62
234.18	4.48
234.563	8.62
234.946	7.02
235.33	4.38
235.713	5.73
236.096	4.67
236.479	5.05
236.862	6.37
237.245	5.74
237.628	7.8
238.011	7.29
238.394	6.1
238.777	7.64
239.16	6.79
239.543	6.48
239.925	6.52
240.308	6.87
240.691	5.11
241.073	7.2
241.456	5.91
241.838	3.38
242.221	6.39
242.603	5.01
242.986	5.98
243.368	4.73
243.75	5.25
244.133	5.17
244.515	4.92
244.897	4.05
245.279	4.63
245.661	4.77
246.043	4.73
246.425	4.42
246.807	4.11
247.189	4.1
247.571	5.06
247.953	4.77
248.335	5.12
248.717	4.85
249.098	4.66
249.48	4.62
249.862	4.5
250.243	4.61
250.625	5.01
251.006	4.73
251.388	4.4
251.769	4.97
252.151	5.44
252.532	4.45
252.913	4.83
253.295	5.9
253.676	5.19
254.057	5.01
254.438	5.39
254.819	4.61
255.2	4.91
255.581	5.36
255.962	5.16
256.343	4.87
256.724	4.01
257.105	5.71
257.486	4.48
257.867	3.9
258.247	5.64
258.628	5.41
259.009	4.91
259.389	4.7
259.77	6.06
260.15	6.09
260.531	4.17
260.911	4.81
261.292	4.4
261.672	4.16
262.052	4.47
262.432	4.25
262.813	4.57
263.193	4.46
263.573	5.35
263.953	4.48
264.333	4.59
264.713	4.38
265.093	4.71
265.473	4.23
265.853	4.01
266.233	5.53
266.612	4.63
266.992	5.24
267.372	4.77
267.752	5.59
268.131	4.32
268.511	4.21
268.89	4.43
269.27	4.41
269.649	4.79
270.029	4.51
270.408	4.36
270.787	4.83
271.167	4.91
271.546	4.46
271.925	4.83
272.304	4.29
272.683	4.61
273.062	4.7
273.441	4.57
273.82	4.74
274.199	4.54
274.578	4.33
274.957	4.42
275.336	4.38
275.715	4.48
276.093	4.63
276.472	4.78
276.851	4
277.229	3.79
277.608	5.22
277.986	4.6
278.365	4.89
278.743	4.43
279.122	4.9
279.5	5.25
279.878	4.16
280.257	5.54
280.635	3.7
281.013	4.89
281.391	4.03
281.769	4.13
282.147	4.88
282.525	4.35
282.903	4.6
283.281	4.85
283.659	4.93
284.037	4.42
284.415	4.83
284.792	4.44
285.17	4.45
285.548	4.9
285.925	4.8
286.303	4.76
286.68	4.65
287.058	4.43
287.435	4.79
287.813	4.66
288.19	4.31
288.567	4.73
288.945	4.64
289.322	4.21
289.699	4.77
290.076	4.37
290.453	4.29
290.83	3.84
291.207	4.39
291.584	4.14
291.961	4.78
292.338	4.68
292.715	4.89
293.092	4.37
293.469	4.44
293.845	4.26
294.222	4.95
294.599	5.53
294.975	4.95
295.352	4.98
295.728	4.94
296.105	5.13
296.481	4.94
296.858	4.87
297.234	5.17
297.61	4.83
297.986	5.2
298.363	4.87
298.739	4.81
299.115	5.09
299.491	5.1
299.867	5.21
300.243	4.78
300.619	5.14
300.995	4.88
301.371	5.7
301.746	5.37
302.122	4.84
302.498	5.08
302.874	5.24
303.249	4.46
303.625	4.46
304	5.31
304.376	5.08
304.751	5.74
305.127	5.18
305.502	6.13
305.878	5.06
306.253	5.93
306.628	5.52
307.003	5.31
307.378	5.27
307.754	5.61
308.129	6.16
308.504	5.74
308.879	5.55
309.254	5.77
309.629	5.85
310.003	5.76
310.378	6.05
310.753	6.08
311.128	5.72
311.502	5.7
311.877	5.34
312.252	5.7
312.626	5.71
313.001	5.94
313.375	5.69
313.75	6.03
314.124	6.57
314.498	5.83
314.873	6
315.247	6.33
315.621	6.12
315.995	6.09
316.369	5.97
316.743	5.74
317.117	6.23
317.491	6.62
317.865	6.23
318.239	6.39
318.613	6.77
318.987	6.41
319.361	6.33
319.734	6.69
320.108	7.02
320.482	6.45
320.855	6.5
321.229	6.82
321.602	6.7
321.976	6.17
322.349	6.77
322.723	6.82
323.096	6.83
323.469	6.68
323.843	6.7
324.216	6.78
324.589	7.22
324.962	6.82
325.335	6.67
325.708	6.84
326.081	7.18
326.454	6.28
326.827	6.89
327.2	6.59
327.573	7.36
327.945	6.77
328.318	7.08
328.691	7.65
329.063	7.06
329.436	7.49
329.809	7.38
330.181	7.63
330.553	6.57
330.926	7.1
331.298	7.04
331.671	7.49
332.043	7.04
332.415	7.01
332.787	8.14
333.159	7.19
333.532	6.87
333.904	7.56
334.276	7.45
334.648	7.07
335.02	7.35
335.391	7.57
335.763	7.52
336.135	7.73
336.507	7.21
336.879	7.21
337.25	7.73
337.622	7.85
337.993	7.74
338.365	7.88
338.736	7.76
339.108	7.54
339.479	7.35
339.851	6.9
340.222	7.21
340.593	7.55
340.964	7.54
341.336	7.53
341.707	7.6
342.078	7.78
342.449	7.63
342.82	8.06
343.191	7.46
343.562	7.88
343.933	8.12
344.303	8.29
344.674	8.65
345.045	8.12
345.416	7.94
345.786	7.69
346.157	8.17
346.527	8.01
346.898	8.16
347.268	8.06
347.639	8.12
348.009	7.96
348.38	8.46
348.75	8.52
349.12	8.4
349.49	8.74
349.861	8.47
350.231	8.59
350.601	8.38
350.971	8.48
351.341	8.15
351.711	8.1
352.081	8.51
352.45	8.38
352.82	8.73
353.19	8.84
353.56	8.72
353.929	8.6
354.299	8.82
354.669	8.38
355.038	8.86
355.408	8.81
355.777	9.19
356.147	9.03
356.516	8.64
356.885	8.66
357.254	9.14
357.624	8.61
357.993	8.89
358.362	8.88
358.731	8.78
359.1	8.71
359.469	8.94
359.838	8.66
360.207	8.96
360.576	9.14
360.945	9.23
361.314	9.21
361.682	9.3
362.051	9.06
362.42	9.13
362.788	9.14
363.157	9.51
363.525	9.26
363.894	9.43
364.262	9.24
364.631	9.24
364.999	9.06
365.367	9.49
365.735	9.26
366.104	9.6
366.472	9.59
366.84	9.59
367.208	9.79
367.576	9.7
367.944	9.67
368.312	9.92
368.68	9.76
369.048	9.75
369.416	9.89
369.783	9.67
370.151	9.7
370.519	9.95
370.886	9.77
371.254	9.81
371.621	9.92
371.989	9.98
372.356	9.54
372.724	10.24
373.091	10.26
373.458	10.39
373.826	10.02
374.193	10.14
374.56	10.36
374.927	10.22
375.294	10.06
375.661	9.96
376.028	10.24
376.395	10.53
376.762	10.2
377.129	10.72
377.496	10.57
377.863	10.85
378.229	10.49
378.596	10.78
378.963	10.69
379.329	10.56
379.696	10.83
380.062	10.39
380.429	10.7
380.795	10.87
381.161	10.72
381.528	10.66
381.894	10.65
382.26	10.78
382.626	11.12
382.993	11.12
383.359	10.77
383.725	10.9
384.091	11.12
384.457	11.23
384.823	10.76
385.188	11.33
385.554	11.34
385.92	11.05
386.286	11.39
386.651	11.16
387.017	11.57
387.383	11.34
387.748	11.37
388.114	11.08
388.479	11.55
388.845	11.23
389.21	11.26
389.575	11.85
389.94	11.31
390.306	11.59
390.671	11.82
391.036	11.39
391.401	11.68
391.766	11.76
392.131	11.68
392.496	11.93
392.861	11.68
393.226	11.98
393.591	11.62
393.956	11.83
394.32	11.87
394.685	11.8
395.05	12.2
395.414	12.06
395.779	12.11
396.143	11.81
396.508	12.09
396.872	11.96
397.236	12.09
397.601	11.8
397.965	12.01
398.329	12.18
398.694	12.13
399.058	12.02
399.422	12.2
399.786	12.35
400.15	12.38
400.514	12.26
400.878	12.33
401.242	12.54
401.605	12.29
401.969	12.21
402.333	12.38
402.697	12.31
403.06	12.69
403.424	12.47
403.787	12.69
404.151	12.73
404.514	12.94
404.878	12.84
405.241	12.88
405.604	12.67
405.968	12.91
406.331	12.73
406.694	12.71
407.057	12.47
407.42	12.71
407.783	12.79
408.146	12.92
408.509	12.81
408.872	13.03
409.235	12.9
409.598	13.03
409.961	13.18
410.323	13.08
410.686	13.25
411.049	13.2
411.411	13.12
411.774	13.32
412.136	13.09
412.499	13.03
412.861	13.2
413.223	13.37
413.586	13.19
413.948	13.2
414.31	13.28
414.672	13.44
415.035	13.36
415.397	13.68
415.759	14
416.121	13.48
416.483	13.5
416.845	13.35
417.206	13.37
417.568	13.68
417.93	13.63
418.292	13.62
418.653	13.49
419.015	13.71
419.377	13.62
419.738	13.71
420.1	13.39
420.461	13.66
420.822	13.58
421.184	13.58
421.545	13.56
421.906	13.6
422.267	13.73
422.629	13.8
422.99	13.77
423.351	13.6
423.712	13.61
424.073	13.72
424.434	13.81
424.795	13.94
425.155	13.98
425.516	14
425.877	13.99
426.238	13.81
426.598	13.9
426.959	14.05
427.32	14.04
427.68	14.1
428.041	14.24
428.401	14.3
428.761	14.64
429.122	14.35
429.482	14.62
429.842	14.36
430.202	14.51
430.563	14.87
430.923	14.82
431.283	14.87
431.643	14.94
432.003	14.84
432.363	14.98
432.722	14.96
433.082	15.04
433.442	14.99
433.802	15.15
434.161	15.03
434.521	15.09
434.881	15.14
435.24	15.14
435.6	14.99
435.959	15.15
436.319	15.22
436.678	15.26
437.037	15.37
437.396	15.4
437.756	15.47
438.115	15.53
438.474	15.49
438.833	15.54
439.192	15.52
439.551	15.43
439.91	15.73
440.269	15.64
440.628	15.41
440.987	15.62
441.345	15.74
441.704	15.75
442.063	15.84
442.421	15.76
442.78	15.88
443.138	15.79
443.497	15.79
443.855	15.77
444.214	15.85
444.572	16.11
444.93	16.21
445.288	16.06
445.647	16.24
446.005	16.17
446.363	15.96
446.721	16.37
447.079	16.16
447.437	16.15
447.795	16.32
448.153	16.08
448.51	16.14
448.868	16.15
449.226	16.25
449.584	16.32
449.941	16.34
450.299	16.46
450.656	16.55
451.014	16.61
451.371	16.84
451.729	16.8
452.086	16.63
452.443	17.01
452.801	16.94
453.158	16.91
453.515	16.89
453.872	17.03
454.229	16.96
454.586	17.08
454.943	17.17
455.3	17.19
455.657	17.04
456.014	17.28
456.371	17.28
456.727	17.42
457.084	17.54
457.441	17.37
457.797	17.44
458.154	17.5
458.51	17.16
458.867	17.52
459.223	17.67
459.58	17.54
459.936	17.82
460.292	17.55
460.648	17.71
461.005	17.69
461.361	17.74
461.717	17.47
462.073	17.49
462.429	17.4
462.785	17.6
463.141	17.63
463.496	17.88
463.852	17.9
464.208	17.9
464.564	18.11
464.919	18.19
465.275	18.41
465.631	18.51
465.986	18.4
466.342	18.33
466.697	18.53
467.052	18.4
467.408	18.55
467.763	18.46
468.118	18.71
468.473	18.57
468.829	18.69
469.184	18.61
469.539	18.61
469.894	18.89
470.249	18.75
470.603	18.83
470.958	19.02
471.313	18.84
471.668	19.15
472.023	19.03
472.377	19.05
472.732	18.95
473.086	19.19
473.441	19.12
473.795	19.26
474.15	19.09
474.504	19.32
474.859	19.32
475.213	19.18
475.567	19.31
475.921	19.39
476.275	19.36
476.63	19.38
476.984	19.51
477.338	19.71
477.692	19.81
478.045	19.84
478.399	19.87
478.753	19.77
479.107	19.73
479.461	19.65
479.814	19.76
480.168	19.81
480.521	19.81
480.875	19.97
481.228	19.83
481.582	19.83
481.935	19.91
482.289	20.05
482.642	19.94
482.995	20.1
483.348	19.98
483.701	19.96
484.055	20.02
484.408	19.83
484.761	19.85
485.114	19.71
485.466	19.5
485.819	19.26
486.172	19.23
486.525	19.27
486.878	19.39
487.23	19.51
487.583	19.66
487.936	19.79
488.288	19.92
488.641	19.93
488.993	19.83
489.345	19.89
489.698	19.81
490.05	19.81
490.402	19.78
490.754	19.82
491.107	20.04
491.459	20.14
491.811	20.45
492.163	20.48
492.515	20.56
492.866	20.65
493.218	20.58
493.57	20.45
493.922	20.26
494.274	20.23
494.625	20.44
494.977	20.57
495.328	20.92
495.68	21.08
496.031	21.19
496.383	21.36
496.734	21.33
497.086	21.58
497.437	21.5
497.788	21.62
498.139	21.55
498.49	21.6
498.842	21.59
499.193	21.4
499.544	21.6
499.894	21.53
500.245	21.69
500.596	21.73
500.947	21.7
501.298	21.93
501.648	22.03
501.999	21.85
502.35	22.2
502.7	22.12
503.051	22.18
503.401	22.23
503.752	22.3
504.102	22.25
504.452	22.32
504.803	22.3
505.153	22.3
505.503	22.41
505.853	22.49
506.203	22.37
506.553	22.61
506.903	22.7
507.253	22.63
507.603	22.79
507.953	22.71
508.303	22.64
508.652	22.7
509.002	22.98
509.352	22.59
509.701	22.95
510.051	22.91
510.4	22.87
510.75	22.83
511.099	22.78
511.449	22.74
511.798	23.01
512.147	22.85
512.496	22.86
512.846	22.92
513.195	23.02
513.544	23.11
513.893	23.22
514.242	23.18
514.591	23.13
514.939	23.45
515.288	23.18
515.637	23.3
515.986	23.32
516.334	23.39
516.683	23.47
517.032	23.66
517.38	23.66
517.729	23.68
518.077	23.7
518.426	23.74
518.774	23.65
519.122	23.74
519.47	23.72
519.819	23.76
520.167	23.61
520.515	23.66
520.863	23.52
521.211	23.56
521.559	23.62
521.907	23.74
522.255	23.78
522.602	23.89
522.95	23.93
523.298	24.16
523.645	24.34
523.993	24.25
524.341	24.15
524.688	24.46
525.036	24.31
525.383	24.26
525.73	24.54
526.078	24.46
526.425	24.52
526.772	24.46
527.119	24.52
527.466	24.29
527.814	24.24
528.161	24.07
528.508	24.18
528.854	24.32
529.201	24.37
529.548	24.23
529.895	24.32
530.242	24.11
530.588	23.91
530.935	23.85
531.282	23.99
531.628	24.08
531.975	24.11
532.321	24.22
532.667	24.35
533.014	24.57
533.36	24.74
533.706	24.86
534.052	24.95
534.399	24.91
534.745	24.92
535.091	24.72
535.437	24.61
535.783	24.63
536.129	24.83
536.474	24.9
536.82	24.85
537.166	25.26
537.512	25.34
537.857	25.29
538.203	25.54
538.549	25.3
538.894	25.27
539.239	25.26
539.585	25.41
539.93	25.53
540.276	25.47
540.621	25.65
540.966	25.92
541.311	26.02
541.656	26.15
542.001	26.05
542.346	25.95
542.691	25.98
543.036	25.67
543.381	25.49
543.726	25.43
544.071	25.52
544.415	25.46
544.76	25.62
545.105	25.68
545.449	25.8
545.794	25.91
546.138	26.15
546.483	26.2
546.827	26.31
547.171	26.36
547.516	26.47
547.86	26.6
548.204	26.66
548.548	26.58
548.892	26.55
549.236	26.6
549.58	26.54
549.924	26.79
550.268	26.9
550.612	26.94
550.956	27.1
551.3	27.31
551.643	27.54
551.987	27.24
552.33	27.62
552.674	27.54
553.017	27.52
553.361	27.45
553.704	27.65
554.048	27.53
554.391	27.61
554.734	27.52
555.077	27.55
555.42	27.55
555.764	27.78
556.107	27.74
556.45	27.99
556.793	27.89
557.135	28.06
557.478	28.03
557.821	28.1
558.164	28.21
558.507	28.4
558.849	28.42
559.192	28.34
559.534	28.24
559.877	28.3
560.219	28.38
560.562	28.59
560.904	28.69
561.246	28.57
561.589	28.73
561.931	28.67
562.273	28.41
562.615	28.55
562.957	28.62
563.299	28.81
563.641	28.86
563.983	28.85
564.325	28.95
564.667	28.93
565.008	28.89
565.35	29
565.692	28.89
566.033	29.13
566.375	29.29
566.716	29.18
567.058	28.96
567.399	29.18
567.741	29.04
568.082	29.26
568.423	29.14
568.764	29.14
569.105	28.97
569.447	29.1
569.788	29.11
570.129	29.47
570.47	29.66
570.811	29.62
571.151	29.82
571.492	29.44
571.833	29.45
572.174	29.6
572.514	29.76
572.855	29.64
573.195	29.79
573.536	29.56
573.876	29.89
574.217	29.66
574.557	29.7
574.898	29.71
575.238	29.9
575.578	29.81
575.918	29.85
576.258	29.95
576.598	30.15
576.938	30.12
577.278	30.15
577.618	30.13
577.958	30.18
578.298	30.25
578.638	30.24
578.977	30.06
579.317	30.24
579.657	30.52
579.996	30.47
580.336	30.47
580.675	30.77
581.014	30.6
581.354	30.84
581.693	31.07
582.032	31.06
582.372	30.83
582.711	31.15
583.05	31.05
583.389	31.34
583.728	31.31
584.067	31.39
584.406	31.21
584.745	30.97
585.083	31.28
585.422	31.55
585.761	31.31
586.1	31.46
586.438	31.54
586.777	31.67
587.115	31.36
587.454	31.65
587.792	31.51
588.13	31.28
588.469	31.63
588.807	31.79
589.145	31.85
589.483	31.71
589.821	31.75
590.159	31.76
590.497	31.96
590.835	32.01
591.173	31.6
591.511	31.75
591.849	32.18
592.187	32.06
592.524	32
592.862	31.88
593.2	32.1
593.537	32.27
593.875	31.97
594.212	32.06
594.55	32.41
594.887	32.3
595.224	32.41
595.561	32.73
595.899	32.48
596.236	32.36
596.573	32.59
596.91	32.31
597.247	32.43
597.584	32.52
597.921	32.54
598.258	32.78
598.594	32.52
598.931	32.46
599.268	32.49
599.604	32.39
599.941	32.47
600.277	32.73
600.614	32.67
600.95	32.99
601.287	32.72
601.623	33.14
601.959	33.23
602.296	33.33
602.632	32.94
602.968	33.44
603.304	33.33
603.64	33.08
603.976	33.35
604.312	33.37
604.648	33.46
604.984	33.5
605.319	33.34
605.655	33.38
605.991	33.41
606.326	33.44
606.662	33.36
606.998	33.28
607.333	33.43
607.668	33.4
608.004	33.38
608.339	33.38
608.674	33.55
609.01	33.65
609.345	33.91
609.68	33.89
610.015	33.74
610.35	33.68
610.685	34.41
611.02	34.01
611.355	33.89
611.689	33.86
612.024	33.84
612.359	34.01
612.694	34.03
613.028	34.03
613.363	33.8
613.697	34.08
614.032	34.4
614.366	34.49
614.7	34.23
615.035	34.32
615.369	34.65
615.703	34.39
616.037	34.93
616.371	35.1
616.705	34.94
617.039	34.45
617.373	34.94
617.707	35.16
618.041	34.84
618.375	35.19
618.709	34.68
619.042	35.36
619.376	35.72
619.71	35.1
620.043	34.7
620.377	35.18
620.71	34.87
621.043	35.81
621.377	34.97
621.71	35.55
622.043	35.25
622.376	35.33
622.709	35.4
623.043	35.21
623.376	35.35
623.709	35.75
624.041	35.8
624.374	35.79
624.707	35.61
625.04	36.07
625.373	35.39
625.705	36.24
626.038	35.75
626.37	35.78
626.703	36.23
627.035	36.02
627.368	35.64
627.7	36.33
628.032	36.25
628.365	36.04
628.697	35.72
629.029	36.08
629.361	36.03
629.693	35.89
630.025	36.1
630.357	35.93
630.689	36.28
631.021	36.32
631.353	36.04
631.684	36.21
632.016	36.48
632.348	36.58
632.679	36.4
633.011	36.87
633.342	36.44
633.674	37.03
634.005	36.21
634.336	36.46
634.668	36.64
634.999	36.41
635.33	36.71
635.661	36.72
635.992	36.49
636.323	36.57
636.654	37.01
636.985	36.92
637.316	36.66
637.647	36.95
637.977	36.5
638.308	37.11
638.639	37.13
638.969	37.07
639.3	37.03
639.63	37.54
639.961	37.05
640.291	37.32
640.622	37.34
640.952	36.9
641.282	37.4
641.612	37.25
641.943	37.89
642.273	37.63
642.603	37.5
642.933	37.12
643.263	36.69
643.592	37.5
643.922	37.56
644.252	37.67
644.582	37.79
644.911	37.55
645.241	37.76
645.571	37.46
645.9	37.75
646.23	37.91
646.559	38.26
646.888	38.13
647.218	37.82
647.547	37.7
647.876	37.9
648.205	37.84
648.534	38.5
648.863	38.01
649.192	37.82
649.521	37.85
649.85	38.11
650.179	38.4
650.508	38.31
650.837	38.54
651.165	38.59
651.494	38.11
651.822	38.56
652.151	38.37
652.479	38.29
652.808	38.65
653.136	38.72
653.465	39.15
653.793	38.81
654.121	38.65
654.449	38.39
654.777	38.25
655.105	38.8
655.433	38.69
655.761	39.03
656.089	38.82
656.417	38.45
656.745	38.61
657.073	38.36
657.4	39.06
657.728	39.37
658.056	39.34
658.383	39.45
658.711	38.93
659.038	38.91
659.365	39.3
659.693	38.68
660.02	39.15
660.347	39
660.674	39.16
661.001	39.2
661.329	38.86
661.656	39.22
661.982	39.24
662.309	39.53
662.636	39.26
662.963	39.57
663.29	39.86
663.616	39.94
663.943	39.56
664.27	39.72
664.596	39.48
664.923	39.46
665.249	39.72
665.576	39.55
665.902	40.04
666.228	39.73
666.554	39.68
666.881	40.01
667.207	39.77
667.533	39.41
667.859	39.98
668.185	40.35
668.511	40.34
668.837	40.5
669.162	40
669.488	40.18
669.814	40.46
670.139	39.89
670.465	40.49
670.791	40.32
671.116	40.33
671.442	40.49
671.767	39.4
672.092	40.92
672.418	40.57
