Data from 0221_forehead_Reflection__1__279.txt Node

Date: Fri Sep 22 22:57:09 CDT 2023
User: ToomeyLab
Spectrometer: FLMS14357
Trigger mode: 0
Integration Time (sec): 1.000000E-2
Scans to average: 100
Electric dark correction enabled: true
Nonlinearity correction enabled: false
Boxcar width: 0
XAxis mode: Wavelengths
Number of Pixels in Spectrum: 2048
>>>>>Begin Spectral Data<<<<<
189.047	-183.08
189.435	-183.08
189.823	-183.08
190.211	-341.58
190.599	-140.79
190.987	203.24
191.375	31.39
191.763	-18.74
192.151	104.11
192.538	92.34
192.926	68.13
193.314	740.39
193.702	1612.87
194.089	132.67
194.477	-115.29
194.864	121.05
195.252	-15.06
195.639	-1.81
196.027	117.85
196.414	372.89
196.801	326.99
197.189	236.59
197.576	15.93
197.963	45.49
198.351	190.46
198.738	23.15
199.125	-24.98
199.512	36.35
199.899	93.36
200.286	38.63
200.673	19.23
201.06	23.39
201.447	53.74
201.833	37.12
202.22	21.08
202.607	66.79
202.994	34.26
203.38	45.85
203.767	5.52
204.154	53.78
204.54	38.51
204.927	2.15
205.313	67.54
205.699	43.16
206.086	19.21
206.472	67.07
206.858	45.7
207.245	40.02
207.631	30.89
208.017	32.51
208.403	31.97
208.789	68.13
209.175	59.69
209.561	43.95
209.947	56.73
210.333	41.72
210.719	-11.64
211.105	46.1
211.491	42.33
211.876	43.72
212.262	24.33
212.648	46.4
213.034	56.08
213.419	62.46
213.805	29.09
214.19	24.78
214.576	45.46
214.961	12.27
215.346	25.36
215.732	35.34
216.117	-9.73
216.502	46.79
216.888	15.22
217.273	13.87
217.658	20.61
218.043	34.59
218.428	29.05
218.813	-14.04
219.198	28.79
219.583	44.35
219.968	5.43
220.353	48.56
220.738	1.46
221.122	17.91
221.507	4.38
221.892	17.07
222.276	16.18
222.661	-13.36
223.046	20.03
223.43	25.85
223.815	-3.78
224.199	6.06
224.583	6.08
224.968	29.97
225.352	3.95
225.736	10.75
226.121	11.42
226.505	9.69
226.889	7.97
227.273	7.14
227.657	5.36
228.041	2.65
228.425	10.06
228.809	4.87
229.193	7.31
229.577	9.29
229.961	4.5
230.344	7.5
230.728	4.46
231.112	3.77
231.495	3.78
231.879	4.08
232.263	2.05
232.646	3.88
233.03	2.16
233.413	4.99
233.797	3.35
234.18	4.6
234.563	5.84
234.946	6.43
235.33	2.87
235.713	4.35
236.096	3.37
236.479	2.47
236.862	5.89
237.245	4.98
237.628	4.05
238.011	5.71
238.394	4.97
238.777	5.35
239.16	5.53
239.543	6.17
239.925	7.03
240.308	5.05
240.691	4.98
241.073	4.82
241.456	3.89
241.838	3.6
242.221	4.28
242.603	4.04
242.986	3.67
243.368	3.37
243.75	3.35
244.133	4.04
244.515	3.6
244.897	3.03
245.279	3.21
245.661	3.9
246.043	3.04
246.425	2.78
246.807	3.85
247.189	2.67
247.571	4.42
247.953	4.27
248.335	3.27
248.717	3.21
249.098	3.28
249.48	3.39
249.862	3.02
250.243	3.04
250.625	3.92
251.006	2.99
251.388	3.52
251.769	3.74
252.151	3.49
252.532	3.19
252.913	4.51
253.295	5.45
253.676	3.82
254.057	3.53
254.438	3.99
254.819	3.13
255.2	4.24
255.581	4.05
255.962	4.34
256.343	3.47
256.724	2.95
257.105	3.93
257.486	4
257.867	4.38
258.247	4.49
258.628	4.13
259.009	4.39
259.389	4.27
259.77	4.01
260.15	4.42
260.531	3.68
260.911	3.25
261.292	3.58
261.672	2.87
262.052	3.35
262.432	3.3
262.813	3.41
263.193	3.05
263.573	3.88
263.953	2.98
264.333	3.21
264.713	3.84
265.093	3.45
265.473	3.55
265.853	3.22
266.233	4.2
266.612	3.65
266.992	4.19
267.372	3.94
267.752	4.75
268.131	3.32
268.511	3.08
268.89	3.81
269.27	3.47
269.649	3.63
270.029	3.3
270.408	3.13
270.787	3.57
271.167	3.31
271.546	3
271.925	3.39
272.304	2.71
272.683	2.96
273.062	3.76
273.441	3.65
273.82	3.88
274.199	3.57
274.578	3.41
274.957	3.21
275.336	3.08
275.715	3.45
276.093	3.49
276.472	3.54
276.851	3.85
277.229	3.23
277.608	3.4
277.986	3.1
278.365	3.56
278.743	3.69
279.122	3.45
279.5	3.41
279.878	3.22
280.257	3.88
280.635	3.14
281.013	3.61
281.391	3.15
281.769	3.72
282.147	3.22
282.525	3.35
282.903	3.65
283.281	4.03
283.659	3.59
284.037	3.11
284.415	3.46
284.792	3.13
285.17	3.43
285.548	4.17
285.925	3.72
286.303	3.15
286.68	3.45
287.058	3.25
287.435	3
287.813	3.09
288.19	2.99
288.567	3.55
288.945	3.42
289.322	3.5
289.699	3.93
290.076	3.73
290.453	3.41
290.83	2.99
291.207	3.73
291.584	3.35
291.961	3.55
292.338	3.91
292.715	3.52
293.092	3.36
293.469	3.86
293.845	3.34
294.222	3.78
294.599	3.96
294.975	3.75
295.352	4.4
295.728	3.65
296.105	4.43
296.481	3.99
296.858	3.36
297.234	3.61
297.61	3.67
297.986	3.55
298.363	3.77
298.739	3.68
299.115	3.56
299.491	3.74
299.867	3.79
300.243	3.78
300.619	3.89
300.995	3.4
301.371	4.13
301.746	4.25
302.122	4.17
302.498	3.67
302.874	3.99
303.249	3.8
303.625	3.7
304	4.47
304.376	4.32
304.751	4.47
305.127	4.26
305.502	4.32
305.878	4.21
306.253	4.44
306.628	4.28
307.003	4.69
307.378	4.09
307.754	3.77
308.129	4.43
308.504	4.72
308.879	4.45
309.254	4.31
309.629	4.85
310.003	4.7
310.378	4.82
310.753	4.23
311.128	4.22
311.502	4.91
311.877	4.11
312.252	4.36
312.626	4.35
313.001	4.91
313.375	4.55
313.75	5.09
314.124	4.71
314.498	4.54
314.873	4.9
315.247	4.8
315.621	4.69
315.995	4.8
316.369	5.26
316.743	5.01
317.117	5.33
317.491	5.34
317.865	4.94
318.239	4.84
318.613	4.64
318.987	4.99
319.361	5.08
319.734	4.92
320.108	5.51
320.482	5.31
320.855	4.6
321.229	5.74
321.602	5.32
321.976	5.02
322.349	5.19
322.723	5.11
323.096	5.5
323.469	5.09
323.843	5.45
324.216	5.08
324.589	5.34
324.962	5.16
325.335	5.2
325.708	5.28
326.081	5.22
326.454	5.14
326.827	5.2
327.2	5.59
327.573	6.08
327.945	6.04
328.318	5.39
328.691	5.92
329.063	5.15
329.436	5.39
329.809	5.54
330.181	5.74
330.553	5.51
330.926	6.34
331.298	5.69
331.671	6.4
332.043	5.12
332.415	5.73
332.787	6.48
333.159	5.81
333.532	5.37
333.904	5.97
334.276	5.93
334.648	5.44
335.02	5.79
335.391	6.18
335.763	6.17
336.135	6.42
336.507	6.38
336.879	6.05
337.25	5.94
337.622	6.42
337.993	6.09
338.365	6.21
338.736	6.03
339.108	6.55
339.479	6.06
339.851	5.6
340.222	6.49
340.593	6.06
340.964	5.4
341.336	6.14
341.707	6.05
342.078	6.54
342.449	6.87
342.82	6.29
343.191	5.98
343.562	6.46
343.933	6.5
344.303	6.2
344.674	6.57
345.045	6.32
345.416	6.4
345.786	6.42
346.157	6.55
346.527	6.63
346.898	6.65
347.268	6.19
347.639	6.49
348.009	6.57
348.38	6.69
348.75	6.99
349.12	6.78
349.49	6.82
349.861	6.64
350.231	7.12
350.601	6.88
350.971	6.7
351.341	6.63
351.711	6.52
352.081	6.76
352.45	6.66
352.82	6.94
353.19	7.54
353.56	6.68
353.929	7.49
354.299	7.03
354.669	6.96
355.038	7.33
355.408	7.03
355.777	7.16
356.147	7.2
356.516	7.27
356.885	7.34
357.254	7.42
357.624	6.74
357.993	6.98
358.362	7.42
358.731	7.09
359.1	7.23
359.469	7.33
359.838	6.96
360.207	7.02
360.576	7.51
360.945	7.07
361.314	7.44
361.682	7.43
362.051	7.44
362.42	7.29
362.788	7.27
363.157	7.65
363.525	7.46
363.894	7.48
364.262	7.4
364.631	7.21
364.999	7.58
365.367	7.78
365.735	7.68
366.104	7.57
366.472	7.99
366.84	7.72
367.208	7.96
367.576	7.94
367.944	7.93
368.312	7.9
368.68	8.05
369.048	7.77
369.416	8.17
369.783	7.74
370.151	8.02
370.519	8.04
370.886	7.88
371.254	8.25
371.621	8.05
371.989	8.11
372.356	7.94
372.724	8.4
373.091	8.46
373.458	7.98
373.826	8.17
374.193	8.36
374.56	8.46
374.927	8.29
375.294	8.19
375.661	8.24
376.028	8.33
376.395	8.51
376.762	8.27
377.129	8.62
377.496	8.64
377.863	8.69
378.229	8.52
378.596	8.25
378.963	8.9
379.329	8.62
379.696	8.71
380.062	8.43
380.429	8.84
380.795	8.99
381.161	8.58
381.528	8.68
381.894	8.46
382.26	8.87
382.626	8.96
382.993	9.08
383.359	8.43
383.725	8.89
384.091	8.97
384.457	9.06
384.823	8.97
385.188	9.09
385.554	9.05
385.92	9.26
386.286	9.01
386.651	9.01
387.017	9.24
387.383	9.01
387.748	9.45
388.114	9.29
388.479	9.68
388.845	9.01
389.21	9.18
389.575	9.55
389.94	9.22
390.306	9.87
390.671	9.74
391.036	9.21
391.401	9.75
391.766	9.47
392.131	9.74
392.496	9.83
392.861	9.6
393.226	9.57
393.591	9.58
393.956	9.55
394.32	9.62
394.685	9.77
395.05	9.97
395.414	9.79
395.779	9.89
396.143	9.96
396.508	9.86
396.872	9.88
397.236	9.92
397.601	9.81
397.965	10.16
398.329	10.03
398.694	10.24
399.058	10.27
399.422	9.97
399.786	9.99
400.15	10.25
400.514	10.28
400.878	10.4
401.242	10.45
401.605	10.46
401.969	10.09
402.333	10.38
402.697	10.18
403.06	10.19
403.424	10.33
403.787	10.67
404.151	10.54
404.514	10.48
404.878	10.81
405.241	10.73
405.604	10.74
405.968	10.78
406.331	10.55
406.694	10.61
407.057	10.45
407.42	10.61
407.783	10.72
408.146	11.03
408.509	10.65
408.872	10.78
409.235	10.78
409.598	10.78
409.961	11.01
410.323	11.13
410.686	11.06
411.049	11.2
411.411	11.08
411.774	10.94
412.136	10.82
412.499	10.82
412.861	11.06
413.223	11
413.586	11.06
413.948	11.1
414.31	11.24
414.672	11.26
415.035	11.07
415.397	11.56
415.759	11.59
416.121	11.3
416.483	11.34
416.845	11.38
417.206	11.29
417.568	11.33
417.93	11.33
418.292	11.3
418.653	11.09
419.015	11.31
419.377	11.25
419.738	11.47
420.1	11.36
420.461	11.32
420.822	11.45
421.184	11.28
421.545	11.24
421.906	11.31
422.267	11.39
422.629	11.46
422.99	11.27
423.351	11.28
423.712	11.2
424.073	11.41
424.434	11.59
424.795	11.57
425.155	11.76
425.516	11.59
425.877	11.56
426.238	11.52
426.598	11.61
426.959	11.66
427.32	11.69
427.68	11.64
428.041	11.83
428.401	11.93
428.761	11.92
429.122	12.13
429.482	12.14
429.842	11.9
430.202	12.13
430.563	12.22
430.923	12.26
431.283	12.23
431.643	12.44
432.003	12.37
432.363	12.57
432.722	12.56
433.082	12.45
433.442	12.49
433.802	12.6
434.161	12.45
434.521	12.53
434.881	12.62
435.24	12.58
435.6	12.64
435.959	12.33
436.319	12.45
436.678	12.64
437.037	12.64
437.396	12.63
437.756	12.81
438.115	12.85
438.474	12.9
438.833	12.99
439.192	12.93
439.551	13.05
439.91	13.04
440.269	12.95
440.628	12.84
440.987	13.03
441.345	12.98
441.704	12.94
442.063	13.05
442.421	13
442.78	12.95
443.138	12.93
443.497	13.04
443.855	13.01
444.214	13.03
444.572	13.34
444.93	13.29
445.288	13.42
445.647	13.45
446.005	13.4
446.363	13.29
446.721	13.44
447.079	13.32
447.437	13.4
447.795	13.44
448.153	13.28
448.51	13.35
448.868	13.31
449.226	13.36
449.584	13.4
449.941	13.42
450.299	13.57
450.656	13.6
451.014	13.66
451.371	13.79
451.729	13.96
452.086	13.82
452.443	13.9
452.801	13.91
453.158	13.91
453.515	14.05
453.872	13.94
454.229	14.13
454.586	14.08
454.943	14.07
455.3	14.1
455.657	14.07
456.014	14.15
456.371	14.39
456.727	14.54
457.084	14.41
457.441	14.33
457.797	14.47
458.154	14.49
458.51	14.34
458.867	14.6
459.223	14.54
459.58	14.54
459.936	14.57
460.292	14.54
460.648	14.47
461.005	14.48
461.361	14.6
461.717	14.39
462.073	14.34
462.429	14.2
462.785	14.4
463.141	14.56
463.496	14.72
463.852	14.73
464.208	14.8
464.564	14.96
464.919	14.92
465.275	15.44
465.631	15.16
465.986	15.19
466.342	15.09
466.697	15.19
467.052	15.09
467.408	15.12
467.763	15.24
468.118	15.48
468.473	15.11
468.829	15.27
469.184	15.35
469.539	15.17
469.894	15.43
470.249	15.36
470.603	15.35
470.958	15.69
471.313	15.47
471.668	15.64
472.023	15.57
472.377	15.68
472.732	15.72
473.086	15.89
473.441	15.58
473.795	15.94
474.15	15.79
474.504	15.86
474.859	15.85
475.213	15.77
475.567	15.83
475.921	15.86
476.275	15.98
476.63	15.83
476.984	15.95
477.338	16.14
477.692	16.14
478.045	16.17
478.399	16.27
478.753	16.14
479.107	16.17
479.461	15.92
479.814	16.33
480.168	16.35
480.521	16.28
480.875	16.37
481.228	16.32
481.582	16.23
481.935	16.33
482.289	16.58
482.642	16.52
482.995	16.4
483.348	16.39
483.701	16.46
484.055	16.32
484.408	16.28
484.761	16.22
485.114	16.09
485.466	15.92
485.819	15.72
486.172	15.56
486.525	15.67
486.878	15.83
487.23	15.96
487.583	16.13
487.936	16.3
488.288	16.38
488.641	16.33
488.993	16.27
489.345	16.2
489.698	16.07
490.05	16.15
490.402	16.21
490.754	16.22
491.107	16.37
491.459	16.62
491.811	16.72
492.163	16.87
492.515	16.91
492.866	16.94
493.218	16.93
493.57	16.67
493.922	16.47
494.274	16.57
494.625	16.73
494.977	16.94
495.328	17.2
495.68	17.28
496.031	17.33
496.383	17.62
496.734	17.67
497.086	17.6
497.437	17.73
497.788	17.69
498.139	17.79
498.49	17.81
498.842	17.58
499.193	17.6
499.544	17.59
499.894	17.6
500.245	17.85
500.596	17.86
500.947	17.93
501.298	18.06
501.648	18.1
501.999	18.19
502.35	18.18
502.7	18.29
503.051	18.19
503.401	18.37
503.752	18.36
504.102	18.55
504.452	18.44
504.803	18.34
505.153	18.44
505.503	18.47
505.853	18.62
506.203	18.45
506.553	18.71
506.903	18.66
507.253	18.56
507.603	18.71
507.953	18.78
508.303	18.79
508.652	18.86
509.002	19.01
509.352	18.72
509.701	18.99
510.051	18.85
510.4	18.85
510.75	18.85
511.099	18.75
511.449	18.88
511.798	18.97
512.147	18.82
512.496	18.88
512.846	19.11
513.195	19.02
513.544	19.17
513.893	19.2
514.242	19.09
514.591	19.29
514.939	19.32
515.288	19.2
515.637	19.23
515.986	19.34
516.334	19.46
516.683	19.41
517.032	19.56
517.38	19.6
517.729	19.57
518.077	19.63
518.426	19.59
518.774	19.7
519.122	19.67
519.47	19.65
519.819	19.68
520.167	19.6
520.515	19.51
520.863	19.39
521.211	19.38
521.559	19.51
521.907	19.54
522.255	19.6
522.602	19.72
522.95	19.91
523.298	19.98
523.645	20.11
523.993	20.1
524.341	20.19
524.688	20.45
525.036	20.25
525.383	20.21
525.73	20.32
526.078	20.28
526.425	20.43
526.772	20.47
527.119	20.3
527.466	20.2
527.814	20.11
528.161	19.92
528.508	20.11
528.854	20.25
529.201	20.22
529.548	20.18
529.895	20.1
530.242	19.99
530.588	19.74
530.935	19.75
531.282	19.73
531.628	19.98
531.975	19.94
532.321	20.06
532.667	20.33
533.014	20.49
533.36	20.73
533.706	20.64
534.052	20.75
534.399	20.73
534.745	20.73
535.091	20.61
535.437	20.33
535.783	20.29
536.129	20.52
536.474	20.67
536.82	20.78
537.166	21.12
537.512	21.16
537.857	21.24
538.203	21.31
538.549	21.23
538.894	21.01
539.239	21.07
539.585	21.16
539.93	21.41
540.276	21.35
540.621	21.58
540.966	21.72
541.311	21.78
541.656	21.64
542.001	21.84
542.346	21.77
542.691	21.61
543.036	21.5
543.381	21.16
543.726	21.14
544.071	21.16
544.415	21.3
544.76	21.33
545.105	21.44
545.449	21.57
545.794	21.69
546.138	21.9
546.483	22.01
546.827	22.08
547.171	22.19
547.516	22.2
547.86	22.23
548.204	22.27
548.548	22.38
548.892	22.23
549.236	22.17
549.58	22.27
549.924	22.57
550.268	22.65
550.612	22.73
550.956	22.75
551.3	23.01
551.643	22.91
551.987	23.21
552.33	23.21
552.674	23.22
553.017	23.03
553.361	23.15
553.704	23.3
554.048	23.49
554.391	23.36
554.734	23.24
555.077	23.11
555.42	23.19
555.764	23.32
556.107	23.41
556.45	23.41
556.793	23.33
557.135	23.62
557.478	23.72
557.821	23.59
558.164	23.74
558.507	23.88
558.849	23.88
559.192	24.01
559.534	24.08
559.877	23.73
560.219	23.92
560.562	24
560.904	24.08
561.246	24.17
561.589	24.01
561.931	24.16
562.273	24.01
562.615	23.89
562.957	24.24
563.299	24.1
563.641	24.24
563.983	24.44
564.325	24.48
564.667	24.54
565.008	24.42
565.35	24.54
565.692	24.63
566.033	24.49
566.375	24.44
566.716	24.61
567.058	24.7
567.399	24.62
567.741	24.67
568.082	24.54
568.423	24.46
568.764	24.63
569.105	24.39
569.447	24.47
569.788	24.65
570.129	24.9
570.47	25.1
570.811	24.91
571.151	25.08
571.492	24.94
571.833	24.97
572.174	25.13
572.514	25.1
572.855	25.28
573.195	25.08
573.536	25.11
573.876	25
574.217	25.15
574.557	25.05
574.898	25.07
575.238	25.19
575.578	25.27
575.918	25.37
576.258	25.35
576.598	25.64
576.938	25.61
577.278	25.64
577.618	25.55
577.958	25.59
578.298	25.58
578.638	25.63
578.977	25.82
579.317	25.63
579.657	26.16
579.996	25.82
580.336	26.11
580.675	26.2
581.014	25.92
581.354	26.2
581.693	26.25
582.032	26.44
582.372	26.19
582.711	26.48
583.05	26.29
583.389	26.6
583.728	26.71
584.067	26.76
584.406	26.68
584.745	26.36
585.083	26.83
585.422	26.45
585.761	26.73
586.1	26.57
586.438	26.51
586.777	26.63
587.115	26.78
587.454	26.76
587.792	26.92
588.13	27.03
588.469	26.82
588.807	26.9
589.145	27.04
589.483	26.82
589.821	27.09
590.159	27.09
590.497	27.04
590.835	27.4
591.173	27.21
591.511	27.21
591.849	27.47
592.187	27.44
592.524	27.47
592.862	27.52
593.2	27.16
593.537	27.31
593.875	27.42
594.212	27.16
594.55	27.71
594.887	27.38
595.224	27.78
595.561	27.81
595.899	27.64
596.236	27.92
596.573	27.9
596.91	27.79
597.247	27.61
597.584	27.99
597.921	27.87
598.258	28.04
598.594	28.05
598.931	27.8
599.268	27.85
599.604	27.75
599.941	27.83
600.277	27.68
600.614	27.9
600.95	28.21
601.287	28.04
601.623	28.02
601.959	28.17
602.296	28.64
602.632	28.13
602.968	28.45
603.304	28.72
603.64	28.56
603.976	28.44
604.312	28.77
604.648	28.63
604.984	28.49
605.319	28.31
605.655	28.3
605.991	28.27
606.326	28.82
606.662	28.51
606.998	28.37
607.333	28.58
607.668	28.47
608.004	28.55
608.339	28.6
608.674	28.74
609.01	28.95
609.345	29.13
609.68	29.09
610.015	29.06
610.35	28.78
610.685	29.32
611.02	29.32
611.355	28.99
611.689	29.04
612.024	29.02
612.359	29
612.694	29.21
613.028	29.12
613.363	29.04
613.697	29.24
614.032	29.5
614.366	29.43
614.7	29.67
615.035	29.94
615.369	29.42
615.703	29.52
616.037	29.71
616.371	29.9
616.705	30.27
617.039	29.84
617.373	30.07
617.707	29.83
618.041	30.27
618.375	30.2
618.709	30.61
619.042	30.31
619.376	29.99
619.71	30.51
620.043	30.01
620.377	30.06
620.71	29.94
621.043	30.37
621.377	30.31
621.71	30.88
622.043	30.49
622.376	30.44
622.709	30.54
623.043	30.44
623.376	30.55
623.709	30.65
624.041	31
624.374	30.73
624.707	30.69
625.04	30.89
625.373	30.51
625.705	30.92
626.038	30.87
626.37	30.74
626.703	30.9
627.035	31.15
627.368	31.14
627.7	31.04
628.032	30.85
628.365	31.11
628.697	30.79
629.029	30.93
629.361	31.26
629.693	31.09
630.025	30.97
630.357	30.84
630.689	31.08
631.021	31.06
631.353	31.03
631.684	31.21
632.016	31.31
632.348	31.39
632.679	31.16
633.011	31.57
633.342	31.81
633.674	31.57
634.005	30.85
634.336	31.67
634.668	31.95
634.999	31.48
635.33	31.63
635.661	31.33
635.992	31.59
636.323	31.91
636.654	31.75
636.985	31.47
637.316	31.71
637.647	31.91
637.977	31.56
638.308	32.18
638.639	31.86
638.969	32.14
639.3	31.66
639.63	32.48
639.961	32.24
640.291	32.12
640.622	32.39
640.952	32.4
641.282	32.28
641.612	32.32
641.943	33.08
642.273	32.09
642.603	32.42
642.933	32.45
643.263	32.19
643.592	32.73
643.922	32.55
644.252	32.68
644.582	32.72
644.911	32.16
645.241	32.64
645.571	32.77
645.9	32.85
646.23	33.11
646.559	32.71
646.888	32.79
647.218	32.94
647.547	32.86
647.876	33.17
648.205	32.58
648.534	32.94
648.863	33.22
649.192	32.74
649.521	33.19
649.85	33.21
650.179	33.12
650.508	33.03
650.837	33.56
651.165	33.24
651.494	33.76
651.822	33.21
652.151	32.97
652.479	33.26
652.808	33.6
653.136	33.45
653.465	33.5
653.793	33.32
654.121	34.2
654.449	33.24
654.777	33.46
655.105	33.52
655.433	33.48
655.761	34.42
656.089	33.74
656.417	33.35
656.745	33.55
657.073	34.33
657.4	33.69
657.728	34.31
658.056	34.25
658.383	34.39
658.711	34
659.038	33.45
659.365	34.21
659.693	33.34
660.02	34.56
660.347	33.93
660.674	33.86
661.001	34.27
661.329	33.75
661.656	33.94
661.982	33.97
662.309	34.28
662.636	34.16
662.963	33.94
663.29	34.48
663.616	34.74
663.943	34.98
664.27	34.62
664.596	34.73
664.923	34.43
665.249	35.09
665.576	33.91
665.902	35.15
666.228	34.38
666.554	34.64
666.881	34.76
667.207	34.93
667.533	34.56
667.859	34.68
668.185	34.86
668.511	35.57
668.837	35.03
669.162	34.94
669.488	34.97
669.814	34.87
670.139	34.89
670.465	35.03
670.791	34.47
671.116	35.05
671.442	35.89
671.767	34.89
672.092	35.63
672.418	35.94
672.743	35.55
673.068	35.4
673.393	35.4
