Data from 0221_crown_Reflection__0__273.txt Node

Date: Fri Sep 22 22:55:43 CDT 2023
User: ToomeyLab
Spectrometer: FLMS14357
Trigger mode: 0
Integration Time (sec): 1.000000E-2
Scans to average: 100
Electric dark correction enabled: true
Nonlinearity correction enabled: false
Boxcar width: 0
XAxis mode: Wavelengths
Number of Pixels in Spectrum: 2048
>>>>>Begin Spectral Data<<<<<
189.047	336.92
189.435	336.92
189.823	336.92
190.211	-696.78
190.599	22.49
190.987	-6.32
191.375	-149.41
191.763	73.78
192.151	175.21
192.538	-747.33
192.926	97.15
193.314	1170.07
193.702	1400.99
194.089	57.63
194.477	-260.42
194.864	58.29
195.252	54.99
195.639	104.64
196.027	84.03
196.414	8.45
196.801	85.85
197.189	-132.35
197.576	122.78
197.963	-127.57
198.351	44.63
198.738	23.3
199.125	-17.08
199.512	25.61
199.899	36.04
200.286	49.38
200.673	-13.39
201.06	8.82
201.447	37.88
201.833	15.41
202.22	13.53
202.607	26.87
202.994	49.66
203.38	10.2
203.767	21.81
204.154	50.24
204.54	41.01
204.927	26.74
205.313	29.21
205.699	51.59
206.086	44.23
206.472	25.29
206.858	50.08
207.245	18.46
207.631	36.65
208.017	20.27
208.403	-4.37
208.789	41.35
209.175	48.58
209.561	27.54
209.947	54.31
210.333	57.33
210.719	-7.23
211.105	24.13
211.491	30.66
211.876	45.47
212.262	24.78
212.648	33.95
213.034	41.62
213.419	-10.18
213.805	10.42
214.19	11.04
214.576	29.18
214.961	18.27
215.346	-0.58
215.732	-1.03
216.117	10.3
216.502	37.4
216.888	8.21
217.273	30.41
217.658	-2.69
218.043	6.78
218.428	29.53
218.813	-27.64
219.198	33.51
219.583	16.83
219.968	-3.82
220.353	33.76
220.738	9.73
221.122	11.95
221.507	-6.49
221.892	27.99
222.276	4.21
222.661	-26.34
223.046	12.12
223.43	16.71
223.815	3.4
224.199	7.53
224.583	22.43
224.968	19.69
225.352	5.78
225.736	9.08
226.121	16.47
226.505	13.69
226.889	8.5
227.273	10.58
227.657	5.57
228.041	7.46
228.425	10.21
228.809	5.65
229.193	4.19
229.577	7.67
229.961	7.54
230.344	8.34
230.728	6.86
231.112	6.76
231.495	7
231.879	6.32
232.263	6.53
232.646	6.56
233.03	6.92
233.413	5.29
233.797	7.5
234.18	5.58
234.563	9.46
234.946	5.99
235.33	5.86
235.713	6.36
236.096	6.89
236.479	6.54
236.862	8.63
237.245	5.26
237.628	7
238.011	6.13
238.394	5.23
238.777	7.73
239.16	8.19
239.543	9.2
239.925	8.64
240.308	6.68
240.691	8.16
241.073	8
241.456	6.78
241.838	6.06
242.221	6.84
242.603	7.84
242.986	6.04
243.368	4.94
243.75	6.59
244.133	7.21
244.515	6.42
244.897	6.08
245.279	5.75
245.661	5.95
246.043	6.13
246.425	5.92
246.807	6.78
247.189	5.73
247.571	6.86
247.953	5.47
248.335	6.42
248.717	6.24
249.098	6.09
249.48	6.06
249.862	6.05
250.243	5.81
250.625	6.42
251.006	5.98
251.388	5.99
251.769	6.46
252.151	6.26
252.532	7.05
252.913	5.4
253.295	6.11
253.676	6.5
254.057	5.67
254.438	6.3
254.819	5.79
255.2	6.06
255.581	6.08
255.962	6.43
256.343	6.81
256.724	4.44
257.105	6.43
257.486	5.95
257.867	5.18
258.247	5.48
258.628	5.79
259.009	5.03
259.389	6
259.77	6.81
260.15	6.03
260.531	5.8
260.911	5.71
261.292	5.66
261.672	5.46
262.052	5.7
262.432	5.62
262.813	5.72
263.193	5.24
263.573	6.03
263.953	5.84
264.333	6.03
264.713	6.63
265.093	5.4
265.473	5.97
265.853	5.37
266.233	5.27
266.612	5.42
266.992	5.77
267.372	5.87
267.752	6.49
268.131	6.2
268.511	4.95
268.89	5.5
269.27	5.03
269.649	5.72
270.029	5.64
270.408	5.56
270.787	5.12
271.167	5.08
271.546	5.38
271.925	6.02
272.304	5.32
272.683	5.58
273.062	5.69
273.441	5.73
273.82	5.61
274.199	5.58
274.578	5.98
274.957	5.43
275.336	5.45
275.715	5.51
276.093	5.54
276.472	5.85
276.851	5.86
277.229	4.86
277.608	5.85
277.986	5.49
278.365	5.7
278.743	5.44
279.122	5.54
279.5	5.81
279.878	5.13
280.257	5.84
280.635	4.73
281.013	5.45
281.391	5.44
281.769	5.42
282.147	5.09
282.525	4.95
282.903	5.74
283.281	5.06
283.659	4.35
284.037	5.11
284.415	5.45
284.792	5.08
285.17	5.65
285.548	5.9
285.925	5.47
286.303	5.21
286.68	4.76
287.058	5.08
287.435	5.2
287.813	5
288.19	5.02
288.567	5.37
288.945	5.04
289.322	5.01
289.699	5.4
290.076	4.9
290.453	4.57
290.83	5
291.207	5.2
291.584	4.99
291.961	5.11
292.338	5.36
292.715	5.1
293.092	5.18
293.469	5.07
293.845	5.07
294.222	4.85
294.599	5.34
294.975	4.51
295.352	5.12
295.728	5.5
296.105	5.38
296.481	5.27
296.858	5.02
297.234	5.14
297.61	5.38
297.986	4.87
298.363	5.12
298.739	5.18
299.115	5.16
299.491	4.8
299.867	5.12
300.243	4.99
300.619	5.03
300.995	4.98
301.371	5.41
301.746	5.44
302.122	5
302.498	4.78
302.874	4.26
303.249	4.86
303.625	4.94
304	5.26
304.376	5.76
304.751	4.61
305.127	5.53
305.502	6.08
305.878	5.34
306.253	5.18
306.628	4.85
307.003	5.13
307.378	4.2
307.754	4.89
308.129	5.13
308.504	5.14
308.879	5.25
309.254	4.74
309.629	5.35
310.003	5.26
310.378	5.6
310.753	4.96
311.128	5.19
311.502	5.52
311.877	4.83
312.252	5.15
312.626	4.89
313.001	4.95
313.375	4.93
313.75	5.24
314.124	5.3
314.498	4.75
314.873	5.05
315.247	5.35
315.621	5.1
315.995	5.32
316.369	4.57
316.743	5.01
317.117	5.31
317.491	5.28
317.865	5.03
318.239	4.75
318.613	5.46
318.987	5.09
319.361	5.14
319.734	5.23
320.108	5.53
320.482	4.53
320.855	4.9
321.229	5.57
321.602	5.14
321.976	4.7
322.349	4.6
322.723	5.55
323.096	4.87
323.469	4.7
323.843	4.88
324.216	4.87
324.589	4.84
324.962	5.02
325.335	4.91
325.708	4.61
326.081	5.41
326.454	5.06
326.827	4.86
327.2	4.61
327.573	5
327.945	4.64
328.318	5.31
328.691	5.26
329.063	4.38
329.436	5.1
329.809	4.73
330.181	5.2
330.553	4.92
330.926	4.94
331.298	4.76
331.671	4.86
332.043	4.92
332.415	4.1
332.787	4.77
333.159	4.8
333.532	4.54
333.904	4.99
334.276	4.72
334.648	4.04
335.02	4.62
335.391	4.8
335.763	4.77
336.135	4.68
336.507	4.66
336.879	4.45
337.25	4.67
337.622	5.24
337.993	4.66
338.365	5.22
338.736	4.81
339.108	4.61
339.479	4.77
339.851	4.64
340.222	4.84
340.593	4.72
340.964	4.66
341.336	4.84
341.707	4.74
342.078	4.42
342.449	5.15
342.82	4.59
343.191	4.41
343.562	4.61
343.933	4.71
344.303	4.79
344.674	4.95
345.045	4.69
345.416	4.84
345.786	4.73
346.157	4.59
346.527	4.5
346.898	4.52
347.268	4.67
347.639	4.44
348.009	4.39
348.38	4.8
348.75	4.74
349.12	4.7
349.49	5.02
349.861	4.58
350.231	4.71
350.601	4.81
350.971	5.29
351.341	4.36
351.711	4.29
352.081	4.59
352.45	4.66
352.82	5.14
353.19	5.35
353.56	4.88
353.929	5.03
354.299	4.76
354.669	5.08
355.038	4.59
355.408	4.68
355.777	4.95
356.147	4.49
356.516	4.86
356.885	4.7
357.254	4.92
357.624	4.55
357.993	4.73
358.362	4.93
358.731	4.74
359.1	4.55
359.469	4.97
359.838	4.59
360.207	4.41
360.576	4.66
360.945	5.11
361.314	4.61
361.682	4.82
362.051	4.87
362.42	4.78
362.788	4.7
363.157	5.03
363.525	4.88
363.894	4.73
364.262	4.79
364.631	4.71
364.999	4.78
365.367	5.22
365.735	4.38
366.104	4.64
366.472	5.04
366.84	4.77
367.208	5.02
367.576	4.66
367.944	4.88
368.312	5.15
368.68	4.76
369.048	5.01
369.416	4.82
369.783	4.63
370.151	4.67
370.519	4.95
370.886	4.84
371.254	5.11
371.621	4.86
371.989	4.99
372.356	4.77
372.724	4.96
373.091	4.77
373.458	4.74
373.826	4.88
374.193	5.22
374.56	4.89
374.927	4.83
375.294	4.62
375.661	4.76
376.028	5.01
376.395	5.03
376.762	4.77
377.129	4.9
377.496	5.31
377.863	5.24
378.229	5.1
378.596	4.9
378.963	4.97
379.329	4.79
379.696	5.28
380.062	4.67
380.429	4.99
380.795	4.99
381.161	4.93
381.528	4.84
381.894	4.39
382.26	4.71
382.626	4.68
382.993	5.18
383.359	5.02
383.725	4.87
384.091	4.79
384.457	5.07
384.823	4.8
385.188	4.73
385.554	4.91
385.92	5.15
386.286	4.82
386.651	5.01
387.017	5.08
387.383	4.86
387.748	5.05
388.114	5.15
388.479	5.1
388.845	4.67
389.21	4.94
389.575	5.05
389.94	4.93
390.306	5.11
390.671	5.2
391.036	4.87
391.401	4.68
391.766	4.81
392.131	4.92
392.496	5.06
392.861	4.94
393.226	4.94
393.591	5.18
393.956	5.01
394.32	5.01
394.685	4.83
395.05	5.27
395.414	4.98
395.779	5.01
396.143	5.08
396.508	5.01
396.872	4.77
397.236	5.05
397.601	4.89
397.965	5.31
398.329	4.94
398.694	4.8
399.058	4.98
399.422	4.93
399.786	5.12
400.15	5.24
400.514	5.08
400.878	5.14
401.242	5.07
401.605	5.04
401.969	4.79
402.333	5.06
402.697	5.02
403.06	5.04
403.424	5.08
403.787	5.07
404.151	4.95
404.514	5.21
404.878	5.34
405.241	5.46
405.604	5.27
405.968	5.4
406.331	5.11
406.694	5.17
407.057	4.83
407.42	5.13
407.783	5.09
408.146	5.28
408.509	5.13
408.872	5.03
409.235	5.2
409.598	5.16
409.961	5.26
410.323	5.29
410.686	5.17
411.049	5.24
411.411	5.24
411.774	5.25
412.136	5.1
412.499	5.28
412.861	5.12
413.223	5.15
413.586	5.18
413.948	5.3
414.31	4.96
414.672	5.24
415.035	5.33
415.397	5.33
415.759	5.68
416.121	5.08
416.483	4.84
416.845	5.04
417.206	5.07
417.568	5.25
417.93	5.14
418.292	5.25
418.653	5.12
419.015	5.21
419.377	4.87
419.738	5.27
420.1	5.16
420.461	5.11
420.822	5.04
421.184	5.21
421.545	5.07
421.906	5
422.267	5.09
422.629	5.12
422.99	5.14
423.351	5.01
423.712	4.95
424.073	5.09
424.434	5.18
424.795	5.14
425.155	5.23
425.516	5.14
425.877	5
426.238	5.04
426.598	5.2
426.959	5.13
427.32	5.14
427.68	5
428.041	5.08
428.401	5.18
428.761	5.32
429.122	5.33
429.482	5.16
429.842	5.19
430.202	5.14
430.563	5.35
430.923	5.3
431.283	5.31
431.643	5.42
432.003	5.34
432.363	5.42
432.722	5.37
433.082	5.47
433.442	5.12
433.802	5.34
434.161	5.32
434.521	5.35
434.881	5.31
435.24	5.19
435.6	5.22
435.959	5.24
436.319	5.24
436.678	5.46
437.037	5.31
437.396	5.25
437.756	5.39
438.115	5.42
438.474	5.37
438.833	5.34
439.192	5.36
439.551	5.11
439.91	5.3
440.269	5.35
440.628	5.19
440.987	5.34
441.345	5.24
441.704	5.26
442.063	5.22
442.421	5.26
442.78	5.34
443.138	5.28
443.497	5.31
443.855	5.24
444.214	5.12
444.572	5.37
444.93	5.41
445.288	5.25
445.647	5.36
446.005	5.31
446.363	5.31
446.721	5.39
447.079	5.29
447.437	5.25
447.795	5.36
448.153	5.18
448.51	5.25
448.868	5.24
449.226	5.25
449.584	5.26
449.941	5.16
450.299	5.29
450.656	5.42
451.014	5.39
451.371	5.28
451.729	5.35
452.086	5.37
452.443	5.41
452.801	5.51
453.158	5.28
453.515	5.44
453.872	5.36
454.229	5.5
454.586	5.45
454.943	5.3
455.3	5.49
455.657	5.38
456.014	5.39
456.371	5.67
456.727	5.56
457.084	5.5
457.441	5.47
457.797	5.34
458.154	5.45
458.51	5.47
458.867	5.31
459.223	5.5
459.58	5.48
459.936	5.49
460.292	5.61
460.648	5.6
461.005	5.37
461.361	5.52
461.717	5.17
462.073	5.29
462.429	5.27
462.785	5.35
463.141	5.4
463.496	5.47
463.852	5.48
464.208	5.44
464.564	5.53
464.919	5.48
465.275	5.63
465.631	5.53
465.986	5.57
466.342	5.4
466.697	5.55
467.052	5.45
467.408	5.48
467.763	5.37
468.118	5.67
468.473	5.69
468.829	5.66
469.184	5.46
469.539	5.51
469.894	5.6
470.249	5.47
470.603	5.58
470.958	5.6
471.313	5.61
471.668	5.66
472.023	5.55
472.377	5.69
472.732	5.48
473.086	5.68
473.441	5.53
473.795	5.68
474.15	5.45
474.504	5.56
474.859	5.75
475.213	5.5
475.567	5.62
475.921	5.46
476.275	5.6
476.63	5.45
476.984	5.53
477.338	5.8
477.692	5.56
478.045	5.87
478.399	5.52
478.753	5.58
479.107	5.55
479.461	5.51
479.814	5.61
480.168	5.66
480.521	5.53
480.875	5.73
481.228	5.64
481.582	5.54
481.935	5.57
482.289	5.57
482.642	5.51
482.995	5.53
483.348	5.52
483.701	5.6
484.055	5.54
484.408	5.56
484.761	5.53
485.114	5.48
485.466	5.36
485.819	5.25
486.172	5.19
486.525	5.22
486.878	5.26
487.23	5.36
487.583	5.37
487.936	5.46
488.288	5.48
488.641	5.49
488.993	5.37
489.345	5.31
489.698	5.29
490.05	5.36
490.402	5.36
490.754	5.32
491.107	5.4
491.459	5.49
491.811	5.48
492.163	5.48
492.515	5.53
492.866	5.54
493.218	5.6
493.57	5.49
493.922	5.34
494.274	5.36
494.625	5.39
494.977	5.55
495.328	5.62
495.68	5.58
496.031	5.6
496.383	5.7
496.734	5.77
497.086	5.68
497.437	5.73
497.788	5.71
498.139	5.74
498.49	5.74
498.842	5.6
499.193	5.59
499.544	5.66
499.894	5.58
500.245	5.75
500.596	5.61
500.947	5.7
501.298	5.77
501.648	5.86
501.999	5.83
502.35	5.79
502.7	5.8
503.051	5.76
503.401	5.92
503.752	5.73
504.102	5.85
504.452	5.76
504.803	5.7
505.153	5.81
505.503	5.74
505.853	5.98
506.203	5.68
506.553	5.79
506.903	5.78
507.253	5.69
507.603	5.84
507.953	5.79
508.303	5.76
508.652	5.77
509.002	5.89
509.352	5.84
509.701	5.86
510.051	5.86
510.4	5.82
510.75	5.79
511.099	5.73
511.449	5.79
511.798	5.84
512.147	5.77
512.496	5.65
512.846	5.8
513.195	5.79
513.544	5.82
513.893	5.91
514.242	5.86
514.591	5.88
514.939	5.87
515.288	5.72
515.637	5.84
515.986	5.81
516.334	5.87
516.683	5.84
517.032	5.97
517.38	5.95
517.729	5.87
518.077	5.94
518.426	5.94
518.774	5.9
519.122	5.88
519.47	5.86
519.819	5.94
520.167	5.86
520.515	5.9
520.863	5.77
521.211	5.76
521.559	5.81
521.907	5.85
522.255	5.83
522.602	5.92
522.95	5.84
523.298	5.94
523.645	6.01
523.993	5.86
524.341	5.83
524.688	5.89
525.036	5.87
525.383	5.93
525.73	6.04
526.078	5.92
526.425	6.01
526.772	5.98
527.119	5.83
527.466	5.75
527.814	5.78
528.161	5.75
528.508	5.85
528.854	5.82
529.201	5.84
529.548	5.88
529.895	5.72
530.242	5.72
530.588	5.63
530.935	5.58
531.282	5.56
531.628	5.68
531.975	5.68
532.321	5.72
532.667	5.75
533.014	5.84
533.36	5.81
533.706	5.81
534.052	6.01
534.399	5.92
534.745	5.88
535.091	5.76
535.437	5.7
535.783	5.7
536.129	5.76
536.474	5.87
536.82	5.78
537.166	5.98
537.512	5.88
537.857	5.92
538.203	6.05
538.549	5.87
538.894	5.88
539.239	5.86
539.585	5.92
539.93	6.03
540.276	5.93
540.621	5.99
540.966	6.14
541.311	6.07
541.656	6.01
542.001	6
542.346	5.96
542.691	6.12
543.036	5.94
543.381	5.8
543.726	5.76
544.071	5.76
544.415	5.87
544.76	5.88
545.105	5.87
545.449	5.82
545.794	6.01
546.138	5.98
546.483	6.01
546.827	6.01
547.171	6.02
547.516	6.09
547.86	6.06
548.204	6.11
548.548	6.12
548.892	6.04
549.236	5.96
549.58	5.98
549.924	6.12
550.268	6.12
550.612	6.15
550.956	6.15
551.3	6.09
551.643	6.26
551.987	6.23
552.33	6.39
552.674	6.23
553.017	5.92
553.361	6.04
553.704	6.31
554.048	6.32
554.391	6.2
554.734	6.13
555.077	6.14
555.42	6.06
555.764	6.13
556.107	6.14
556.45	6.26
556.793	6.24
557.135	6.15
557.478	6.04
557.821	6.22
558.164	6.23
558.507	6.27
558.849	6.11
559.192	6.34
559.534	6.39
559.877	6.16
560.219	6.14
560.562	6.28
560.904	6.44
561.246	6.18
561.589	6.24
561.931	6.18
562.273	6.24
562.615	6.2
562.957	6.18
563.299	6.25
563.641	6.29
563.983	6.4
564.325	6.3
564.667	6.25
565.008	6.27
565.35	6.28
565.692	6.32
566.033	6.42
566.375	6.38
566.716	6.25
567.058	6.14
567.399	6.23
567.741	6.34
568.082	6.2
568.423	6.31
568.764	6.46
569.105	6.09
569.447	6.2
569.788	6.24
570.129	6.4
570.47	6.35
570.811	6.28
571.151	6.44
571.492	6.29
571.833	6.2
572.174	6.38
572.514	6.31
572.855	6.35
573.195	6.19
573.536	6.35
573.876	6.23
574.217	6.28
574.557	6.23
574.898	6.34
575.238	6.18
575.578	6.3
575.918	6.41
576.258	6.22
576.598	6.34
576.938	6.39
577.278	6.48
577.618	6.15
577.958	6.34
578.298	6.39
578.638	6.22
578.977	6.41
579.317	6.41
579.657	6.32
579.996	6.34
580.336	6.48
580.675	6.67
581.014	6.2
581.354	6.44
581.693	6.4
582.032	6.3
582.372	6.53
582.711	6.28
583.05	6.59
583.389	6.47
583.728	6.4
584.067	6.49
584.406	6.54
584.745	6.33
585.083	6.61
585.422	6.51
585.761	6.26
586.1	6.39
586.438	6.46
586.777	6.53
587.115	6.49
587.454	6.13
587.792	6.51
588.13	6.58
588.469	6.29
588.807	6.52
589.145	6.63
589.483	6.53
589.821	6.47
590.159	6.32
590.497	6.51
590.835	6.27
591.173	6.48
591.511	6.55
591.849	6.49
592.187	6.29
592.524	6.42
592.862	6.55
593.2	6.54
593.537	6.5
593.875	6.5
594.212	6.64
594.55	6.6
594.887	6.35
595.224	6.52
595.561	6.6
595.899	6.64
596.236	6.82
596.573	6.72
596.91	6.66
597.247	6.46
597.584	6.71
597.921	6.8
598.258	6.4
598.594	6.77
598.931	6.44
599.268	6.57
599.604	6.58
599.941	6.43
600.277	6.51
600.614	6.37
600.95	6.59
601.287	6.47
601.623	6.62
601.959	6.66
602.296	6.49
602.632	6.34
602.968	6.69
603.304	6.74
603.64	6.48
603.976	6.54
604.312	6.59
604.648	6.59
604.984	6.55
605.319	6.45
605.655	6.5
605.991	6.62
606.326	6.77
606.662	6.54
606.998	6.41
607.333	6.68
607.668	6.52
608.004	6.69
608.339	6.44
608.674	6.61
609.01	6.7
609.345	6.73
609.68	6.96
610.015	6.69
610.35	6.48
610.685	6.71
611.02	6.63
611.355	6.71
611.689	6.65
612.024	6.72
612.359	6.72
612.694	6.59
613.028	6.56
613.363	6.41
613.697	6.73
614.032	6.62
614.366	6.56
614.7	6.58
615.035	6.48
615.369	6.54
615.703	6.74
616.037	6.78
616.371	6.86
616.705	6.71
617.039	6.54
617.373	6.41
617.707	6.46
618.041	6.82
618.375	6.79
618.709	6.91
619.042	7.02
619.376	6.88
619.71	6.68
620.043	6.44
620.377	6.69
620.71	6.8
621.043	7.08
621.377	6.66
621.71	6.77
622.043	6.72
622.376	6.85
622.709	6.71
623.043	6.63
623.376	6.96
623.709	6.88
624.041	6.68
624.374	7.05
624.707	7.07
625.04	6.78
625.373	6.62
625.705	6.41
626.038	6.79
626.37	6.84
626.703	7.02
627.035	6.73
627.368	6.9
627.7	7.23
628.032	6.94
628.365	6.8
628.697	6.98
629.029	6.94
629.361	6.86
629.693	6.87
630.025	6.7
630.357	6.66
630.689	6.82
631.021	6.75
631.353	6.68
631.684	6.83
632.016	7.08
632.348	7.05
632.679	6.72
633.011	6.67
633.342	7.15
633.674	7.1
634.005	6.66
634.336	6.84
634.668	7.05
634.999	6.88
635.33	7.01
635.661	6.95
635.992	6.82
636.323	6.98
636.654	6.61
636.985	6.92
637.316	7
637.647	6.98
637.977	6.51
638.308	7.19
638.639	6.8
638.969	7.32
639.3	6.74
639.63	7.27
639.961	6.49
640.291	6.57
640.622	6.94
640.952	6.67
641.282	7.02
641.612	6.96
641.943	7.15
642.273	6.89
642.603	6.59
642.933	6.81
643.263	6.87
643.592	6.93
643.922	7.24
644.252	6.97
644.582	7.35
644.911	6.89
645.241	7.16
645.571	6.91
645.9	6.96
646.23	7.23
646.559	7.38
646.888	7.21
647.218	7.24
647.547	6.88
647.876	7.32
648.205	6.88
648.534	7.49
648.863	6.8
649.192	6.76
649.521	7.32
649.85	7.29
650.179	7.02
650.508	6.63
650.837	7.03
651.165	7.03
651.494	7.05
651.822	7.01
652.151	7.06
652.479	6.99
652.808	6.85
653.136	7.21
653.465	7.08
653.793	7.05
654.121	7.19
654.449	6.68
654.777	7.37
655.105	7.06
655.433	6.89
655.761	7.16
656.089	6.97
656.417	6.63
656.745	6.83
657.073	7.39
657.4	7.44
657.728	7.16
658.056	7.37
658.383	7.7
658.711	7.22
659.038	7.01
659.365	7.16
659.693	6.59
660.02	7.46
660.347	7.41
660.674	7.04
661.001	6.84
661.329	6.79
661.656	7.24
661.982	6.75
662.309	7.47
662.636	7.03
662.963	7.47
663.29	7.46
663.616	6.87
663.943	7.4
664.27	7.23
664.596	7.24
664.923	7.07
665.249	7.43
665.576	6.73
665.902	7.13
666.228	6.99
666.554	7
666.881	7.79
667.207	6.94
667.533	7.51
667.859	7.36
668.185	7.39
668.511	7.5
668.837	6.9
669.162	7.33
669.488	7.76
669.814	7.24
670.139	7.92
670.465	8.03
670.791	7.39
671.116	7.21
671.442	7.95
671.767	7.06
672.092	7.42
672.418	7.65
672.743	7.63
673.068	7.97
673.393	6.76
673.718	7.79
674.043	7.97
674.368	7.79
674.693	7.39
675.018	7.67
675.343	7.66
675.667	7.59
675.992	7.42
676.317	7.58
676.641	7.46
676.966	8.12
677.29	7.29
677.615	7.18
677.939	7.26
678.264	7.45
678.588	7.83
678.912	7.33
679.236	7.86
679.56	7.28
679.885	7.28
680.209	8.11
680.532	7.15
680.856	7.33
681.18	7.3
681.504	7.54
681.828	7.62
682.152	6.94
682.475	8.33
682.799	7.62
683.122	7.64
683.446	7.67
683.769	7.63
684.093	8.25
684.416	7.9
684.739	7.93
685.062	8.44
685.386	7.44
685.709	7.54
686.032	7.27
686.355	7.43
686.678	8.08
687.001	7.49
687.324	7.71
687.646	8.03
687.969	8.2
688.292	7.1
688.614	8.16
688.937	7.18
689.26	7.29
689.582	7.62
689.904	7.67
690.227	8.27
690.549	8.01
690.871	7.58
691.194	7.64
691.516	7.74
691.838	7.88
692.16	7.78
692.482	8.2
692.804	7.56
