Data from 0221_chest_Reflection__1__268.txt Node

Date: Fri Sep 22 22:54:06 CDT 2023
User: ToomeyLab
Spectrometer: FLMS14357
Trigger mode: 0
Integration Time (sec): 1.000000E-2
Scans to average: 100
Electric dark correction enabled: true
Nonlinearity correction enabled: false
Boxcar width: 0
XAxis mode: Wavelengths
Number of Pixels in Spectrum: 2048
>>>>>Begin Spectral Data<<<<<
189.047	204.76
189.435	204.76
189.823	204.76
190.211	-48.02
190.599	196.72
190.987	74.35
191.375	-102.75
191.763	370.1
192.151	-23.86
192.538	-184.95
192.926	88.43
193.314	-1072.51
193.702	2162.38
194.089	81.18
194.477	98.01
194.864	90.17
195.252	87.36
195.639	71.88
196.027	58.2
196.414	-45.87
196.801	-166.3
197.189	169.45
197.576	229.37
197.963	56.4
198.351	29.97
198.738	14.44
199.125	6.21
199.512	39.22
199.899	59.75
200.286	38.28
200.673	-5.37
201.06	32.61
201.447	76.48
201.833	-17.76
202.22	28.4
202.607	75.41
202.994	52.69
203.38	15.92
203.767	33.85
204.154	28.67
204.54	39.11
204.927	19.02
205.313	44.17
205.699	45.53
206.086	21.52
206.472	55.43
206.858	47.21
207.245	5.63
207.631	25.19
208.017	18.16
208.403	33.83
208.789	19.08
209.175	53.9
209.561	36.08
209.947	83.56
210.333	45.82
210.719	1.05
211.105	49.67
211.491	1.16
211.876	23.62
212.262	82.38
212.648	48.17
213.034	41.79
213.419	38.99
213.805	-10.28
214.19	13.16
214.576	65.24
214.961	33.44
215.346	-1.1
215.732	40.51
216.117	-16.75
216.502	35.19
216.888	24.85
217.273	33.89
217.658	15.6
218.043	10.94
218.428	37.63
218.813	37.92
219.198	-8.99
219.583	14.52
219.968	-19.14
220.353	16.87
220.738	-0.52
221.122	-6.37
221.507	8.07
221.892	-2.32
222.276	19.5
222.661	-34.37
223.046	27.92
223.43	24.1
223.815	19.21
224.199	-0.73
224.583	19.75
224.968	21.98
225.352	9.45
225.736	14.62
226.121	11.63
226.505	12.02
226.889	8.61
227.273	8.85
227.657	10.62
228.041	13.68
228.425	12.83
228.809	5.42
229.193	8.91
229.577	9.88
229.961	8.13
230.344	8.68
230.728	5.24
231.112	6.26
231.495	5.99
231.879	6.38
232.263	4.69
232.646	5.92
233.03	5.73
233.413	7.42
233.797	6.81
234.18	5.72
234.563	9.62
234.946	6.09
235.33	5.28
235.713	3.86
236.096	6.53
236.479	5.08
236.862	8.08
237.245	6.37
237.628	7.01
238.011	6.51
238.394	6.78
238.777	8.59
239.16	7.47
239.543	8.19
239.925	6.22
240.308	6.66
240.691	7.2
241.073	8.14
241.456	5.2
241.838	5.11
242.221	5.44
242.603	5.1
242.986	6.09
243.368	5.7
243.75	5.98
244.133	6.36
244.515	5.4
244.897	5.28
245.279	5.35
245.661	5.7
246.043	5.26
246.425	4.82
246.807	5.15
247.189	3.6
247.571	4.91
247.953	6.31
248.335	5.92
248.717	5.43
249.098	5.16
249.48	4.77
249.862	4.8
250.243	4.98
250.625	5.4
251.006	4.79
251.388	5.23
251.769	5.63
252.151	4.97
252.532	4.65
252.913	4.59
253.295	6.47
253.676	5.04
254.057	5.23
254.438	5.51
254.819	4.68
255.2	5.25
255.581	4.46
255.962	6
256.343	4.51
256.724	4.33
257.105	5.04
257.486	4.82
257.867	4.85
258.247	5.4
258.628	5.33
259.009	4.35
259.389	5.71
259.77	5.06
260.15	5.39
260.531	5.15
260.911	4.07
261.292	4.47
261.672	4.53
262.052	4.69
262.432	4.55
262.813	4.74
263.193	4.53
263.573	5
263.953	4.7
264.333	4.77
264.713	4.4
265.093	3.98
265.473	4.06
265.853	4.29
266.233	5.17
266.612	4.19
266.992	5.13
267.372	4.64
267.752	4.93
268.131	3.93
268.511	4.34
268.89	4.89
269.27	4.52
269.649	4.3
270.029	4.29
270.408	4.46
270.787	4.36
271.167	4.32
271.546	3.64
271.925	4.57
272.304	3.97
272.683	5.14
273.062	5.12
273.441	4.45
273.82	4.8
274.199	4.74
274.578	4.57
274.957	4.34
275.336	4.31
275.715	4.18
276.093	4.54
276.472	4.68
276.851	4.62
277.229	3.73
277.608	4.93
277.986	3.84
278.365	4.92
278.743	4.58
279.122	4.43
279.5	4.75
279.878	4.27
280.257	4.8
280.635	4.44
281.013	4.83
281.391	4.26
281.769	4.72
282.147	4.17
282.525	4.26
282.903	4.67
283.281	4.58
283.659	4.61
284.037	4.44
284.415	4.7
284.792	4.23
285.17	4.19
285.548	4.58
285.925	4.15
286.303	4.5
286.68	3.99
287.058	3.91
287.435	4.19
287.813	4.21
288.19	3.59
288.567	4.25
288.945	3.95
289.322	4.46
289.699	4.06
290.076	4.32
290.453	3.95
290.83	3.8
291.207	4.41
291.584	3.83
291.961	4.08
292.338	4.46
292.715	4.51
293.092	4.17
293.469	4.01
293.845	4.17
294.222	4.05
294.599	4.41
294.975	4.69
295.352	4.22
295.728	4.08
296.105	4.2
296.481	4.37
296.858	4.62
297.234	3.86
297.61	4.15
297.986	4.18
298.363	4.13
298.739	4.24
299.115	4.1
299.491	3.91
299.867	4.23
300.243	3.66
300.619	4.02
300.995	4.09
301.371	4.53
301.746	4.53
302.122	4.11
302.498	3.99
302.874	4.34
303.249	4.08
303.625	3.8
304	4.5
304.376	4.47
304.751	4.44
305.127	4.12
305.502	4.64
305.878	4.22
306.253	3.86
306.628	3.92
307.003	3.98
307.378	4.22
307.754	4.26
308.129	3.97
308.504	4.37
308.879	4.57
309.254	4.15
309.629	4.28
310.003	4.21
310.378	4.53
310.753	3.94
311.128	3.97
311.502	4.17
311.877	3.81
312.252	4.09
312.626	4.32
313.001	4.28
313.375	4.08
313.75	4.23
314.124	4.81
314.498	3.8
314.873	4.07
315.247	4.53
315.621	4.44
315.995	4.07
316.369	4.18
316.743	4.28
317.117	4.31
317.491	4.81
317.865	3.59
318.239	3.81
318.613	4.58
318.987	3.69
319.361	3.97
319.734	4.45
320.108	4.72
320.482	4.21
320.855	4
321.229	4.88
321.602	4.46
321.976	3.91
322.349	4.17
322.723	4.02
323.096	4.7
323.469	3.41
323.843	4.1
324.216	4.27
324.589	3.89
324.962	3.72
325.335	3.83
325.708	4.06
326.081	4.09
326.454	3.67
326.827	3.97
327.2	4
327.573	4.73
327.945	4.14
328.318	4.59
328.691	4.72
329.063	3.51
329.436	4.21
329.809	4.49
330.181	4.24
330.553	3.95
330.926	4.19
331.298	4.37
331.671	4.46
332.043	3.63
332.415	3.91
332.787	4.3
333.159	3.69
333.532	4.29
333.904	4.04
334.276	3.55
334.648	3.67
335.02	3.84
335.391	4.26
335.763	4.56
336.135	4.26
336.507	4.37
336.879	4.24
337.25	4.42
337.622	4.22
337.993	3.81
338.365	4.17
338.736	4.51
339.108	4.07
339.479	3.69
339.851	3.91
340.222	3.74
340.593	4.07
340.964	3.76
341.336	3.68
341.707	3.93
342.078	4.23
342.449	4.22
342.82	3.41
343.191	3.58
343.562	4.08
343.933	3.79
344.303	3.81
344.674	4.2
345.045	4.14
345.416	4.68
345.786	3.87
346.157	4.06
346.527	3.69
346.898	4.11
347.268	3.71
347.639	3.86
348.009	3.67
348.38	4.17
348.75	4.37
349.12	3.89
349.49	3.62
349.861	3.72
350.231	3.72
350.601	4.34
350.971	4.16
351.341	3.62
351.711	4.02
352.081	3.85
352.45	3.75
352.82	4.54
353.19	4.06
353.56	3.86
353.929	4.42
354.299	4.42
354.669	4.19
355.038	3.7
355.408	3.74
355.777	3.98
356.147	3.86
356.516	4.22
356.885	4.3
357.254	4.22
357.624	3.51
357.993	4.01
358.362	3.91
358.731	4.08
359.1	3.94
359.469	4.03
359.838	3.84
360.207	4.03
360.576	3.9
360.945	3.97
361.314	4.22
361.682	4.05
362.051	4.19
362.42	3.98
362.788	3.84
363.157	4.11
363.525	3.98
363.894	3.86
364.262	3.83
364.631	3.81
364.999	3.77
365.367	4.06
365.735	4.13
366.104	3.81
366.472	4.2
366.84	3.82
367.208	4.02
367.576	4.15
367.944	4.05
368.312	4.17
368.68	3.94
369.048	4
369.416	3.95
369.783	3.86
370.151	3.98
370.519	4.23
370.886	3.96
371.254	4.12
371.621	3.95
371.989	3.96
372.356	3.89
372.724	4.2
373.091	3.94
373.458	4
373.826	4.03
374.193	4.16
374.56	4.29
374.927	4.31
375.294	3.92
375.661	3.81
376.028	4.15
376.395	4.31
376.762	3.76
377.129	4.2
377.496	4.23
377.863	4.37
378.229	4.26
378.596	3.96
378.963	4.42
379.329	3.87
379.696	4.26
380.062	3.95
380.429	4.08
380.795	4.05
381.161	3.97
381.528	4.2
381.894	3.9
382.26	3.77
382.626	4.11
382.993	4.29
383.359	3.94
383.725	3.76
384.091	4.32
384.457	4.03
384.823	3.92
385.188	4.16
385.554	4.02
385.92	4.51
386.286	4.19
386.651	3.98
387.017	4.2
387.383	3.94
387.748	4.06
388.114	4.04
388.479	4.21
388.845	3.83
389.21	3.96
389.575	4.04
389.94	4.1
390.306	4.23
390.671	4.31
391.036	3.85
391.401	4.17
391.766	4.05
392.131	4.12
392.496	3.99
392.861	3.95
393.226	4.09
393.591	4.08
393.956	4.14
394.32	4.03
394.685	3.89
395.05	4.14
395.414	4.03
395.779	4.14
396.143	4.19
396.508	3.93
396.872	4.01
397.236	4.11
397.601	4.06
397.965	4.15
398.329	4.1
398.694	4.17
399.058	3.84
399.422	4.13
399.786	4.23
400.15	4.27
400.514	3.94
400.878	3.89
401.242	4.18
401.605	3.96
401.969	3.81
402.333	4.13
402.697	3.98
403.06	4.09
403.424	4.01
403.787	4.26
404.151	4.06
404.514	4.16
404.878	4.11
405.241	4.14
405.604	4.3
405.968	4.02
406.331	4.19
406.694	4.22
407.057	3.97
407.42	4.15
407.783	4.15
408.146	4.13
408.509	4.14
408.872	4.1
409.235	4.25
409.598	3.98
409.961	4.32
410.323	4.17
410.686	4.17
411.049	4.34
411.411	4.38
411.774	4.06
412.136	4.08
412.499	4.12
412.861	4.15
413.223	4.21
413.586	3.93
413.948	4.23
414.31	4.09
414.672	4.2
415.035	4.14
415.397	4.26
415.759	4.4
416.121	4.12
416.483	4.02
416.845	4.19
417.206	4.12
417.568	4
417.93	3.97
418.292	4.21
418.653	3.91
419.015	4.02
419.377	3.93
419.738	4.06
420.1	3.95
420.461	4.06
420.822	4.07
421.184	3.97
421.545	3.98
421.906	4.07
422.267	4
422.629	4.1
422.99	4.06
423.351	3.95
423.712	3.88
424.073	3.96
424.434	4
424.795	3.92
425.155	4.04
425.516	4.03
425.877	3.94
426.238	3.91
426.598	3.94
426.959	3.93
427.32	4.11
427.68	3.96
428.041	4.01
428.401	4.09
428.761	4.18
429.122	4.1
429.482	4.12
429.842	4
430.202	3.98
430.563	4.11
430.923	4.17
431.283	4.13
431.643	4.27
432.003	4.2
432.363	4.28
432.722	4.4
433.082	4.12
433.442	3.87
433.802	4.09
434.161	4.11
434.521	4.24
434.881	4.15
435.24	4.13
435.6	4.07
435.959	3.9
436.319	3.99
436.678	4.18
437.037	4.12
437.396	3.94
437.756	4.13
438.115	4.12
438.474	4.11
438.833	4.1
439.192	4.08
439.551	4.09
439.91	4.15
440.269	4.23
440.628	4.08
440.987	4.06
441.345	4.13
441.704	4.15
442.063	4.1
442.421	4.05
442.78	4.12
443.138	4.02
443.497	4.04
443.855	3.98
444.214	3.91
444.572	4.12
444.93	4.17
445.288	4.21
445.647	4.21
446.005	4.19
446.363	4.02
446.721	4.12
447.079	3.96
447.437	4.05
447.795	4.2
448.153	3.98
448.51	4.06
448.868	4.08
449.226	4.08
449.584	4
449.941	4.05
450.299	4.1
450.656	4.19
451.014	4.14
451.371	4.14
451.729	4.22
452.086	4.03
452.443	4.18
452.801	4.11
453.158	4.25
453.515	4.23
453.872	4.16
454.229	4.09
454.586	4.18
454.943	4.09
455.3	4.08
455.657	4.25
456.014	4.13
456.371	4.29
456.727	4.31
457.084	4.26
457.441	4.16
457.797	4.17
458.154	4.15
458.51	4.24
458.867	4.21
459.223	4.29
459.58	4.29
459.936	4.23
460.292	4.11
460.648	4.34
461.005	4.12
461.361	4.18
461.717	3.94
462.073	4.13
462.429	3.94
462.785	4.09
463.141	4.08
463.496	4.21
463.852	4.14
464.208	4.1
464.564	4.26
464.919	4.2
465.275	4.29
465.631	4.31
465.986	4.25
466.342	4.32
466.697	4.32
467.052	4.09
467.408	4.31
467.763	4.33
468.118	4.32
468.473	4.31
468.829	4.32
469.184	4.09
469.539	4.27
469.894	4.3
470.249	4.2
470.603	4.23
470.958	4.27
471.313	4.36
471.668	4.23
472.023	4.3
472.377	4.24
472.732	4.19
473.086	4.45
473.441	4.13
473.795	4.32
474.15	4.26
474.504	4.28
474.859	4.35
475.213	4.07
475.567	4.17
475.921	4.26
476.275	4.24
476.63	4.27
476.984	4.21
477.338	4.26
477.692	4.32
478.045	4.47
478.399	4.38
478.753	4.32
479.107	4.29
479.461	4.22
479.814	4.3
480.168	4.28
480.521	4.36
480.875	4.36
481.228	4.28
481.582	4.16
481.935	4.22
482.289	4.27
482.642	4.09
482.995	4.27
483.348	4.24
483.701	4.26
484.055	4.21
484.408	4.2
484.761	4.16
485.114	4.08
485.466	4.06
485.819	3.99
486.172	3.95
486.525	3.92
486.878	3.98
487.23	4.02
487.583	4.07
487.936	4.08
488.288	4.12
488.641	4.03
488.993	4.09
489.345	4.1
489.698	3.98
490.05	4.05
490.402	4.05
490.754	3.99
491.107	4.03
491.459	4.19
491.811	4.18
492.163	4.19
492.515	4.21
492.866	4.25
493.218	4.19
493.57	4.12
493.922	4.06
494.274	4.12
494.625	4.06
494.977	4.16
495.328	4.34
495.68	4.32
496.031	4.24
496.383	4.37
496.734	4.42
497.086	4.3
497.437	4.36
497.788	4.35
498.139	4.34
498.49	4.4
498.842	4.21
499.193	4.18
499.544	4.42
499.894	4.26
500.245	4.35
500.596	4.37
500.947	4.31
501.298	4.38
501.648	4.44
501.999	4.43
502.35	4.44
502.7	4.48
503.051	4.41
503.401	4.33
503.752	4.47
504.102	4.39
504.452	4.38
504.803	4.51
505.153	4.41
505.503	4.47
505.853	4.5
506.203	4.33
506.553	4.5
506.903	4.48
507.253	4.37
507.603	4.52
507.953	4.59
508.303	4.45
508.652	4.41
509.002	4.58
509.352	4.39
509.701	4.58
510.051	4.5
510.4	4.53
510.75	4.44
511.099	4.3
511.449	4.42
511.798	4.51
512.147	4.47
512.496	4.47
512.846	4.43
513.195	4.53
513.544	4.48
513.893	4.51
514.242	4.49
514.591	4.6
514.939	4.57
515.288	4.34
515.637	4.53
515.986	4.49
516.334	4.61
516.683	4.52
517.032	4.56
517.38	4.6
517.729	4.52
518.077	4.65
518.426	4.65
518.774	4.61
519.122	4.57
519.47	4.52
519.819	4.53
520.167	4.58
520.515	4.63
520.863	4.45
521.211	4.54
521.559	4.57
521.907	4.62
522.255	4.61
522.602	4.55
522.95	4.59
523.298	4.65
523.645	4.62
523.993	4.7
524.341	4.53
524.688	4.64
525.036	4.74
525.383	4.56
525.73	4.69
526.078	4.72
526.425	4.73
526.772	4.74
527.119	4.72
527.466	4.65
527.814	4.57
528.161	4.62
528.508	4.57
528.854	4.66
529.201	4.73
529.548	4.62
529.895	4.62
530.242	4.59
530.588	4.49
530.935	4.45
531.282	4.46
531.628	4.52
531.975	4.52
532.321	4.56
532.667	4.62
533.014	4.67
533.36	4.68
533.706	4.69
534.052	4.78
534.399	4.76
534.745	4.76
535.091	4.66
535.437	4.68
535.783	4.6
536.129	4.66
536.474	4.72
536.82	4.67
537.166	4.84
537.512	4.85
537.857	4.78
538.203	4.94
538.549	4.8
538.894	4.78
539.239	4.78
539.585	4.72
539.93	4.86
540.276	4.83
540.621	4.8
540.966	5.03
541.311	4.97
541.656	4.94
542.001	5.07
542.346	4.95
542.691	5
543.036	4.89
543.381	4.87
543.726	4.86
544.071	4.81
544.415	4.81
544.76	4.79
545.105	4.87
545.449	4.92
545.794	4.95
546.138	5.03
546.483	5.02
546.827	5
547.171	5.16
547.516	5.23
547.86	5.15
548.204	5.12
548.548	5.18
548.892	5.15
549.236	5.07
549.58	5.07
549.924	5.23
550.268	5.27
550.612	5.21
550.956	5.25
551.3	5.33
551.643	5.37
551.987	5.45
552.33	5.56
552.674	5.24
553.017	5.39
553.361	5.41
553.704	5.44
554.048	5.51
554.391	5.43
554.734	5.47
555.077	5.43
555.42	5.26
555.764	5.44
556.107	5.45
556.45	5.52
556.793	5.49
557.135	5.63
557.478	5.49
557.821	5.56
558.164	5.55
558.507	5.79
558.849	5.46
559.192	5.64
559.534	5.72
559.877	5.63
560.219	5.68
560.562	5.61
560.904	5.76
561.246	5.8
561.589	5.62
561.931	5.61
562.273	5.62
562.615	5.64
562.957	5.72
563.299	5.87
563.641	5.86
563.983	5.9
564.325	5.84
564.667	6.05
565.008	6.06
565.35	5.92
565.692	5.99
566.033	5.89
566.375	5.99
566.716	5.98
567.058	6
567.399	6.13
567.741	6.03
568.082	5.92
568.423	6.1
568.764	6.11
569.105	5.92
569.447	5.94
569.788	5.92
570.129	6.17
570.47	6.26
570.811	6.21
571.151	6.24
571.492	6.18
571.833	6.14
572.174	6.19
572.514	6.28
572.855	6.15
573.195	6.09
573.536	6.21
573.876	6.3
574.217	6.21
574.557	6.1
574.898	6.24
575.238	6.24
575.578	6.34
575.918	6.47
576.258	6.2
576.598	6.31
576.938	6.53
577.278	6.54
577.618	6.39
577.958	6.64
578.298	6.74
578.638	6.48
578.977	6.58
579.317	6.55
579.657	6.67
579.996	6.8
580.336	6.74
580.675	6.75
581.014	6.53
581.354	6.7
581.693	6.65
582.032	6.65
582.372	7.05
582.711	6.88
583.05	6.88
583.389	6.93
583.728	6.96
584.067	6.92
584.406	6.97
584.745	6.94
585.083	7.24
585.422	7.18
585.761	7
586.1	6.98
586.438	7.07
586.777	7.03
587.115	7.13
587.454	7.14
587.792	7.29
588.13	7.34
588.469	7.39
588.807	7.48
589.145	7.3
589.483	7.39
589.821	7.42
590.159	7.11
590.497	7.43
590.835	7.51
591.173	7.45
591.511	7.31
591.849	7.63
592.187	7.44
592.524	7.6
592.862	7.53
593.2	7.37
593.537	7.43
593.875	7.35
594.212	7.55
594.55	7.9
594.887	7.69
595.224	7.71
595.561	7.98
595.899	7.92
596.236	7.78
596.573	7.82
596.91	7.84
597.247	7.81
597.584	7.84
597.921	7.99
598.258	8.08
598.594	8.03
598.931	7.8
599.268	7.85
599.604	8.07
599.941	7.94
600.277	7.89
600.614	7.93
600.95	8.11
601.287	8.1
601.623	8.22
601.959	8.26
602.296	8.21
602.632	8.29
602.968	8.39
603.304	8.34
603.64	8.27
603.976	8.53
604.312	8.57
604.648	8.39
604.984	8.37
605.319	8.59
605.655	8.34
605.991	8.38
606.326	8.49
606.662	8.21
606.998	8.36
607.333	8.54
607.668	8.56
608.004	8.73
608.339	8.49
608.674	8.61
609.01	8.62
609.345	8.65
609.68	8.84
610.015	8.72
610.35	8.86
610.685	9.04
611.02	8.93
611.355	8.99
611.689	9.04
612.024	9.01
612.359	9.05
612.694	8.62
613.028	8.81
613.363	8.85
613.697	9.2
614.032	9.3
614.366	8.92
614.7	8.93
615.035	9.24
615.369	9.02
615.703	8.99
616.037	9.66
616.371	9.49
616.705	9.51
617.039	9.24
617.373	9.36
617.707	9.36
618.041	9.51
618.375	9.4
618.709	9.51
619.042	9.86
619.376	9.79
619.71	9.76
620.043	9.29
620.377	9.57
620.71	9.83
621.043	10.06
621.377	9.41
621.71	9.82
622.043	9.79
622.376	10.09
622.709	9.78
623.043	9.82
623.376	9.85
623.709	10.02
624.041	9.93
624.374	9.99
624.707	9.93
625.04	9.77
625.373	9.76
625.705	10.16
626.038	10.27
626.37	10.46
626.703	10.47
627.035	10.32
627.368	10.23
627.7	10.86
628.032	10.24
628.365	10.24
628.697	10.38
629.029	10.52
629.361	10.44
629.693	10.59
630.025	10.46
630.357	10.42
630.689	10.27
631.021	10.61
631.353	10.61
631.684	10.51
632.016	10.73
632.348	10.43
632.679	10.54
633.011	10.72
633.342	10.51
633.674	11.11
634.005	10.58
634.336	11.13
634.668	11.15
634.999	11.17
635.33	10.84
635.661	10.7
635.992	10.73
636.323	11.24
636.654	10.77
636.985	10.84
637.316	10.78
637.647	11.39
637.977	10.92
638.308	11.53
638.639	11.29
638.969	11.44
639.3	11.13
639.63	11.76
639.961	11.33
640.291	11.17
640.622	11.39
640.952	11.59
641.282	11.67
641.612	11.38
641.943	11.51
642.273	12.07
642.603	11.53
642.933	11.78
643.263	11.49
643.592	11.66
643.922	11.69
644.252	11.87
644.582	12.33
644.911	11.88
645.241	11.98
645.571	11.8
645.9	11.81
646.23	12.27
646.559	12.23
646.888	12.37
647.218	11.71
647.547	12.21
647.876	12.39
648.205	12
648.534	12.08
648.863	11.99
649.192	11.75
649.521	12.32
649.85	12.73
650.179	12.5
650.508	11.96
650.837	12.61
651.165	12.58
651.494	12.68
651.822	12.33
652.151	12.51
652.479	12.64
652.808	12.59
653.136	12.86
653.465	12.77
653.793	12.79
654.121	13.11
654.449	12.48
654.777	12.9
655.105	13.04
655.433	12.9
655.761	13.09
656.089	12.73
656.417	12.91
656.745	12.96
657.073	13.16
657.4	13.66
657.728	13.08
658.056	13.07
658.383	13.5
658.711	12.67
659.038	12.36
659.365	12.91
659.693	12.77
660.02	13.25
660.347	13.28
660.674	13.43
661.001	12.94
661.329	13.59
661.656	13.46
661.982	13.07
662.309	13.81
662.636	13.55
662.963	13.35
663.29	13.33
663.616	13.91
663.943	14.21
664.27	13.74
664.596	13.71
664.923	13.69
665.249	14.11
665.576	13.05
665.902	13.75
666.228	13.73
666.554	13.87
666.881	14.37
667.207	14.19
667.533	13.63
667.859	14.29
668.185	13.95
668.511	14.64
668.837	14.11
669.162	14.35
669.488	13.82
669.814	14.01
670.139	14.37
670.465	14.6
670.791	14.01
671.116	14.03
671.442	15.54
671.767	14.02
672.092	15.21
672.418	14.93
672.743	14.88
673.068	15
673.393	13.92
673.718	14.95
674.043	15.01
674.368	14.78
674.693	14.57
675.018	14.87
675.343	14.63
675.667	15.07
675.992	14.58
676.317	15.39
676.641	15.23
676.966	14.92
677.29	14.45
677.615	15.4
677.939	15.06
678.264	15.47
678.588	15.46
678.912	15.69
679.236	15.35
679.56	15.38
679.885	15.05
680.209	15.91
680.532	14.67
680.856	15.36
681.18	15.28
681.504	15.16
681.828	15.26
682.152	15.56
682.475	16.5
682.799	15.76
683.122	15.32
683.446	15.69
683.769	15.26
684.093	15.83
684.416	16.09
684.739	15.88
685.062	17.11
685.386	15.95
685.709	15.91
686.032	15.7
686.355	15.84
686.678	16.62
687.001	16.46
687.324	16.51
687.646	16.01
687.969	16.72
