Data from 0221_crown_Reflection__1__274.txt Node

Date: Fri Sep 22 22:55:52 CDT 2023
User: ToomeyLab
Spectrometer: FLMS14357
Trigger mode: 0
Integration Time (sec): 1.000000E-2
Scans to average: 100
Electric dark correction enabled: true
Nonlinearity correction enabled: false
Boxcar width: 0
XAxis mode: Wavelengths
Number of Pixels in Spectrum: 2048
>>>>>Begin Spectral Data<<<<<
189.047	657.62
189.435	657.62
189.823	657.62
190.211	348.76
190.599	271.87
190.987	287.94
191.375	-36.68
191.763	405.42
192.151	288.58
192.538	-83.45
192.926	110.03
193.314	-70.56
193.702	4738.61
194.089	62.19
194.477	-330.26
194.864	36.28
195.252	18.15
195.639	21.48
196.027	40.41
196.414	-58.89
196.801	226.26
197.189	196.92
197.576	87.22
197.963	-112.88
198.351	-26.61
198.738	19.57
199.125	-11.29
199.512	31.92
199.899	33.13
200.286	12.9
200.673	29.08
201.06	24.92
201.447	58.05
201.833	-69.09
202.22	21.25
202.607	53.12
202.994	44.72
203.38	49.45
203.767	-17.56
204.154	48.97
204.54	12.69
204.927	-0.62
205.313	53.71
205.699	54.77
206.086	48.91
206.472	47.59
206.858	35.73
207.245	33.11
207.631	38.84
208.017	10.76
208.403	32.02
208.789	26.81
209.175	42.79
209.561	34.07
209.947	45.38
210.333	25.17
210.719	-5.5
211.105	38.51
211.491	49.23
211.876	32.88
212.262	11.53
212.648	19.34
213.034	28.9
213.419	47.71
213.805	18.71
214.19	36.5
214.576	28.77
214.961	24.94
215.346	10.9
215.732	24.59
216.117	24.75
216.502	36.03
216.888	38.12
217.273	28.33
217.658	26.99
218.043	43.09
218.428	26.12
218.813	-5.93
219.198	33.02
219.583	-1.9
219.968	11.01
220.353	37.08
220.738	-12.38
221.122	12.38
221.507	21.53
221.892	6.57
222.276	18.99
222.661	12.26
223.046	24.55
223.43	20.02
223.815	13.99
224.199	-5.63
224.583	14.09
224.968	10.55
225.352	10.84
225.736	14.73
226.121	24.07
226.505	6.27
226.889	11.95
227.273	3.43
227.657	5.55
228.041	5.93
228.425	16.31
228.809	9.07
229.193	8.65
229.577	9.43
229.961	9.55
230.344	9.66
230.728	7.68
231.112	10.57
231.495	9.45
231.879	9.6
232.263	8.94
232.646	9.42
233.03	10.77
233.413	10.25
233.797	8.53
234.18	9.64
234.563	12.58
234.946	7.11
235.33	7.31
235.713	8.62
236.096	8.52
236.479	9.26
236.862	10.88
237.245	10.45
237.628	9.45
238.011	8.88
238.394	9.95
238.777	9.82
239.16	9.79
239.543	10.42
239.925	11.2
240.308	10.53
240.691	10.29
241.073	9.91
241.456	10.2
241.838	6.65
242.221	8.01
242.603	8.66
242.986	8.22
243.368	8.47
243.75	8.79
244.133	9.38
244.515	8.78
244.897	8.36
245.279	8.33
245.661	8.05
246.043	8.42
246.425	7.41
246.807	8.04
247.189	7.88
247.571	8.36
247.953	8.35
248.335	8.5
248.717	8.35
249.098	8.4
249.48	7.98
249.862	7.83
250.243	7.9
250.625	8.26
251.006	7.77
251.388	8.54
251.769	8.19
252.151	7.71
252.532	8.66
252.913	8.47
253.295	9.53
253.676	7.69
254.057	7.53
254.438	8.27
254.819	7.05
255.2	8.25
255.581	8.27
255.962	8.26
256.343	8.85
256.724	7.73
257.105	7.81
257.486	8.84
257.867	8.69
258.247	8.02
258.628	8.13
259.009	7.83
259.389	7.33
259.77	8.37
260.15	7.45
260.531	7.32
260.911	7.61
261.292	7.33
261.672	6.9
262.052	7.34
262.432	7.23
262.813	7.38
263.193	7.41
263.573	7.77
263.953	7.05
264.333	7.3
264.713	6.99
265.093	7.62
265.473	7.13
265.853	6.93
266.233	7.37
266.612	7.85
266.992	7.4
267.372	7.39
267.752	7.73
268.131	7.18
268.511	7.32
268.89	7.15
269.27	6.9
269.649	7.39
270.029	6.85
270.408	6.99
270.787	6.76
271.167	7.04
271.546	6.74
271.925	6.81
272.304	7.03
272.683	6.96
273.062	7.22
273.441	6.9
273.82	7.36
274.199	6.65
274.578	7.07
274.957	6.51
275.336	6.52
275.715	6.65
276.093	6.85
276.472	7.06
276.851	6.9
277.229	6.1
277.608	6.6
277.986	6.7
278.365	6.97
278.743	6.63
279.122	6.29
279.5	7.03
279.878	6.41
280.257	7.13
280.635	6.43
281.013	6.78
281.391	6.82
281.769	6.44
282.147	6.61
282.525	6.69
282.903	6.7
283.281	6.29
283.659	6.98
284.037	6.44
284.415	6.19
284.792	6.36
285.17	6.52
285.548	7.25
285.925	6.57
286.303	5.88
286.68	5.73
287.058	6.13
287.435	6.4
287.813	6.17
288.19	6.06
288.567	6.22
288.945	6.15
289.322	6.08
289.699	6.14
290.076	6.48
290.453	6.13
290.83	5.37
291.207	6.19
291.584	5.81
291.961	5.94
292.338	6.45
292.715	6.35
293.092	5.54
293.469	6.24
293.845	5.82
294.222	6.49
294.599	6.07
294.975	5.73
295.352	6.28
295.728	5.8
296.105	5.91
296.481	6.22
296.858	5.91
297.234	5.6
297.61	5.87
297.986	5.92
298.363	5.88
298.739	6.09
299.115	6.15
299.491	5.77
299.867	5.79
300.243	5.61
300.619	5.83
300.995	5.96
301.371	6.17
301.746	6.2
302.122	5.39
302.498	5.59
302.874	6.27
303.249	5.85
303.625	5.75
304	5.69
304.376	5.65
304.751	5.47
305.127	5.38
305.502	6.11
305.878	5.86
306.253	6.22
306.628	5.45
307.003	6.08
307.378	5.96
307.754	5.5
308.129	6.19
308.504	5.68
308.879	6.18
309.254	5.84
309.629	6.2
310.003	5.96
310.378	6.06
310.753	5.52
311.128	5.68
311.502	5.83
311.877	5.22
312.252	5.51
312.626	5.74
313.001	5.86
313.375	5.7
313.75	5.97
314.124	5.86
314.498	5.06
314.873	5.41
315.247	5.93
315.621	5.19
315.995	5.81
316.369	5.47
316.743	5.37
317.117	5.69
317.491	5.74
317.865	5.7
318.239	5.69
318.613	5.87
318.987	5.84
319.361	5.1
319.734	5.17
320.108	6.24
320.482	4.93
320.855	5.47
321.229	5.92
321.602	5.93
321.976	5.35
322.349	5.8
322.723	5.85
323.096	5.4
323.469	5.87
323.843	5.43
324.216	6.28
324.589	5.6
324.962	5.41
325.335	5.59
325.708	5.63
326.081	5.82
326.454	5.06
326.827	5.59
327.2	5.24
327.573	5.78
327.945	5.8
328.318	5.78
328.691	5.73
329.063	5.68
329.436	5.48
329.809	5.13
330.181	5.37
330.553	5.52
330.926	5.16
331.298	6.36
331.671	5.51
332.043	5.1
332.415	5.33
332.787	5.87
333.159	5.34
333.532	5.6
333.904	5.61
334.276	5.44
334.648	5.01
335.02	5.15
335.391	5.43
335.763	6.16
336.135	5.47
336.507	5.87
336.879	5.26
337.25	6
337.622	5.9
337.993	5.84
338.365	5.53
338.736	5.8
339.108	5.8
339.479	5.52
339.851	5.67
340.222	6.06
340.593	5.09
340.964	5.49
341.336	5.46
341.707	5.64
342.078	5.46
342.449	5.98
342.82	5.58
343.191	5.19
343.562	5.1
343.933	5.54
344.303	5.43
344.674	5.7
345.045	5.55
345.416	5.65
345.786	5.66
346.157	5.58
346.527	5.46
346.898	5.48
347.268	5.54
347.639	5.59
348.009	5.75
348.38	5.57
348.75	5.77
349.12	5.4
349.49	6.2
349.861	5.56
350.231	5.96
350.601	5.69
350.971	5.68
351.341	5.6
351.711	5.63
352.081	5.76
352.45	5.99
352.82	6.03
353.19	6.36
353.56	5.57
353.929	5.97
354.299	5.84
354.669	5.6
355.038	5.59
355.408	5.62
355.777	6
356.147	5.67
356.516	6.02
356.885	5.78
357.254	5.82
357.624	5.47
357.993	5.85
358.362	6.07
358.731	5.38
359.1	5.78
359.469	5.73
359.838	5.62
360.207	5.63
360.576	5.78
360.945	5.74
361.314	6.13
361.682	5.99
362.051	6.21
362.42	5.99
362.788	5.87
363.157	5.93
363.525	5.87
363.894	5.7
364.262	5.69
364.631	5.81
364.999	5.74
365.367	6.01
365.735	5.57
366.104	5.81
366.472	6.01
366.84	5.65
367.208	6.02
367.576	5.96
367.944	6.02
368.312	6
368.68	5.9
369.048	6.04
369.416	6.06
369.783	5.82
370.151	5.76
370.519	5.93
370.886	6.22
371.254	5.99
371.621	5.89
371.989	5.95
372.356	6.19
372.724	6.02
373.091	6.15
373.458	5.9
373.826	6.01
374.193	6.42
374.56	6.11
374.927	6.05
375.294	5.9
375.661	5.44
376.028	6.11
376.395	6.35
376.762	6.12
377.129	5.87
377.496	6.54
377.863	6.4
378.229	6.02
378.596	6.24
378.963	6.43
379.329	5.73
379.696	6.36
380.062	5.85
380.429	6.07
380.795	6.06
381.161	5.82
381.528	5.93
381.894	5.76
382.26	6.09
382.626	6.04
382.993	6.35
383.359	6.2
383.725	6.05
384.091	6.13
384.457	6.18
384.823	6.19
385.188	6.41
385.554	6.35
385.92	6.6
386.286	6.31
386.651	6.23
387.017	6.19
387.383	6.28
387.748	6.13
388.114	6.25
388.479	6.51
388.845	6.08
389.21	5.99
389.575	6.67
389.94	6.15
390.306	6.37
390.671	6.63
391.036	6.14
391.401	6.47
391.766	6.06
392.131	6.32
392.496	6.53
392.861	6.38
393.226	6.47
393.591	6.29
393.956	6.31
394.32	6.3
394.685	6.23
395.05	6.61
395.414	6.43
395.779	6.29
396.143	6.4
396.508	6.38
396.872	6.18
397.236	6.58
397.601	6.35
397.965	6.64
398.329	6.47
398.694	6.31
399.058	6.24
399.422	6.35
399.786	6.5
400.15	6.29
400.514	6.27
400.878	6.44
401.242	6.53
401.605	6.26
401.969	6.15
402.333	6.58
402.697	6.38
403.06	6.21
403.424	6.39
403.787	6.6
404.151	6.59
404.514	6.74
404.878	6.51
405.241	6.78
405.604	6.37
405.968	6.65
406.331	6.4
406.694	6.35
407.057	6.45
407.42	6.56
407.783	6.31
408.146	6.41
408.509	6.45
408.872	6.37
409.235	6.54
409.598	6.49
409.961	6.61
410.323	6.47
410.686	6.51
411.049	6.71
411.411	6.76
411.774	6.58
412.136	6.29
412.499	6.55
412.861	6.63
413.223	6.52
413.586	6.5
413.948	6.43
414.31	6.39
414.672	6.45
415.035	6.65
415.397	6.47
415.759	6.86
416.121	6.48
416.483	6.25
416.845	6.55
417.206	6.39
417.568	6.6
417.93	6.44
418.292	6.77
418.653	6.47
419.015	6.46
419.377	6.3
419.738	6.37
420.1	6.56
420.461	6.49
420.822	6.49
421.184	6.45
421.545	6.46
421.906	6.45
422.267	6.34
422.629	6.4
422.99	6.32
423.351	6.33
423.712	6.3
424.073	6.38
424.434	6.45
424.795	6.44
425.155	6.46
425.516	6.47
425.877	6.5
426.238	6.3
426.598	6.39
426.959	6.39
427.32	6.41
427.68	6.45
428.041	6.35
428.401	6.49
428.761	6.55
429.122	6.5
429.482	6.53
429.842	6.32
430.202	6.52
430.563	6.48
430.923	6.65
431.283	6.68
431.643	6.62
432.003	6.54
432.363	6.59
432.722	6.7
433.082	6.68
433.442	6.53
433.802	6.53
434.161	6.63
434.521	6.34
434.881	6.59
435.24	6.5
435.6	6.51
435.959	6.41
436.319	6.53
436.678	6.63
437.037	6.7
437.396	6.58
437.756	6.72
438.115	6.65
438.474	6.71
438.833	6.72
439.192	6.6
439.551	6.47
439.91	6.72
440.269	6.72
440.628	6.47
440.987	6.55
441.345	6.69
441.704	6.63
442.063	6.46
442.421	6.52
442.78	6.62
443.138	6.59
443.497	6.48
443.855	6.53
444.214	6.44
444.572	6.77
444.93	6.59
445.288	6.67
445.647	6.59
446.005	6.5
446.363	6.51
446.721	6.55
447.079	6.52
447.437	6.6
447.795	6.73
448.153	6.44
448.51	6.57
448.868	6.53
449.226	6.5
449.584	6.49
449.941	6.5
450.299	6.6
450.656	6.57
451.014	6.56
451.371	6.58
451.729	6.59
452.086	6.57
452.443	6.69
452.801	6.75
453.158	6.63
453.515	6.75
453.872	6.59
454.229	6.82
454.586	6.69
454.943	6.74
455.3	6.61
455.657	6.57
456.014	6.69
456.371	6.66
456.727	6.81
457.084	6.77
457.441	6.55
457.797	6.77
458.154	6.61
458.51	6.67
458.867	6.76
459.223	6.73
459.58	6.63
459.936	6.63
460.292	6.63
460.648	6.74
461.005	6.71
461.361	6.71
461.717	6.45
462.073	6.48
462.429	6.47
462.785	6.53
463.141	6.48
463.496	6.67
463.852	6.59
464.208	6.65
464.564	6.74
464.919	6.66
465.275	6.72
465.631	6.87
465.986	6.8
466.342	6.63
466.697	6.62
467.052	6.6
467.408	6.9
467.763	6.7
468.118	6.9
468.473	6.61
468.829	6.71
469.184	6.75
469.539	6.62
469.894	6.79
470.249	6.73
470.603	6.69
470.958	6.8
471.313	6.78
471.668	6.8
472.023	6.7
472.377	6.7
472.732	6.77
473.086	6.8
473.441	6.57
473.795	6.83
474.15	6.76
474.504	6.71
474.859	6.97
475.213	6.45
475.567	6.6
475.921	6.57
476.275	6.77
476.63	6.59
476.984	6.56
477.338	6.8
477.692	6.64
478.045	6.83
478.399	6.99
478.753	6.71
479.107	6.6
479.461	6.69
479.814	6.66
480.168	6.64
480.521	6.72
480.875	6.8
481.228	6.69
481.582	6.38
481.935	6.67
482.289	6.6
482.642	6.49
482.995	6.56
483.348	6.67
483.701	6.66
484.055	6.49
484.408	6.47
484.761	6.52
485.114	6.44
485.466	6.35
485.819	6.26
486.172	6.25
486.525	6.2
486.878	6.22
487.23	6.23
487.583	6.33
487.936	6.37
488.288	6.44
488.641	6.41
488.993	6.37
489.345	6.32
489.698	6.32
490.05	6.34
490.402	6.28
490.754	6.3
491.107	6.29
491.459	6.41
491.811	6.46
492.163	6.45
492.515	6.54
492.866	6.47
493.218	6.47
493.57	6.43
493.922	6.3
494.274	6.35
494.625	6.35
494.977	6.42
495.328	6.54
495.68	6.59
496.031	6.49
496.383	6.66
496.734	6.64
497.086	6.63
497.437	6.68
497.788	6.6
498.139	6.66
498.49	6.83
498.842	6.5
499.193	6.5
499.544	6.58
499.894	6.55
500.245	6.57
500.596	6.59
500.947	6.67
501.298	6.61
501.648	6.63
501.999	6.58
502.35	6.61
502.7	6.71
503.051	6.68
503.401	6.72
503.752	6.79
504.102	6.7
504.452	6.63
504.803	6.56
505.153	6.53
505.503	6.57
505.853	6.66
506.203	6.47
506.553	6.65
506.903	6.6
507.253	6.41
507.603	6.7
507.953	6.71
508.303	6.6
508.652	6.62
509.002	6.63
509.352	6.56
509.701	6.66
510.051	6.7
510.4	6.59
510.75	6.5
511.099	6.4
511.449	6.61
511.798	6.57
512.147	6.51
512.496	6.46
512.846	6.55
513.195	6.56
513.544	6.56
513.893	6.62
514.242	6.47
514.591	6.49
514.939	6.52
515.288	6.49
515.637	6.51
515.986	6.45
516.334	6.64
516.683	6.55
517.032	6.63
517.38	6.68
517.729	6.45
518.077	6.64
518.426	6.64
518.774	6.61
519.122	6.58
519.47	6.5
519.819	6.55
520.167	6.6
520.515	6.44
520.863	6.42
521.211	6.45
521.559	6.57
521.907	6.47
522.255	6.45
522.602	6.44
522.95	6.48
523.298	6.65
523.645	6.59
523.993	6.5
524.341	6.46
524.688	6.55
525.036	6.59
525.383	6.57
525.73	6.57
526.078	6.62
526.425	6.48
526.772	6.44
527.119	6.41
527.466	6.36
527.814	6.35
528.161	6.34
528.508	6.4
528.854	6.4
529.201	6.45
529.548	6.44
529.895	6.36
530.242	6.27
530.588	6.15
530.935	6.13
531.282	6.14
531.628	6.21
531.975	6.2
532.321	6.16
532.667	6.24
533.014	6.38
533.36	6.41
533.706	6.41
534.052	6.33
534.399	6.51
534.745	6.43
535.091	6.31
535.437	6.22
535.783	6.22
536.129	6.23
536.474	6.34
536.82	6.27
537.166	6.45
537.512	6.36
537.857	6.37
538.203	6.43
538.549	6.37
538.894	6.27
539.239	6.26
539.585	6.29
539.93	6.35
540.276	6.4
540.621	6.34
540.966	6.47
541.311	6.48
541.656	6.44
542.001	6.41
542.346	6.39
542.691	6.46
543.036	6.27
543.381	6.19
543.726	6.19
544.071	6.22
544.415	6.18
544.76	6.18
545.105	6.13
545.449	6.23
545.794	6.26
546.138	6.4
546.483	6.28
546.827	6.29
547.171	6.35
547.516	6.34
547.86	6.39
548.204	6.29
548.548	6.37
548.892	6.38
549.236	6.21
549.58	6.35
549.924	6.46
550.268	6.53
550.612	6.39
550.956	6.47
551.3	6.43
551.643	6.47
551.987	6.5
552.33	6.58
552.674	6.41
553.017	6.24
553.361	6.44
553.704	6.53
554.048	6.57
554.391	6.51
554.734	6.26
555.077	6.37
555.42	6.44
555.764	6.31
556.107	6.36
556.45	6.4
556.793	6.25
557.135	6.41
557.478	6.3
557.821	6.54
558.164	6.53
558.507	6.65
558.849	6.27
559.192	6.51
559.534	6.67
559.877	6.42
560.219	6.34
560.562	6.33
560.904	6.48
561.246	6.57
561.589	6.47
561.931	6.25
562.273	6.26
562.615	6.43
562.957	6.38
563.299	6.36
563.641	6.45
563.983	6.44
564.325	6.35
564.667	6.32
565.008	6.4
565.35	6.45
565.692	6.36
566.033	6.33
566.375	6.43
566.716	6.31
567.058	6.25
567.399	6.37
567.741	6.41
568.082	6.38
568.423	6.29
568.764	6.53
569.105	6.27
569.447	6.36
569.788	6.24
570.129	6.45
570.47	6.5
570.811	6.21
571.151	6.29
571.492	6.24
571.833	6.26
572.174	6.27
572.514	6.32
572.855	6.16
573.195	6.2
573.536	6.19
573.876	6.25
574.217	6.21
574.557	6.25
574.898	6.35
575.238	6.23
575.578	6.39
575.918	6.24
576.258	6.04
576.598	6.25
576.938	6.08
577.278	6.39
577.618	6.14
577.958	6.34
578.298	6.38
578.638	6.19
578.977	6.2
579.317	6.29
579.657	6.16
579.996	6.28
580.336	6.31
580.675	6.32
581.014	6.08
581.354	6.3
581.693	6.4
582.032	6.26
582.372	6.46
582.711	6.29
583.05	6.25
583.389	6.35
583.728	6.25
584.067	6.37
584.406	6.36
584.745	6.29
585.083	6.49
585.422	6.31
585.761	6.16
586.1	6.32
586.438	5.99
586.777	6.22
587.115	6.43
587.454	5.92
587.792	6.3
588.13	6.36
588.469	6.19
588.807	6.45
589.145	6.32
589.483	6.4
589.821	6.3
590.159	6.19
590.497	6.32
590.835	6.14
591.173	6.04
591.511	6.34
591.849	6.35
592.187	6.2
592.524	6.36
592.862	6.14
593.2	6.25
593.537	5.98
593.875	6.3
594.212	6.22
594.55	6.39
594.887	6.07
595.224	6.21
595.561	6.54
595.899	6.44
596.236	6.5
596.573	6.27
596.91	6.01
597.247	6.02
597.584	6.35
597.921	6.27
598.258	6.21
598.594	6.2
598.931	6.01
599.268	6.23
599.604	6.2
599.941	6.19
600.277	5.9
600.614	6.15
600.95	6.09
601.287	6.12
601.623	6.27
601.959	6.06
602.296	6.18
602.632	5.87
602.968	6.23
603.304	6.1
603.64	6.03
603.976	6.13
604.312	6.26
604.648	5.98
604.984	6.16
605.319	6.03
605.655	6.16
605.991	6.03
606.326	6.19
606.662	5.84
606.998	5.99
607.333	6.19
607.668	5.98
608.004	5.85
608.339	5.84
608.674	6.11
609.01	6.06
609.345	5.85
609.68	6.18
610.015	6.17
610.35	6.07
610.685	6.28
611.02	6.21
611.355	6.07
611.689	6.33
612.024	6.19
612.359	5.81
612.694	6.03
613.028	5.89
613.363	5.9
613.697	6.18
614.032	5.91
614.366	5.83
614.7	5.86
615.035	6.05
615.369	6.02
615.703	6.07
616.037	6.03
616.371	6.26
616.705	6.15
617.039	6.06
617.373	5.92
617.707	5.89
618.041	6.08
618.375	5.94
618.709	5.8
619.042	6.22
619.376	6.21
619.71	6.19
620.043	5.84
620.377	5.61
620.71	6.2
621.043	6.04
621.377	5.98
621.71	6.12
622.043	6.12
622.376	6.34
622.709	6.25
623.043	6.3
623.376	6.02
623.709	6.27
624.041	5.98
624.374	5.96
624.707	5.97
625.04	6.52
625.373	5.81
625.705	6.05
626.038	6.07
626.37	6.36
626.703	6
627.035	6.19
627.368	6.16
627.7	6.17
628.032	6.28
628.365	6.26
628.697	6.18
629.029	5.95
629.361	6.12
629.693	6.01
630.025	5.94
630.357	5.87
630.689	6.16
631.021	5.82
631.353	6.12
631.684	5.91
632.016	6.15
632.348	6.15
632.679	5.65
633.011	6.15
633.342	6.14
633.674	6.58
634.005	5.57
634.336	6.13
634.668	6.07
634.999	5.99
635.33	6.25
635.661	5.89
635.992	5.71
636.323	5.87
636.654	5.8
636.985	5.95
637.316	6.09
637.647	6.11
637.977	5.64
638.308	6.03
638.639	6.02
638.969	6.54
639.3	5.88
639.63	6.33
639.961	5.95
640.291	5.97
640.622	5.99
640.952	6.17
641.282	6
641.612	5.95
641.943	6.24
642.273	6.1
642.603	6.41
642.933	6.1
643.263	5.13
643.592	5.79
643.922	6.62
644.252	5.84
644.582	6.36
644.911	6.11
645.241	5.95
645.571	5.95
645.9	6.16
646.23	6.66
646.559	6
646.888	6.13
647.218	5.65
647.547	5.7
647.876	5.98
648.205	5.74
648.534	6.67
648.863	6.48
649.192	5.8
649.521	6.16
649.85	6.5
650.179	6.15
650.508	5.8
650.837	6.5
651.165	6.18
651.494	5.98
651.822	5.82
652.151	6.14
652.479	6.25
652.808	5.7
653.136	6.22
653.465	6.21
653.793	6.2
654.121	6.11
654.449	5.57
654.777	6.29
655.105	6.13
655.433	6.28
655.761	6.08
656.089	6.07
656.417	6.35
656.745	5.85
657.073	5.93
657.4	6.18
657.728	6.22
658.056	5.81
658.383	6.18
658.711	6.14
659.038	6.18
659.365	6.1
659.693	5.91
660.02	6.09
660.347	6.29
660.674	5.7
661.001	5.64
661.329	5.97
661.656	6.19
661.982	5.68
662.309	6.58
662.636	5.84
662.963	6.08
663.29	6.21
663.616	6.14
663.943	5.99
664.27	6.01
664.596	5.97
664.923	5.97
665.249	6.13
665.576	5.98
665.902	6.27
666.228	6.04
666.554	5.45
666.881	6.18
667.207	6.44
667.533	5.84
667.859	6.62
668.185	6.2
668.511	6.18
668.837	6.01
669.162	5.98
669.488	6.15
669.814	5.96
670.139	6.13
670.465	5.91
670.791	6.2
671.116	5.9
671.442	6.3
671.767	5.65
672.092	6.75
672.418	6.75
672.743	6.41
673.068	6.6
673.393	6.04
673.718	6.09
674.043	6.61
674.368	6.3
674.693	6.11
675.018	5.9
675.343	6.17
675.667	6.07
675.992	6.58
676.317	6.58
676.641	5.85
676.966	6.04
677.29	6.11
677.615	6.24
677.939	6
678.264	6.14
678.588	6.66
678.912	6.03
679.236	6.29
679.56	6.04
679.885	5.76
680.209	6.86
680.532	6.2
680.856	6.08
681.18	6.23
681.504	6.08
681.828	6.57
682.152	6.17
682.475	7.07
682.799	5.89
683.122	6.26
683.446	6.02
683.769	6.19
684.093	6.48
684.416	6.57
684.739	6.13
685.062	6.6
685.386	5.96
685.709	5.95
686.032	5.99
686.355	6.58
686.678	6.04
687.001	6.07
687.324	6.74
687.646	5.86
687.969	6.69
688.292	6.64
688.614	6.52
688.937	6.5
689.26	6.22
689.582	6.6
689.904	6.6
690.227	6.98
690.549	7.09
690.871	6.31
691.194	6.7
691.516	6.35
691.838	6.27
692.16	6.08
692.482	6.45
692.804	5.54
