Data from 0061_chest_Reflection__3__181.txt Node

Date: Fri Dec 16 15:25:57 CST 2022
User: ToomeyLab
Spectrometer: FLMS14357
Trigger mode: 0
Integration Time (sec): 1.000000E-2
Scans to average: 100
Electric dark correction enabled: true
Nonlinearity correction enabled: false
Boxcar width: 0
XAxis mode: Wavelengths
Number of Pixels in Spectrum: 2048
>>>>>Begin Spectral Data<<<<<
189.047	91.6
189.435	91.6
189.823	91.6
190.211	-38.04
190.599	-20.65
190.987	559.62
191.375	-178.27
191.763	68.98
192.151	-1394.05
192.538	-71.17
192.926	-100.17
193.314	100.73
193.702	68.33
194.089	-4715.91
194.477	71.13
194.864	78.75
195.252	58.1
195.639	77
196.027	-99.88
196.414	45.76
196.801	61.75
197.189	141.07
197.576	21.05
197.963	-585.77
198.351	9.32
198.738	16.62
199.125	15.56
199.512	-2.49
199.899	-25.41
200.286	-13.03
200.673	49.41
201.06	3.3
201.447	25
201.833	-21.5
202.22	-3.83
202.607	-27.98
202.994	-9.56
203.38	-41.84
203.767	-37.3
204.154	-39.27
204.54	-0.13
204.927	12.91
205.313	20.6
205.699	-6.12
206.086	0.85
206.472	-12.63
206.858	40.21
207.245	-0.06
207.631	-49.12
208.017	4.91
208.403	-28.86
208.789	58.41
209.175	23.41
209.561	-15.59
209.947	20.66
210.333	-8.29
210.719	7.07
211.105	-56.4
211.491	-2.27
211.876	8.5
212.262	-16.45
212.648	-69.01
213.034	-6.31
213.419	11.81
213.805	13.24
214.19	-8.76
214.576	13.64
214.961	-13.67
215.346	-41.31
215.732	3.32
216.117	-39.66
216.502	-45.87
216.888	-5.97
217.273	-1.22
217.658	-23.09
218.043	0.08
218.428	0.89
218.813	-5.13
219.198	-52.94
219.583	7.06
219.968	-37.84
220.353	31.15
220.738	-5.39
221.122	-11.1
221.507	-19.74
221.892	-9.43
222.276	4.82
222.661	-6.22
223.046	-13.33
223.43	-11
223.815	9.28
224.199	3.61
224.583	2.24
224.968	12.37
225.352	-2.71
225.736	2.39
226.121	1.37
226.505	3.52
226.889	5.89
227.273	3.54
227.657	1.7
228.041	1.33
228.425	2.94
228.809	2.71
229.193	1.27
229.577	1.18
229.961	2.04
230.344	2.58
230.728	2.05
231.112	2.47
231.495	2.48
231.879	3.1
232.263	-0.28
232.646	1.27
233.03	1.9
233.413	-0.24
233.797	4
234.18	-0.39
234.563	1.9
234.946	-0.49
235.33	2.52
235.713	2.27
236.096	1.39
236.479	1.91
236.862	3.05
237.245	3.06
237.628	2.87
238.011	1.71
238.394	5.3
238.777	1.25
239.16	1.25
239.543	0.69
239.925	3.18
240.308	4.09
240.691	1.79
241.073	2.77
241.456	2.13
241.838	1.92
242.221	2.22
242.603	2.08
242.986	3.46
243.368	2.22
243.75	2.34
244.133	2.47
244.515	2.32
244.897	2.24
245.279	1.97
245.661	2.34
246.043	3.12
246.425	2.06
246.807	1.96
247.189	2.48
247.571	2.82
247.953	2.71
248.335	2.79
248.717	2.73
249.098	3.13
249.48	2.48
249.862	3.04
250.243	2.82
250.625	2.92
251.006	1.91
251.388	2.43
251.769	1.65
252.151	3.07
252.532	3.01
252.913	2.85
253.295	2.53
253.676	2.92
254.057	2.94
254.438	2.29
254.819	2.8
255.2	2.38
255.581	2.24
255.962	2.93
256.343	3.67
256.724	2.31
257.105	2.1
257.486	2.87
257.867	1.54
258.247	2.49
258.628	2.44
259.009	2.36
259.389	2.64
259.77	2.22
260.15	3.47
260.531	2.93
260.911	2.57
261.292	2.67
261.672	2.67
262.052	2.73
262.432	2.95
262.813	2.8
263.193	2.41
263.573	2.89
263.953	2.28
264.333	2.26
264.713	2.55
265.093	1.58
265.473	3.21
265.853	2.71
266.233	2.27
266.612	2.93
266.992	2.59
267.372	2.46
267.752	2.54
268.131	2.56
268.511	2.71
268.89	2.71
269.27	3.02
269.649	2.69
270.029	2.82
270.408	2.52
270.787	2.54
271.167	2.95
271.546	1.93
271.925	2.46
272.304	2.58
272.683	2.52
273.062	2.83
273.441	2.65
273.82	2.94
274.199	2.85
274.578	2.34
274.957	2.81
275.336	2.33
275.715	2.79
276.093	2.7
276.472	2.83
276.851	2.86
277.229	3.29
277.608	2.46
277.986	2.1
278.365	2.25
278.743	2.54
279.122	2.09
279.5	1.93
279.878	2.03
280.257	2.6
280.635	2.21
281.013	2.85
281.391	2.13
281.769	2.64
282.147	2.41
282.525	2.44
282.903	2.34
283.281	2.36
283.659	2.45
284.037	2.5
284.415	2.75
284.792	2.74
285.17	2.54
285.548	2.49
285.925	2.3
286.303	2.61
286.68	2.62
287.058	2.54
287.435	2.44
287.813	2.76
288.19	3.37
288.567	2.41
288.945	2.34
289.322	2.69
289.699	2.39
290.076	2.96
290.453	2.7
290.83	2.55
291.207	2.94
291.584	2.33
291.961	2.94
292.338	2.6
292.715	2.62
293.092	2.57
293.469	2.72
293.845	2.84
294.222	2.82
294.599	3.73
294.975	3.3
295.352	3.06
295.728	2.76
296.105	3.02
296.481	3.39
296.858	3.3
297.234	3.14
297.61	2.97
297.986	3.2
298.363	2.83
298.739	3.29
299.115	2.76
299.491	2.92
299.867	2.93
300.243	3.07
300.619	2.69
300.995	3.52
301.371	3.35
301.746	3.13
302.122	3.8
302.498	3.22
302.874	3.49
303.249	3.25
303.625	3.43
304	2.66
304.376	2.87
304.751	2.56
305.127	3.14
305.502	3.61
305.878	3.22
306.253	2.77
306.628	3.51
307.003	3.13
307.378	3.14
307.754	3.19
308.129	2.95
308.504	3.2
308.879	2.78
309.254	3.4
309.629	3.22
310.003	3.45
310.378	3.49
310.753	3.51
311.128	3.73
311.502	3.25
311.877	3.07
312.252	3.32
312.626	3.24
313.001	3.31
313.375	3.33
313.75	3.29
314.124	3.88
314.498	2.92
314.873	3.5
315.247	3.35
315.621	3.8
315.995	3.71
316.369	3.29
316.743	3.72
317.117	3.62
317.491	3.6
317.865	2.59
318.239	3.58
318.613	3.27
318.987	3.57
319.361	3.39
319.734	3.27
320.108	3.01
320.482	3.68
320.855	4.14
321.229	3.85
321.602	3.27
321.976	3.87
322.349	2.6
322.723	2.63
323.096	3.01
323.469	3.45
323.843	3.01
324.216	2.95
324.589	3.88
324.962	3.41
325.335	3.92
325.708	3.8
326.081	3.95
326.454	3.68
326.827	3.74
327.2	4.24
327.573	3.61
327.945	3.77
328.318	3.56
328.691	3.64
329.063	3.51
329.436	3.61
329.809	3.27
330.181	3.44
330.553	3.39
330.926	3.75
331.298	2.93
331.671	3.13
332.043	3.34
332.415	4.16
332.787	4.14
333.159	3.13
333.532	3.83
333.904	3.51
334.276	3.54
334.648	3.96
335.02	3.57
335.391	4.43
335.763	3.32
336.135	3.69
336.507	3.79
336.879	3.74
337.25	3.68
337.622	3.04
337.993	4.08
338.365	3.77
338.736	3.87
339.108	3.84
339.479	3.54
339.851	4.35
340.222	4.16
340.593	3.34
340.964	3.87
341.336	3.25
341.707	3.29
342.078	3.28
342.449	4.17
342.82	3.59
343.191	3.79
343.562	3.62
343.933	3.85
344.303	3.81
344.674	3.67
345.045	4.26
345.416	3.67
345.786	3.6
346.157	3.69
346.527	3.56
346.898	3.94
347.268	3.57
347.639	3.88
348.009	4.19
348.38	4.29
348.75	3.8
349.12	3.75
349.49	3.31
349.861	4.31
350.231	4.04
350.601	3.86
350.971	3.94
351.341	4.14
351.711	3.66
352.081	3.88
352.45	3.91
352.82	4.13
353.19	3.8
353.56	3.62
353.929	3.76
354.299	3.63
354.669	4.07
355.038	3.95
355.408	4.38
355.777	3.51
356.147	4.09
356.516	3.98
356.885	4.26
357.254	4.05
357.624	3.76
357.993	3.82
358.362	4.21
358.731	4.04
359.1	3.76
359.469	4.22
359.838	3.87
360.207	3.82
360.576	3.89
360.945	3.79
361.314	4.24
361.682	3.83
362.051	3.98
362.42	4.3
362.788	4.15
363.157	3.86
363.525	4.03
363.894	3.81
364.262	3.84
364.631	4.37
364.999	3.87
365.367	4.37
365.735	3.95
366.104	3.82
366.472	4.28
366.84	4.21
367.208	3.99
367.576	3.84
367.944	4.25
368.312	4.01
368.68	4.47
369.048	4.37
369.416	3.81
369.783	3.84
370.151	4.33
370.519	3.83
370.886	4.18
371.254	4.07
371.621	3.83
371.989	3.98
372.356	4.17
372.724	4.26
373.091	4.4
373.458	4.21
373.826	3.99
374.193	4.15
374.56	4.06
374.927	4.02
375.294	4.24
375.661	4.04
376.028	4.53
376.395	4.1
376.762	4.48
377.129	4.44
377.496	4.35
377.863	4.25
378.229	4.23
378.596	4.43
378.963	4.17
379.329	4.42
379.696	4.4
380.062	4.34
380.429	4.26
380.795	4.25
381.161	4.71
381.528	4.04
381.894	4.24
382.26	4.2
382.626	4.41
382.993	4.13
383.359	4.46
383.725	4.33
384.091	4.19
384.457	4.3
384.823	4.4
385.188	4.69
385.554	4.35
385.92	4.66
386.286	4.43
386.651	4.36
387.017	4.43
387.383	4.29
387.748	4.22
388.114	4.54
388.479	4.61
388.845	4.73
389.21	4.45
389.575	4.23
389.94	4.36
390.306	4.33
390.671	4.3
391.036	4.48
391.401	4.75
391.766	4.4
392.131	4.49
392.496	4.6
392.861	4.36
393.226	4.48
393.591	4.53
393.956	4.52
394.32	4.5
394.685	4.56
395.05	4.44
395.414	4.53
395.779	4.47
396.143	4.58
396.508	4.68
396.872	4.63
397.236	4.24
397.601	4.5
397.965	4.39
398.329	4.64
398.694	4.38
399.058	4.69
399.422	4.59
399.786	4.49
400.15	4.54
400.514	4.61
400.878	4.72
401.242	4.6
401.605	4.5
401.969	4.63
402.333	4.54
402.697	4.91
403.06	4.67
403.424	4.62
403.787	4.74
404.151	4.54
404.514	4.67
404.878	4.72
405.241	4.66
405.604	4.64
405.968	4.55
406.331	4.65
406.694	4.71
407.057	5.03
407.42	4.73
407.783	4.6
408.146	4.5
408.509	4.49
408.872	4.64
409.235	4.77
409.598	4.84
409.961	4.88
410.323	4.64
410.686	4.46
411.049	4.57
411.411	4.74
411.774	4.75
412.136	4.67
412.499	4.79
412.861	4.53
413.223	4.79
413.586	4.72
413.948	4.75
414.31	5.05
414.672	4.73
415.035	4.73
415.397	4.89
415.759	4.69
416.121	5.02
416.483	4.79
416.845	4.82
417.206	4.73
417.568	4.78
417.93	4.84
418.292	4.84
418.653	4.79
419.015	4.99
419.377	4.9
419.738	4.81
420.1	4.77
420.461	4.78
420.822	4.72
421.184	4.74
421.545	4.69
421.906	4.82
422.267	4.63
422.629	4.72
422.99	4.84
423.351	4.79
423.712	4.82
424.073	4.92
424.434	4.81
424.795	4.82
425.155	4.82
425.516	4.85
425.877	4.89
426.238	4.81
426.598	4.9
426.959	4.87
427.32	4.95
427.68	5.01
428.041	4.85
428.401	4.88
428.761	4.78
429.122	4.8
429.482	4.88
429.842	5.2
430.202	4.99
430.563	5.11
430.923	4.86
431.283	5.15
431.643	4.9
432.003	4.92
432.363	5.06
432.722	4.9
433.082	4.97
433.442	5.08
433.802	4.98
434.161	4.87
434.521	4.96
434.881	5
435.24	5.03
435.6	5
435.959	5.13
436.319	4.93
436.678	5.06
437.037	5.08
437.396	5.3
437.756	4.97
438.115	5.17
438.474	5.17
438.833	5.12
439.192	5.14
439.551	5.04
439.91	5.14
440.269	5.2
440.628	5.18
440.987	5.07
441.345	5.06
441.704	5.16
442.063	5.07
442.421	5.07
442.78	5.06
443.138	5.15
443.497	5.09
443.855	5.08
444.214	5.22
444.572	5.07
444.93	5.2
445.288	5.14
445.647	5.07
446.005	5.05
446.363	5.23
446.721	5.06
447.079	5.23
447.437	5.01
447.795	5.15
448.153	5.12
448.51	5.07
448.868	5.17
449.226	5.21
449.584	5.25
449.941	5.27
450.299	5.22
450.656	5.2
451.014	5.33
451.371	5.24
451.729	5.23
452.086	5.26
452.443	5.25
452.801	5.51
453.158	5.13
453.515	5.21
453.872	5.28
454.229	5.2
454.586	5.35
454.943	5.37
455.3	5.47
455.657	5.24
456.014	5.34
456.371	5.37
456.727	5.39
457.084	5.33
457.441	5.31
457.797	5.34
458.154	5.49
458.51	5.21
458.867	5.31
459.223	5.56
459.58	5.43
459.936	5.3
460.292	5.43
460.648	5.2
461.005	5.31
461.361	5.27
461.717	5.33
462.073	5.43
462.429	5.38
462.785	5.45
463.141	5.38
463.496	5.42
463.852	5.73
464.208	5.65
464.564	5.37
464.919	5.48
465.275	5.55
465.631	5.44
465.986	5.29
466.342	5.51
466.697	5.48
467.052	5.54
467.408	5.49
467.763	5.38
468.118	5.56
468.473	5.71
468.829	5.48
469.184	5.54
469.539	5.41
469.894	5.43
470.249	5.59
470.603	5.55
470.958	5.7
471.313	5.4
471.668	5.67
472.023	5.67
472.377	5.63
472.732	5.52
473.086	5.46
473.441	5.63
473.795	5.7
474.15	5.64
474.504	5.75
474.859	5.65
475.213	5.62
475.567	5.65
475.921	5.78
476.275	5.73
476.63	5.51
476.984	5.6
477.338	5.79
477.692	5.56
478.045	5.67
478.399	5.58
478.753	5.56
479.107	5.65
479.461	5.75
479.814	5.75
480.168	5.63
480.521	5.63
480.875	5.85
481.228	5.85
481.582	5.55
481.935	5.66
482.289	5.56
482.642	5.7
482.995	5.61
483.348	5.61
483.701	5.69
484.055	5.58
484.408	5.56
484.761	5.41
485.114	5.42
485.466	5.4
485.819	5.42
486.172	5.56
486.525	5.58
486.878	5.55
487.23	5.64
487.583	5.65
487.936	5.68
488.288	5.65
488.641	5.62
488.993	5.54
489.345	5.59
489.698	5.63
490.05	5.63
490.402	5.72
490.754	5.79
491.107	5.79
491.459	5.87
491.811	5.87
492.163	5.84
492.515	5.81
492.866	5.62
493.218	5.65
493.57	5.76
493.922	5.75
494.274	5.84
494.625	5.82
494.977	5.83
495.328	6.03
495.68	6.07
496.031	6.04
496.383	6.01
496.734	6.17
497.086	5.95
497.437	6.1
497.788	5.94
498.139	5.96
498.49	6.11
498.842	6
499.193	6.01
499.544	6.11
499.894	6.15
500.245	6.11
500.596	6.16
500.947	6.09
501.298	6.09
501.648	6.27
501.999	6.29
502.35	6.21
502.7	6.3
503.051	6.33
503.401	6.22
503.752	6.14
504.102	6.35
504.452	6.15
504.803	6.19
505.153	6.26
505.503	6.27
505.853	6.22
506.203	6.23
506.553	6.29
506.903	6.38
507.253	6.28
507.603	6.22
507.953	6.43
508.303	6.34
508.652	6.32
509.002	6.35
509.352	6.38
509.701	6.28
510.051	6.41
510.4	6.38
510.75	6.38
511.099	6.32
511.449	6.51
511.798	6.54
512.147	6.42
512.496	6.47
512.846	6.42
513.195	6.57
513.544	6.34
513.893	6.41
514.242	6.46
514.591	6.5
514.939	6.56
515.288	6.47
515.637	6.6
515.986	6.45
516.334	6.6
516.683	6.55
517.032	6.57
517.38	6.62
517.729	6.53
518.077	6.64
518.426	6.65
518.774	6.61
519.122	6.48
519.47	6.62
519.819	6.59
520.167	6.57
520.515	6.61
520.863	6.62
521.211	6.59
521.559	6.61
521.907	6.59
522.255	6.77
522.602	6.78
522.95	6.78
523.298	6.82
523.645	6.84
523.993	6.95
524.341	6.86
524.688	6.85
525.036	6.92
525.383	6.89
525.73	6.88
526.078	6.98
526.425	6.84
526.772	6.76
527.119	6.79
527.466	6.77
527.814	6.78
528.161	6.83
528.508	6.88
528.854	6.82
529.201	6.84
529.548	6.79
529.895	6.68
530.242	6.66
530.588	6.78
530.935	6.77
531.282	6.84
531.628	6.96
531.975	6.96
532.321	6.99
532.667	7.05
533.014	7.1
533.36	7.03
533.706	7.11
534.052	7.06
534.399	6.92
534.745	6.98
535.091	7
535.437	7.07
535.783	7.21
536.129	7.11
536.474	7.27
536.82	7.26
537.166	7.24
537.512	7.3
537.857	7.3
538.203	7.23
538.549	7.32
538.894	7.29
539.239	7.4
539.585	7.44
539.93	7.42
540.276	7.42
540.621	7.47
540.966	7.58
541.311	7.57
541.656	7.32
542.001	7.59
542.346	7.35
542.691	7.3
543.036	7.34
543.381	7.38
543.726	7.45
544.071	7.49
544.415	7.51
544.76	7.41
545.105	7.61
545.449	7.56
545.794	7.66
546.138	7.68
546.483	7.83
546.827	7.74
547.171	7.79
547.516	7.96
547.86	7.73
548.204	7.79
548.548	7.94
548.892	7.87
549.236	7.88
549.58	7.9
549.924	8
550.268	8.11
550.612	8.03
550.956	7.96
551.3	8.03
551.643	8.27
551.987	8.11
552.33	8.17
552.674	8.3
553.017	8.29
553.361	8.22
553.704	8.01
554.048	8.24
554.391	8.14
554.734	8.26
555.077	8.13
555.42	8.24
555.764	8.36
556.107	8.37
556.45	8.29
556.793	8.58
557.135	8.6
557.478	8.45
557.821	8.43
558.164	8.51
558.507	8.51
558.849	8.57
559.192	8.7
559.534	8.51
559.877	8.78
560.219	8.78
560.562	8.74
560.904	8.51
561.246	8.68
561.589	8.68
561.931	8.92
562.273	8.63
562.615	8.78
562.957	8.82
563.299	8.94
563.641	8.86
563.983	8.79
564.325	8.68
564.667	8.92
565.008	8.78
565.35	9.06
565.692	9.12
566.033	9.17
566.375	8.84
566.716	9.11
567.058	9.12
567.399	8.97
567.741	9.17
568.082	8.9
568.423	8.99
568.764	9.04
569.105	9.21
569.447	9.25
569.788	9.24
570.129	9.41
570.47	9.49
570.811	9.45
571.151	9.34
571.492	9.48
571.833	9.36
572.174	9.3
572.514	9.41
572.855	9.42
573.195	9.37
573.536	9.49
573.876	9.5
574.217	9.52
574.557	9.55
574.898	9.54
575.238	9.51
575.578	9.7
575.918	9.67
576.258	9.66
576.598	9.78
576.938	9.88
577.278	9.72
577.618	9.81
577.958	9.89
578.298	9.84
578.638	9.87
578.977	9.95
579.317	9.98
579.657	9.95
579.996	9.98
580.336	9.77
580.675	10.18
581.014	10.02
581.354	10.16
581.693	10.12
582.032	9.85
582.372	10.07
582.711	10.1
583.05	10.41
583.389	10.1
583.728	10.45
584.067	10.37
584.406	10.2
584.745	10.36
585.083	10.69
585.422	10.48
585.761	10.49
586.1	10.41
586.438	10.51
586.777	10.71
587.115	10.45
587.454	10.55
587.792	10.54
588.13	10.64
588.469	10.69
588.807	10.79
589.145	10.68
589.483	10.61
589.821	10.87
590.159	10.78
590.497	10.58
590.835	10.93
591.173	10.98
591.511	10.85
591.849	11.01
592.187	10.95
592.524	10.87
592.862	10.9
593.2	11.02
593.537	10.94
593.875	11.09
594.212	11.01
594.55	11.15
594.887	11.32
595.224	11.05
595.561	11.26
595.899	11.22
596.236	11.24
596.573	11.16
596.91	11.58
597.247	11.09
597.584	11.39
597.921	11.2
598.258	11.36
598.594	11.27
598.931	11.36
599.268	11.27
599.604	11.58
599.941	11.33
600.277	11.55
600.614	11.68
600.95	11.78
601.287	11.59
601.623	11.59
601.959	11.45
602.296	11.77
602.632	11.79
602.968	11.82
603.304	11.75
603.64	11.73
603.976	11.89
604.312	12.09
604.648	12.03
604.984	11.88
605.319	12.01
605.655	12.07
605.991	11.88
606.326	12
606.662	12.02
606.998	12
607.333	12.15
607.668	12.12
608.004	11.96
608.339	12
608.674	12.2
609.01	12.37
609.345	12.33
609.68	12.17
610.015	12.3
610.35	12.24
610.685	12.3
611.02	12.38
611.355	12.41
611.689	12.39
612.024	12.66
612.359	12.49
612.694	12.57
613.028	12.72
613.363	12.51
613.697	12.69
614.032	12.78
614.366	12.77
614.7	13.11
615.035	12.66
615.369	13
615.703	13.1
616.037	12.76
616.371	12.56
616.705	12.97
617.039	13
617.373	13.26
617.707	12.84
618.041	13.09
618.375	13.04
618.709	13.31
619.042	13.01
619.376	12.83
619.71	13.11
620.043	13.03
620.377	13.14
620.71	13.17
621.043	12.85
621.377	13.3
621.71	13.41
622.043	13.52
622.376	13.18
622.709	13.64
623.043	13.46
623.376	13.58
623.709	13.7
624.041	13.47
624.374	13.43
624.707	13.4
625.04	13.53
625.373	13.45
625.705	13.51
626.038	13.85
626.37	14
626.703	13.64
627.035	13.8
627.368	13.91
627.7	13.77
628.032	13.65
628.365	13.36
628.697	13.58
629.029	14.19
629.361	13.67
629.693	13.89
630.025	14.21
630.357	13.84
630.689	14.17
631.021	14
631.353	13.98
631.684	14.14
632.016	13.93
632.348	14.3
632.679	14.24
633.011	14.4
633.342	14.15
633.674	14.61
634.005	14.45
634.336	14.45
634.668	14.26
634.999	14.14
635.33	14.25
635.661	14.43
635.992	14.17
636.323	14.24
636.654	14.58
636.985	14.44
637.316	14.46
637.647	14.66
637.977	14.41
638.308	14.08
638.639	14.43
638.969	14.4
639.3	14.79
639.63	14.42
639.961	15.16
640.291	15.08
640.622	15.08
640.952	15.1
641.282	14.64
641.612	14.64
641.943	15.03
642.273	15.05
642.603	14.83
642.933	15.02
643.263	15.35
643.592	14.95
643.922	15.16
644.252	14.87
644.582	14.93
644.911	14.96
645.241	15.12
645.571	15.08
645.9	15.82
646.23	15.4
646.559	14.98
646.888	15
647.218	15.07
647.547	15.73
647.876	15.55
648.205	15.16
648.534	14.93
648.863	15.31
649.192	15.06
649.521	15.74
649.85	15.49
650.179	15.33
650.508	15.25
650.837	15.48
651.165	15.94
651.494	15.72
651.822	16.09
652.151	16.05
652.479	15.86
652.808	15.19
653.136	16.09
653.465	16.12
653.793	16.06
654.121	16.24
654.449	16.21
654.777	15.98
655.105	16.24
655.433	15.99
655.761	15.7
656.089	15.97
656.417	16.07
656.745	16.6
657.073	16.45
657.4	16.46
657.728	16.46
658.056	16.14
658.383	16.51
658.711	15.94
659.038	17
659.365	16.72
659.693	16.45
660.02	16.35
660.347	16.49
660.674	16.12
661.001	16.18
661.329	16.35
661.656	16.32
661.982	16.44
662.309	16.38
662.636	16.51
662.963	16.64
663.29	16.47
663.616	16.44
663.943	17.03
664.27	16.6
664.596	16.53
664.923	16.75
665.249	16.57
665.576	16.92
665.902	16.22
666.228	16.65
666.554	16.58
666.881	17.91
667.207	17.21
667.533	16.77
667.859	16.85
668.185	17.35
668.511	17.1
668.837	16.46
669.162	16.92
669.488	16.74
669.814	17.5
670.139	17.9
670.465	17.14
670.791	17.76
671.116	16.93
671.442	17.02
671.767	17.02
672.092	17.91
672.418	17.53
672.743	17.14
673.068	17.67
673.393	17.71
673.718	17.67
674.043	16.98
674.368	17.79
674.693	17.38
675.018	17.76
675.343	18.31
675.667	17.06
675.992	17.33
676.317	17.4
676.641	17.69
676.966	17.96
677.29	17.59
677.615	17.74
677.939	17.89
678.264	18.08
678.588	18.34
678.912	18.15
679.236	18.43
679.56	17.52
679.885	18.31
680.209	17.67
680.532	17.64
680.856	18.19
681.18	18.05
681.504	18.1
681.828	17.93
682.152	18.08
682.475	18.38
682.799	17.82
683.122	18.11
683.446	17.84
683.769	17.83
684.093	18.18
684.416	18.65
684.739	18.43
685.062	18.62
685.386	18.75
