Data from 0061_forehead_Reflection__3__191.txt Node

Date: Fri Dec 16 15:28:57 CST 2022
User: ToomeyLab
Spectrometer: FLMS14357
Trigger mode: 0
Integration Time (sec): 1.000000E-2
Scans to average: 100
Electric dark correction enabled: true
Nonlinearity correction enabled: false
Boxcar width: 0
XAxis mode: Wavelengths
Number of Pixels in Spectrum: 2048
>>>>>Begin Spectral Data<<<<<
189.047	-57.82
189.435	-57.82
189.823	-57.82
190.211	64.56
190.599	-147.28
190.987	156.18
191.375	-59.23
191.763	33.73
192.151	-951.79
192.538	136.95
192.926	-227.9
193.314	73.7
193.702	17.82
194.089	273.86
194.477	37.31
194.864	-272.68
195.252	-0.95
195.639	48.67
196.027	-53.97
196.414	-78.02
196.801	-176.1
197.189	207.81
197.576	77.56
197.963	-639.81
198.351	5.55
198.738	-1.19
199.125	19.98
199.512	6.37
199.899	-4.35
200.286	-7.08
200.673	7.33
201.06	24.06
201.447	30.65
201.833	21.31
202.22	7.8
202.607	8.59
202.994	7.64
203.38	22.68
203.767	-0.7
204.154	-27.99
204.54	4.03
204.927	10.38
205.313	8.86
205.699	8.92
206.086	-22.18
206.472	-14.75
206.858	2.52
207.245	15.76
207.631	-0.48
208.017	3.65
208.403	19.49
208.789	-14.34
209.175	47.04
209.561	10.94
209.947	6
210.333	-7.63
210.719	33.36
211.105	-10.83
211.491	22.52
211.876	-18.38
212.262	25.15
212.648	-81.65
213.034	9.87
213.419	3.51
213.805	22.6
214.19	7.58
214.576	-7.7
214.961	-18.18
215.346	0.01
215.732	50.54
216.117	-9.37
216.502	-5.19
216.888	-20.27
217.273	-1.11
217.658	-30.08
218.043	-11.84
218.428	-10.97
218.813	-34.24
219.198	-31.45
219.583	6.95
219.968	3.49
220.353	9.49
220.738	-9.08
221.122	20.15
221.507	3.46
221.892	11.61
222.276	11.17
222.661	-9.67
223.046	-5.06
223.43	2
223.815	8.17
224.199	19.13
224.583	2.12
224.968	16.33
225.352	4.09
225.736	6.64
226.121	-6.63
226.505	6.11
226.889	6.11
227.273	7.97
227.657	-0.08
228.041	5.68
228.425	4.48
228.809	2.26
229.193	0.4
229.577	2.97
229.961	4
230.344	4.57
230.728	3.87
231.112	3.43
231.495	4.39
231.879	5.16
232.263	1.79
232.646	3.18
233.03	3.72
233.413	3.33
233.797	5.7
234.18	2.88
234.563	2.26
234.946	3.51
235.33	3.7
235.713	3.04
236.096	5.17
236.479	4.12
236.862	5.27
237.245	5.04
237.628	2.88
238.011	3.43
238.394	5.19
238.777	4
239.16	2.1
239.543	0.98
239.925	4.46
240.308	3.93
240.691	3.9
241.073	3.2
241.456	2.55
241.838	2.86
242.221	3.48
242.603	3.31
242.986	3.95
243.368	3.64
243.75	3.49
244.133	3.76
244.515	3.72
244.897	3.68
245.279	3.6
245.661	3.69
246.043	4.85
246.425	4.07
246.807	4.02
247.189	3.13
247.571	4.15
247.953	3.83
248.335	3.82
248.717	3.66
249.098	3.9
249.48	3.66
249.862	4.06
250.243	3.7
250.625	4.19
251.006	3.95
251.388	4.17
251.769	4.65
252.151	3.87
252.532	4
252.913	4.2
253.295	3.67
253.676	3.92
254.057	3.99
254.438	3.91
254.819	4.23
255.2	3.64
255.581	3.92
255.962	3.66
256.343	3.81
256.724	3.46
257.105	4.06
257.486	4.62
257.867	2.35
258.247	3.73
258.628	4.43
259.009	3.02
259.389	4.62
259.77	3.45
260.15	4.39
260.531	3.62
260.911	3.77
261.292	3.64
261.672	3.69
262.052	3.7
262.432	3.76
262.813	4.18
263.193	3.42
263.573	3.36
263.953	3.39
264.333	3.7
264.713	3.8
265.093	3.46
265.473	4.24
265.853	3.22
266.233	3.99
266.612	3.94
266.992	3.63
267.372	2.93
267.752	3.39
268.131	3.44
268.511	3.82
268.89	3.71
269.27	4.02
269.649	4.08
270.029	3.72
270.408	3.35
270.787	3.59
271.167	3.84
271.546	3.24
271.925	3.52
272.304	3.92
272.683	3.28
273.062	3.75
273.441	3.96
273.82	3.65
274.199	3.77
274.578	3.19
274.957	4.15
275.336	3.62
275.715	4.63
276.093	4.39
276.472	3.9
276.851	4.08
277.229	4.35
277.608	3.94
277.986	3.95
278.365	3.29
278.743	3.73
279.122	3.49
279.5	3.17
279.878	3.42
280.257	3.74
280.635	3.61
281.013	3.77
281.391	3.3
281.769	3.34
282.147	3.52
282.525	3.41
282.903	3.76
283.281	3.71
283.659	3.58
284.037	3.48
284.415	3.47
284.792	3.18
285.17	3.37
285.548	3.41
285.925	3.51
286.303	3.12
286.68	3.69
287.058	3.52
287.435	3.26
287.813	3.63
288.19	3.85
288.567	3.51
288.945	3.85
289.322	3.72
289.699	3.96
290.076	4.08
290.453	3.31
290.83	3.66
291.207	3.91
291.584	3.47
291.961	3.86
292.338	3.81
292.715	3.87
293.092	3.51
293.469	4.34
293.845	3.54
294.222	3.87
294.599	4.52
294.975	4.31
295.352	3.43
295.728	3.94
296.105	4.11
296.481	4.06
296.858	4.03
297.234	4.22
297.61	4.16
297.986	4.05
298.363	3.76
298.739	4.04
299.115	3.74
299.491	3.86
299.867	4.07
300.243	3.91
300.619	3.94
300.995	4.13
301.371	4.33
301.746	3.91
302.122	4.08
302.498	4.13
302.874	4.45
303.249	4.46
303.625	4.27
304	3.62
304.376	4
304.751	3.85
305.127	4.3
305.502	4.58
305.878	4.26
306.253	3.83
306.628	4.82
307.003	4.69
307.378	4.37
307.754	4.48
308.129	4.04
308.504	4.67
308.879	4.47
309.254	4.58
309.629	4.15
310.003	4.65
310.378	4.62
310.753	4.53
311.128	4.59
311.502	4
311.877	4.5
312.252	4.43
312.626	4.43
313.001	4.58
313.375	4.57
313.75	4.51
314.124	4.71
314.498	4.41
314.873	4.95
315.247	4.38
315.621	4.69
315.995	4.64
316.369	4.81
316.743	5.06
317.117	4.62
317.491	4.84
317.865	3.93
318.239	5.02
318.613	4.75
318.987	4.85
319.361	4.98
319.734	4.75
320.108	5.21
320.482	5.24
320.855	4.95
321.229	5.09
321.602	4.75
321.976	4.7
322.349	4.35
322.723	4.25
323.096	4.46
323.469	4.54
323.843	5.01
324.216	4.83
324.589	4.88
324.962	5.11
325.335	4.37
325.708	4.88
326.081	5.28
326.454	4.89
326.827	5.43
327.2	5.45
327.573	4.88
327.945	5.09
328.318	5.06
328.691	5.11
329.063	4.99
329.436	4.69
329.809	4.94
330.181	5.17
330.553	5.31
330.926	5.54
331.298	4.29
331.671	5.17
332.043	5.03
332.415	5.52
332.787	5.75
333.159	5.45
333.532	5.16
333.904	5.8
334.276	5.01
334.648	4.73
335.02	5.36
335.391	5.27
335.763	5.39
336.135	5.34
336.507	6.08
336.879	5.26
337.25	5.28
337.622	5.43
337.993	5.69
338.365	5.42
338.736	5.5
339.108	5.09
339.479	4.98
339.851	5.23
340.222	5.81
340.593	5.02
340.964	5.05
341.336	4.5
341.707	5.39
342.078	4.92
342.449	5.74
342.82	5.36
343.191	4.78
343.562	5.21
343.933	5.47
344.303	5.25
344.674	5.42
345.045	5.5
345.416	5.24
345.786	5.2
346.157	5.21
346.527	5.33
346.898	5.51
347.268	5.34
347.639	5.41
348.009	5.83
348.38	5.74
348.75	5.62
349.12	5.67
349.49	5.25
349.861	5.94
350.231	5.89
350.601	5.83
350.971	5.42
351.341	5.68
351.711	5.59
352.081	5.68
352.45	5.49
352.82	5.72
353.19	5.48
353.56	5.39
353.929	5.9
354.299	5.52
354.669	5.51
355.038	5.62
355.408	5.91
355.777	5.53
356.147	6.17
356.516	6.07
356.885	5.73
357.254	5.73
357.624	5.63
357.993	5.94
358.362	5.64
358.731	5.73
359.1	5.77
359.469	5.97
359.838	5.78
360.207	5.87
360.576	5.8
360.945	5.62
361.314	5.97
361.682	5.51
362.051	5.77
362.42	5.95
362.788	5.82
363.157	5.62
363.525	5.83
363.894	5.77
364.262	5.92
364.631	6.61
364.999	5.74
365.367	6.16
365.735	5.65
366.104	5.72
366.472	5.91
366.84	5.68
367.208	5.39
367.576	6.29
367.944	6.32
368.312	5.86
368.68	5.79
369.048	6.05
369.416	6.28
369.783	5.92
370.151	6.07
370.519	5.77
370.886	6.18
371.254	6.36
371.621	6.16
371.989	6.17
372.356	6.18
372.724	6.07
373.091	6.14
373.458	6.09
373.826	6.13
374.193	6.89
374.56	6.35
374.927	6.08
375.294	6.39
375.661	6.31
376.028	6.28
376.395	6.53
376.762	6.65
377.129	6.55
377.496	6.58
377.863	6.36
378.229	6.16
378.596	6.4
378.963	5.99
379.329	6.52
379.696	6.55
380.062	6.51
380.429	6.7
380.795	6.25
381.161	6.32
381.528	6.04
381.894	6.66
382.26	6.21
382.626	6.48
382.993	6.53
383.359	6.44
383.725	6.52
384.091	6.38
384.457	6.53
384.823	6.53
385.188	6.95
385.554	6.72
385.92	6.79
386.286	6.92
386.651	6.71
387.017	6.96
387.383	6.73
387.748	6.61
388.114	6.58
388.479	6.55
388.845	6.78
389.21	6.77
389.575	6.84
389.94	6.58
390.306	6.71
390.671	6.91
391.036	6.9
391.401	7.12
391.766	6.87
392.131	7.06
392.496	6.67
392.861	6.55
393.226	6.73
393.591	6.99
393.956	7.04
394.32	6.95
394.685	6.96
395.05	6.7
395.414	6.9
395.779	6.96
396.143	7
396.508	7.2
396.872	7.13
397.236	6.66
397.601	7.25
397.965	6.64
398.329	7.06
398.694	6.95
399.058	7.2
399.422	7.11
399.786	7.29
400.15	6.92
400.514	7.23
400.878	7.04
401.242	7.46
401.605	7.02
401.969	7.18
402.333	7.15
402.697	7.29
403.06	7.34
403.424	7.09
403.787	7.58
404.151	7.17
404.514	7.39
404.878	7.16
405.241	7.45
405.604	7.33
405.968	7.25
406.331	7.32
406.694	7.26
407.057	7.67
407.42	7.45
407.783	7.37
408.146	7.12
408.509	7.29
408.872	7.12
409.235	7.56
409.598	7.61
409.961	7.49
410.323	7.47
410.686	7.29
411.049	7.33
411.411	7.38
411.774	7.46
412.136	7.62
412.499	7.66
412.861	7.24
413.223	7.95
413.586	7.5
413.948	7.73
414.31	7.87
414.672	7.53
415.035	7.89
415.397	7.94
415.759	7.58
416.121	7.72
416.483	7.8
416.845	7.71
417.206	7.74
417.568	7.63
417.93	7.69
418.292	7.84
418.653	7.75
419.015	7.63
419.377	7.66
419.738	7.66
420.1	7.59
420.461	7.59
420.822	7.74
421.184	7.67
421.545	7.62
421.906	7.78
422.267	7.49
422.629	7.57
422.99	7.6
423.351	7.84
423.712	7.85
424.073	7.86
424.434	7.79
424.795	7.74
425.155	7.73
425.516	7.71
425.877	7.86
426.238	7.84
426.598	7.83
426.959	7.85
427.32	8.07
427.68	8.1
428.041	8.17
428.401	8.05
428.761	8.1
429.122	8.14
429.482	7.88
429.842	8.24
430.202	8.06
430.563	8.21
430.923	8.06
431.283	8.2
431.643	8.15
432.003	8.4
432.363	8.47
432.722	8.32
433.082	8.3
433.442	8.12
433.802	8.24
434.161	8.14
434.521	8.14
434.881	8.31
435.24	8.07
435.6	8.25
435.959	8.36
436.319	8.32
436.678	8.47
437.037	8.3
437.396	8.42
437.756	8.45
438.115	8.53
438.474	8.56
438.833	8.54
439.192	8.63
439.551	8.51
439.91	8.55
440.269	8.45
440.628	8.4
440.987	8.43
441.345	8.39
441.704	8.45
442.063	8.43
442.421	8.54
442.78	8.48
443.138	8.46
443.497	8.55
443.855	8.74
444.214	8.78
444.572	8.82
444.93	8.75
445.288	8.76
445.647	8.72
446.005	8.58
446.363	8.67
446.721	8.47
447.079	8.64
447.437	8.57
447.795	8.44
448.153	8.64
448.51	8.73
448.868	8.79
449.226	8.77
449.584	8.79
449.941	8.97
450.299	8.94
450.656	8.93
451.014	8.87
451.371	9.05
451.729	9.14
452.086	9.02
452.443	9.15
452.801	9.19
453.158	8.98
453.515	9.02
453.872	9.15
454.229	9
454.586	9.1
454.943	9.15
455.3	9.39
455.657	9.12
456.014	9.14
456.371	9.21
456.727	9.24
457.084	9.1
457.441	9.13
457.797	9.2
458.154	9.49
458.51	9.32
458.867	9.32
459.223	9.35
459.58	9.34
459.936	9.19
460.292	9.31
460.648	9.03
461.005	9.13
461.361	9.15
461.717	9.24
462.073	9.39
462.429	9.48
462.785	9.41
463.141	9.61
463.496	9.44
463.852	9.68
464.208	9.62
464.564	9.69
464.919	9.57
465.275	9.71
465.631	9.67
465.986	9.54
466.342	9.67
466.697	9.63
467.052	9.76
467.408	9.59
467.763	9.65
468.118	9.88
468.473	9.81
468.829	9.73
469.184	9.83
469.539	9.73
469.894	9.86
470.249	9.95
470.603	9.95
470.958	9.88
471.313	9.99
471.668	10.18
472.023	10.12
472.377	10.01
472.732	9.95
473.086	9.92
473.441	10.13
473.795	10.38
474.15	10.02
474.504	10.04
474.859	10.21
475.213	10.24
475.567	10.14
475.921	10.24
476.275	10.19
476.63	10.29
476.984	10.11
477.338	10.38
477.692	10.21
478.045	10.18
478.399	10.22
478.753	10.09
479.107	10.11
479.461	10.24
479.814	10.23
480.168	10.21
480.521	10.23
480.875	10.34
481.228	10.49
481.582	10.28
481.935	10.32
482.289	10.3
482.642	10.26
482.995	10.24
483.348	10.16
483.701	10.06
484.055	10.05
484.408	9.92
484.761	9.61
485.114	9.45
485.466	9.48
485.819	9.76
486.172	10.07
486.525	10.2
486.878	10.26
487.23	10.36
487.583	10.27
487.936	10.19
488.288	10.04
488.641	9.93
488.993	9.92
489.345	9.96
489.698	10.16
490.05	10.25
490.402	10.45
490.754	10.57
491.107	10.6
491.459	10.72
491.811	10.64
492.163	10.54
492.515	10.27
492.866	10.07
493.218	10.17
493.57	10.41
493.922	10.69
494.274	10.72
494.625	10.95
494.977	11.02
495.328	11.17
495.68	11.22
496.031	11.12
496.383	11.14
496.734	11.11
497.086	10.91
497.437	11.05
497.788	10.89
498.139	10.93
498.49	11.01
498.842	11.09
499.193	11.08
499.544	11.3
499.894	11.16
500.245	11.13
500.596	11.18
500.947	11.29
501.298	11.36
501.648	11.34
501.999	11.49
502.35	11.49
502.7	11.68
503.051	11.58
503.401	11.52
503.752	11.39
504.102	11.53
504.452	11.41
504.803	11.39
505.153	11.62
505.503	11.39
505.853	11.41
506.203	11.47
506.553	11.71
506.903	11.57
507.253	11.73
507.603	11.64
507.953	11.88
508.303	11.68
508.652	11.58
509.002	11.66
509.352	11.71
509.701	11.58
510.051	11.63
510.4	11.63
510.75	11.7
511.099	11.63
511.449	11.64
511.798	11.84
512.147	11.78
512.496	11.81
512.846	11.79
513.195	11.79
513.544	11.76
513.893	11.79
514.242	11.77
514.591	11.88
514.939	11.85
515.288	11.95
515.637	12.15
515.986	11.96
516.334	12.11
516.683	12.08
517.032	12.04
517.38	12.14
517.729	12.07
518.077	12.27
518.426	12.01
518.774	11.97
519.122	11.92
519.47	11.88
519.819	11.82
520.167	11.84
520.515	11.9
520.863	12.03
521.211	12.16
521.559	12.27
521.907	12.22
522.255	12.38
522.602	12.54
522.95	12.41
523.298	12.38
523.645	12.46
523.993	12.44
524.341	12.5
524.688	12.41
525.036	12.42
525.383	12.57
525.73	12.47
526.078	12.5
526.425	12.37
526.772	12
527.119	12.12
527.466	12.19
527.814	12.32
528.161	12.32
528.508	12.38
528.854	12.2
529.201	12.04
529.548	11.82
529.895	11.52
530.242	11.7
530.588	11.95
530.935	12.23
531.282	12.35
531.628	12.46
531.975	12.51
532.321	12.61
532.667	12.65
533.014	12.64
533.36	12.61
533.706	12.54
534.052	12.31
534.399	12.13
534.745	12.18
535.091	12.23
535.437	12.58
535.783	12.77
536.129	12.92
536.474	12.97
536.82	13.03
537.166	12.96
537.512	12.85
537.857	12.47
538.203	12.54
538.549	12.88
538.894	12.86
539.239	13.23
539.585	13.23
539.93	13.19
540.276	13.17
540.621	13.15
540.966	13.24
541.311	13.14
541.656	12.83
542.001	12.92
542.346	12.53
542.691	12.38
543.036	12.47
543.381	12.83
543.726	13.03
544.071	13.16
544.415	13.17
544.76	13.06
545.105	13.14
545.449	13.27
545.794	13.32
546.138	13.45
546.483	13.45
546.827	13.39
547.171	13.36
547.516	13.43
547.86	13.29
548.204	13.27
548.548	13.5
548.892	13.65
549.236	13.66
549.58	13.74
549.924	13.89
550.268	13.95
550.612	13.89
550.956	13.94
551.3	14.06
551.643	13.87
551.987	13.98
552.33	13.92
552.674	14.16
553.017	13.94
553.361	13.99
553.704	13.86
554.048	13.93
554.391	13.75
554.734	14.05
555.077	14.18
555.42	14.07
555.764	14.19
556.107	14.23
556.45	14.26
556.793	14.25
557.135	14.48
557.478	14.56
557.821	14.38
558.164	14.35
558.507	14.39
558.849	14.24
559.192	14.54
559.534	14.42
559.877	14.49
560.219	14.53
560.562	14.36
560.904	14.59
561.246	14.66
561.589	14.48
561.931	14.84
562.273	14.47
562.615	14.52
562.957	14.55
563.299	14.57
563.641	14.62
563.983	14.65
564.325	14.6
564.667	14.65
565.008	14.87
565.35	14.93
565.692	14.84
566.033	14.71
566.375	14.61
566.716	14.66
567.058	14.6
567.399	14.7
567.741	14.65
568.082	14.66
568.423	14.82
568.764	15.08
569.105	15
569.447	14.99
569.788	15.11
570.129	14.99
570.47	14.99
570.811	15.14
571.151	15.09
571.492	15.19
571.833	15.18
572.174	14.97
572.514	14.94
572.855	14.98
573.195	14.79
573.536	14.88
573.876	14.97
574.217	15.15
574.557	15.27
574.898	15.12
575.238	14.99
575.578	15.37
575.918	14.96
576.258	15.09
576.598	15.16
576.938	15.24
577.278	15.33
577.618	15.23
577.958	15.45
578.298	15.44
578.638	15.38
578.977	15.49
579.317	15.5
579.657	15.42
579.996	15.55
580.336	15.57
580.675	15.78
581.014	15.73
581.354	15.71
581.693	15.55
582.032	15.55
582.372	15.85
582.711	15.69
583.05	15.8
583.389	15.84
583.728	15.9
584.067	16
584.406	16.1
584.745	16.15
585.083	16.18
585.422	15.99
585.761	16.26
586.1	16.13
586.438	16.19
586.777	16.09
587.115	16.2
587.454	16.1
587.792	16.02
588.13	16.34
588.469	16.13
588.807	16.28
589.145	16.14
589.483	16.3
589.821	16.36
590.159	15.97
590.497	16.14
590.835	16.13
591.173	16.39
591.511	16.31
591.849	16.3
592.187	16.32
592.524	16.42
592.862	16.56
593.2	16.35
593.537	16.19
593.875	16.58
594.212	16.23
594.55	16.57
594.887	16.74
595.224	16.51
595.561	16.44
595.899	16.37
596.236	16.78
596.573	16.49
596.91	16.59
597.247	16.45
597.584	16.65
597.921	16.45
598.258	16.42
598.594	15.96
598.931	16.31
599.268	16.48
599.604	16.59
599.941	16.77
600.277	17
600.614	16.82
600.95	17.09
601.287	16.93
601.623	16.95
601.959	16.72
602.296	16.93
602.632	16.89
602.968	16.76
603.304	16.73
603.64	16.85
603.976	16.88
604.312	16.85
604.648	16.81
604.984	16.66
605.319	16.88
605.655	16.64
605.991	16.46
606.326	16.71
606.662	16.67
606.998	17.05
607.333	17.25
607.668	17.15
608.004	17.25
608.339	17.19
608.674	17.48
609.01	17.37
609.345	17.39
609.68	17
610.015	17.12
610.35	17.16
610.685	16.98
611.02	17.1
611.355	17.17
611.689	17.07
612.024	17.56
612.359	17.5
612.694	17.75
613.028	17.55
613.363	17.56
613.697	17.6
614.032	17.62
614.366	17.38
614.7	18.03
615.035	17.62
615.369	17.77
615.703	17.79
616.037	17.91
616.371	17.51
616.705	18.09
617.039	18.18
617.373	17.78
617.707	17.66
618.041	18.08
618.375	18.16
618.709	17.91
619.042	17.61
619.376	17.92
619.71	18.18
620.043	17.92
620.377	17.81
620.71	17.82
621.043	17.74
621.377	17.87
621.71	18.05
622.043	17.94
622.376	18.03
622.709	18.38
623.043	17.99
623.376	18.15
623.709	18.38
624.041	18.28
624.374	18.08
624.707	18.37
625.04	18.45
625.373	18.09
625.705	18.19
626.038	18.37
626.37	18.39
626.703	18.24
627.035	18.41
627.368	18.73
627.7	18.21
628.032	18.25
628.365	18.02
628.697	18.23
629.029	18.65
629.361	18.45
629.693	18.66
630.025	18.57
630.357	18.28
630.689	19.02
631.021	18.89
631.353	18.75
631.684	18.8
632.016	18.56
632.348	18.79
632.679	18.86
633.011	19.06
633.342	18.73
633.674	18.91
634.005	18.73
634.336	18.79
634.668	18.38
634.999	18.97
635.33	18.78
635.661	18.91
635.992	18.7
636.323	19.05
636.654	18.92
636.985	19.01
637.316	19.07
637.647	18.96
637.977	18.63
638.308	19.12
638.639	18.77
638.969	19.41
639.3	19.3
639.63	18.85
639.961	19.07
640.291	19.47
640.622	19.23
640.952	19.51
641.282	18.9
641.612	18.86
641.943	19.42
642.273	19.49
642.603	19.39
642.933	18.92
643.263	19.56
643.592	19.23
643.922	19.69
644.252	19.69
644.582	19.83
644.911	19.81
645.241	19.34
645.571	19.74
645.9	20.16
646.23	19.82
646.559	19.87
646.888	19.47
647.218	19.8
647.547	19.52
647.876	19.85
648.205	19.51
648.534	19.28
648.863	19.89
649.192	19.68
649.521	19.75
649.85	19.94
650.179	19.65
650.508	19.95
650.837	19.62
651.165	19.71
651.494	20.1
651.822	20.16
652.151	20.12
652.479	19.91
652.808	19.64
653.136	19.67
653.465	20.01
653.793	19.71
654.121	20.28
654.449	20.07
654.777	20.02
655.105	20.18
655.433	20.64
655.761	19.46
656.089	20.55
656.417	20.1
656.745	20.36
657.073	20.55
657.4	20.33
657.728	20.07
658.056	20.19
658.383	20.53
658.711	20.55
659.038	20.59
659.365	20.49
659.693	20.3
660.02	20.01
660.347	20.15
660.674	19.92
661.001	20.14
661.329	20.1
661.656	20.35
661.982	20.61
662.309	20.62
662.636	20.66
662.963	20.81
663.29	20.49
663.616	20.64
663.943	20.87
664.27	20.95
664.596	20.86
664.923	20.92
665.249	20.53
665.576	20.63
665.902	20.85
666.228	20.87
666.554	20.3
666.881	20.97
667.207	20.27
667.533	20.79
667.859	20.59
668.185	21.18
668.511	20.99
668.837	20.4
669.162	21.15
669.488	20.58
669.814	21.66
670.139	21.13
670.465	21.36
670.791	21.02
671.116	20.94
671.442	20.87
671.767	21.74
672.092	21.62
672.418	21.5
672.743	21.43
673.068	20.59
673.393	21.7
673.718	20.97
674.043	21.03
674.368	21.33
674.693	20.79
675.018	21.13
675.343	21.43
675.667	21.63
675.992	21.43
676.317	21.91
676.641	21.37
676.966	21.34
677.29	21.4
677.615	21.93
677.939	21.78
678.264	21.14
