Data from 0061_crown_Reflection__3__186.txt Node

Date: Fri Dec 16 15:27:30 CST 2022
User: ToomeyLab
Spectrometer: FLMS14357
Trigger mode: 0
Integration Time (sec): 1.000000E-2
Scans to average: 100
Electric dark correction enabled: true
Nonlinearity correction enabled: false
Boxcar width: 0
XAxis mode: Wavelengths
Number of Pixels in Spectrum: 2048
>>>>>Begin Spectral Data<<<<<
189.047	60.37
189.435	60.37
189.823	60.37
190.211	-79.57
190.599	877.72
190.987	-0.14
191.375	-260.36
191.763	80.81
192.151	247.02
192.538	193.03
192.926	-95.28
193.314	89.58
193.702	45.24
194.089	-2801.14
194.477	-4.23
194.864	50.54
195.252	27.61
195.639	69.14
196.027	-85.37
196.414	-87.32
196.801	-47.26
197.189	66.9
197.576	-37.56
197.963	-618.65
198.351	0.65
198.738	-33.2
199.125	24.84
199.512	-3.8
199.899	-35.59
200.286	-29.97
200.673	43.75
201.06	44.57
201.447	5.07
201.833	-5.7
202.22	-0.43
202.607	12.34
202.994	-5.53
203.38	12.37
203.767	-2.85
204.154	-5.43
204.54	27.54
204.927	18.08
205.313	31.73
205.699	18.2
206.086	-3
206.472	-5.82
206.858	6.06
207.245	-6.34
207.631	-49.56
208.017	30.42
208.403	-1.96
208.789	4.77
209.175	46.71
209.561	26.79
209.947	-17.85
210.333	-24.14
210.719	2.2
211.105	-46.63
211.491	5.19
211.876	-0.11
212.262	-7.16
212.648	-54.76
213.034	9.77
213.419	40.4
213.805	-10.34
214.19	-31.87
214.576	-53.16
214.961	-7.01
215.346	-41.08
215.732	4.84
216.117	-18.12
216.502	-29.66
216.888	-64.92
217.273	-2.15
217.658	-35.29
218.043	-18.85
218.428	-19.02
218.813	-18.38
219.198	-22.5
219.583	-1.42
219.968	-23.08
220.353	27.19
220.738	-25.83
221.122	3.46
221.507	-5.98
221.892	-17.17
222.276	-0.24
222.661	-3.85
223.046	-1.32
223.43	-4.86
223.815	-3.66
224.199	0.57
224.583	0.41
224.968	5.73
225.352	4.29
225.736	15.36
226.121	0.57
226.505	0.94
226.889	10.87
227.273	8.58
227.657	6.12
228.041	6.65
228.425	4.23
228.809	3.31
229.193	4.69
229.577	5.98
229.961	6.18
230.344	6.07
230.728	5.5
231.112	6
231.495	5.59
231.879	5.14
232.263	4.63
232.646	4.47
233.03	4.56
233.413	4.65
233.797	9.01
234.18	3.36
234.563	3.66
234.946	5.61
235.33	5.97
235.713	5.35
236.096	4.37
236.479	7.32
236.862	6.05
237.245	5.06
237.628	6.07
238.011	4.16
238.394	5.7
238.777	5.19
239.16	3.09
239.543	4.5
239.925	5.67
240.308	6.65
240.691	5.1
241.073	5.49
241.456	5.2
241.838	4.67
242.221	5.8
242.603	5.92
242.986	6.28
243.368	5.58
243.75	5.23
244.133	5.58
244.515	5.42
244.897	5.51
245.279	5.48
245.661	5.93
246.043	5.6
246.425	5.73
246.807	5.35
247.189	5.54
247.571	5.48
247.953	5.47
248.335	5.59
248.717	5.37
249.098	5.66
249.48	5.07
249.862	5.6
250.243	5.56
250.625	5.41
251.006	5.52
251.388	5.62
251.769	5.09
252.151	4.37
252.532	5.29
252.913	5.75
253.295	5.72
253.676	5.64
254.057	5.03
254.438	5.13
254.819	5.38
255.2	5.32
255.581	5.46
255.962	4.9
256.343	6.09
256.724	5.07
257.105	4.76
257.486	4.83
257.867	3.1
258.247	5.46
258.628	5.5
259.009	5.44
259.389	5.71
259.77	4.85
260.15	5.31
260.531	4.92
260.911	5.34
261.292	5.2
261.672	5.29
262.052	5.26
262.432	5.06
262.813	5.03
263.193	4.79
263.573	5.09
263.953	4.93
264.333	5.18
264.713	4.59
265.093	4.56
265.473	5.56
265.853	4.86
266.233	4.31
266.612	4.7
266.992	5.1
267.372	5.26
267.752	4.84
268.131	5.49
268.511	5.41
268.89	5.52
269.27	5.3
269.649	5.24
270.029	5.31
270.408	4.67
270.787	4.59
271.167	5.61
271.546	4.74
271.925	5.13
272.304	5.37
272.683	4.77
273.062	4.99
273.441	5.1
273.82	5.12
274.199	5.15
274.578	4.79
274.957	5.08
275.336	5.13
275.715	5.17
276.093	5.59
276.472	5.07
276.851	5.31
277.229	5.38
277.608	4.82
277.986	5.33
278.365	4.87
278.743	5.34
279.122	4.66
279.5	4.21
279.878	4.35
280.257	5.08
280.635	4.34
281.013	5.38
281.391	4.97
281.769	4.54
282.147	5.38
282.525	4.7
282.903	4.75
283.281	4.96
283.659	4.89
284.037	4.68
284.415	5.04
284.792	4.7
285.17	4.56
285.548	4.86
285.925	4.68
286.303	4.81
286.68	5.31
287.058	5.02
287.435	4.73
287.813	4.84
288.19	5.14
288.567	4.83
288.945	4.86
289.322	4.23
289.699	4.86
290.076	4.74
290.453	4.7
290.83	5.02
291.207	4.72
291.584	4.58
291.961	5.07
292.338	4.76
292.715	4.8
293.092	4.45
293.469	5.22
293.845	5.19
294.222	4.59
294.599	4.67
294.975	4.7
295.352	4.54
295.728	4.69
296.105	4.73
296.481	5.38
296.858	4.61
297.234	4.64
297.61	4.72
297.986	4.93
298.363	4.42
298.739	5.06
299.115	4.66
299.491	4.87
299.867	4.83
300.243	4.9
300.619	4.83
300.995	4.75
301.371	5.2
301.746	4.73
302.122	4.69
302.498	4.66
302.874	4.75
303.249	4.88
303.625	5.3
304	4.25
304.376	4.96
304.751	4.48
305.127	4.89
305.502	5.05
305.878	4.38
306.253	4.19
306.628	5.05
307.003	4.89
307.378	4.53
307.754	4.58
308.129	4.64
308.504	4.63
308.879	4.8
309.254	4.93
309.629	4.74
310.003	5.14
310.378	4.87
310.753	4.67
311.128	4.93
311.502	4.57
311.877	4.62
312.252	4.38
312.626	4.57
313.001	4.87
313.375	4.6
313.75	4.8
314.124	5.17
314.498	4.28
314.873	4.86
315.247	4.44
315.621	4.8
315.995	4.38
316.369	4.66
316.743	4.85
317.117	4.64
317.491	4.61
317.865	4.06
318.239	5.04
318.613	4.43
318.987	5.39
319.361	4.5
319.734	4.67
320.108	4.97
320.482	5.03
320.855	4.98
321.229	5.03
321.602	4.93
321.976	4.76
322.349	3.69
322.723	4.71
323.096	3.91
323.469	4.19
323.843	4.65
324.216	4.72
324.589	5.08
324.962	4.72
325.335	4.65
325.708	4.49
326.081	4.88
326.454	4.76
326.827	4.43
327.2	4.79
327.573	5.08
327.945	4.58
328.318	4.6
328.691	4.35
329.063	4.35
329.436	4.51
329.809	4.31
330.181	4.34
330.553	4.57
330.926	5.03
331.298	4.16
331.671	4.7
332.043	4.38
332.415	4.59
332.787	5.34
333.159	4.71
333.532	4.64
333.904	4.52
334.276	4.74
334.648	4.78
335.02	4.3
335.391	5.6
335.763	4.34
336.135	4.42
336.507	4.98
336.879	4.12
337.25	4.46
337.622	4.66
337.993	5.04
338.365	4.55
338.736	5.11
339.108	4.52
339.479	4.85
339.851	4.65
340.222	4.88
340.593	4.49
340.964	4.54
341.336	4.12
341.707	4.59
342.078	4.08
342.449	5.08
342.82	4.63
343.191	4.49
343.562	4.62
343.933	4.52
344.303	4.94
344.674	4.54
345.045	4.74
345.416	4.81
345.786	4.14
346.157	4.74
346.527	4.27
346.898	4.36
347.268	4.17
347.639	4.28
348.009	5.25
348.38	4.77
348.75	4.85
349.12	4.91
349.49	4.02
349.861	4.56
350.231	4.96
350.601	4.53
350.971	4.8
351.341	4.71
351.711	4.31
352.081	4.72
352.45	4.56
352.82	4.6
353.19	4.2
353.56	4.45
353.929	5.03
354.299	4.69
354.669	5.06
355.038	4.72
355.408	5.12
355.777	4.59
356.147	4.79
356.516	4.99
356.885	4.6
357.254	5.04
357.624	4.72
357.993	4.48
358.362	4.99
358.731	4.38
359.1	4.9
359.469	4.82
359.838	4.39
360.207	4.35
360.576	4.77
360.945	4.65
361.314	5.03
361.682	4.31
362.051	4.62
362.42	4.77
362.788	4.59
363.157	4.68
363.525	4.63
363.894	4.49
364.262	4.59
364.631	5.19
364.999	4.52
365.367	5.08
365.735	4.24
366.104	4.63
366.472	4.65
366.84	4.77
367.208	4.39
367.576	4.85
367.944	5.03
368.312	4.23
368.68	4.68
369.048	5.07
369.416	4.79
369.783	4.72
370.151	4.73
370.519	4.75
370.886	4.77
371.254	4.57
371.621	4.81
371.989	4.73
372.356	4.82
372.724	4.88
373.091	4.85
373.458	4.82
373.826	4.7
374.193	5.51
374.56	4.79
374.927	4.83
375.294	5.18
375.661	4.84
376.028	4.62
376.395	4.8
376.762	4.83
377.129	5.11
377.496	5.1
377.863	4.84
378.229	4.72
378.596	4.68
378.963	4.86
379.329	4.79
379.696	4.93
380.062	5.04
380.429	4.98
380.795	4.61
381.161	5.04
381.528	4.4
381.894	5.08
382.26	4.99
382.626	4.75
382.993	4.81
383.359	4.69
383.725	5.18
384.091	4.91
384.457	5.27
384.823	4.96
385.188	5.16
385.554	5.02
385.92	5.22
386.286	4.97
386.651	4.74
387.017	4.88
387.383	5.03
387.748	4.68
388.114	5
388.479	5.24
388.845	4.95
389.21	5.04
389.575	4.91
389.94	4.95
390.306	4.99
390.671	4.95
391.036	5.23
391.401	5.27
391.766	4.98
392.131	4.98
392.496	4.95
392.861	4.83
393.226	4.99
393.591	5.04
393.956	5.13
394.32	4.99
394.685	5.21
395.05	4.76
395.414	5
395.779	4.9
396.143	5.13
396.508	5.15
396.872	5.08
397.236	4.8
397.601	5.1
397.965	4.95
398.329	5.03
398.694	5.26
399.058	4.96
399.422	5.35
399.786	5.4
400.15	4.98
400.514	5.02
400.878	4.97
401.242	4.99
401.605	5.03
401.969	5.21
402.333	5.15
402.697	5.22
403.06	5.04
403.424	5.09
403.787	5.39
404.151	5.05
404.514	5.32
404.878	5.09
405.241	5.12
405.604	5.12
405.968	5.17
406.331	5.33
406.694	5.08
407.057	5.4
407.42	5.19
407.783	5.08
408.146	4.97
408.509	4.95
408.872	4.97
409.235	5.26
409.598	5.37
409.961	5.11
410.323	5.28
410.686	5.07
411.049	5.05
411.411	4.98
411.774	5.15
412.136	5.29
412.499	5.27
412.861	5.14
413.223	5.4
413.586	5.2
413.948	5.42
414.31	5.53
414.672	5.12
415.035	5.41
415.397	5.29
415.759	5.12
416.121	5.55
416.483	5.29
416.845	5.34
417.206	5.31
417.568	5.35
417.93	5.16
418.292	5.21
418.653	5.47
419.015	5.22
419.377	5.22
419.738	5.15
420.1	5.29
420.461	5.21
420.822	5.27
421.184	5.22
421.545	5.18
421.906	5.18
422.267	5.12
422.629	5.14
422.99	5.23
423.351	5.16
423.712	5.19
424.073	5.24
424.434	5.1
424.795	5.04
425.155	5.17
425.516	5.21
425.877	5.23
426.238	5.1
426.598	5.21
426.959	5.22
427.32	5.28
427.68	5.25
428.041	5.18
428.401	5.18
428.761	5.38
429.122	5.25
429.482	5.16
429.842	5.3
430.202	5.34
430.563	5.23
430.923	5.16
431.283	5.4
431.643	5.29
432.003	5.53
432.363	5.59
432.722	5.52
433.082	5.35
433.442	5.3
433.802	5.49
434.161	5.24
434.521	5.42
434.881	5.6
435.24	5.32
435.6	5.42
435.959	5.31
436.319	5.28
436.678	5.38
437.037	5.43
437.396	5.4
437.756	5.53
438.115	5.36
438.474	5.55
438.833	5.56
439.192	5.57
439.551	5.56
439.91	5.45
440.269	5.58
440.628	5.37
440.987	5.39
441.345	5.33
441.704	5.41
442.063	5.41
442.421	5.37
442.78	5.34
443.138	5.43
443.497	5.35
443.855	5.51
444.214	5.53
444.572	5.44
444.93	5.6
445.288	5.51
445.647	5.59
446.005	5.41
446.363	5.48
446.721	5.35
447.079	5.47
447.437	5.41
447.795	5.49
448.153	5.37
448.51	5.44
448.868	5.51
449.226	5.5
449.584	5.38
449.941	5.63
450.299	5.49
450.656	5.59
451.014	5.52
451.371	5.6
451.729	5.56
452.086	5.5
452.443	5.54
452.801	5.77
453.158	5.69
453.515	5.56
453.872	5.66
454.229	5.54
454.586	5.55
454.943	5.61
455.3	5.62
455.657	5.54
456.014	5.63
456.371	5.63
456.727	5.52
457.084	5.6
457.441	5.59
457.797	5.61
458.154	5.54
458.51	5.72
458.867	5.42
459.223	5.59
459.58	5.64
459.936	5.53
460.292	5.61
460.648	5.51
461.005	5.46
461.361	5.54
461.717	5.5
462.073	5.53
462.429	5.56
462.785	5.64
463.141	5.76
463.496	5.51
463.852	5.84
464.208	5.69
464.564	5.58
464.919	5.59
465.275	5.63
465.631	5.75
465.986	5.7
466.342	5.54
466.697	5.52
467.052	5.77
467.408	5.75
467.763	5.64
468.118	5.81
468.473	5.84
468.829	5.83
469.184	5.75
469.539	5.63
469.894	5.67
470.249	5.75
470.603	5.64
470.958	5.71
471.313	5.75
471.668	5.81
472.023	5.85
472.377	5.73
472.732	5.76
473.086	5.7
473.441	5.78
473.795	6
474.15	5.66
474.504	5.73
474.859	5.75
475.213	5.87
475.567	5.66
475.921	5.9
476.275	5.75
476.63	5.82
476.984	5.75
477.338	5.96
477.692	5.81
478.045	5.82
478.399	5.85
478.753	5.77
479.107	5.7
479.461	5.89
479.814	5.8
480.168	5.89
480.521	5.76
480.875	5.92
481.228	5.79
481.582	5.62
481.935	5.79
482.289	5.8
482.642	5.81
482.995	5.81
483.348	5.63
483.701	5.75
484.055	5.7
484.408	5.63
484.761	5.57
485.114	5.47
485.466	5.45
485.819	5.46
486.172	5.5
486.525	5.62
486.878	5.63
487.23	5.74
487.583	5.74
487.936	5.75
488.288	5.64
488.641	5.63
488.993	5.56
489.345	5.55
489.698	5.63
490.05	5.66
490.402	5.73
490.754	5.8
491.107	5.81
491.459	5.83
491.811	5.92
492.163	5.84
492.515	5.78
492.866	5.62
493.218	5.64
493.57	5.7
493.922	5.72
494.274	5.85
494.625	5.75
494.977	5.92
495.328	6.01
495.68	6.09
496.031	6
496.383	5.92
496.734	6.04
497.086	5.93
497.437	6.07
497.788	5.9
498.139	5.97
498.49	5.89
498.842	5.98
499.193	5.95
499.544	6.11
499.894	6.07
500.245	6.01
500.596	5.92
500.947	5.83
501.298	5.86
501.648	5.99
501.999	6.17
502.35	6.08
502.7	6.07
503.051	6.16
503.401	6.13
503.752	6.04
504.102	6.19
504.452	6.02
504.803	5.87
505.153	6.18
505.503	6.09
505.853	6.05
506.203	6.07
506.553	6.23
506.903	6.12
507.253	6.13
507.603	6.05
507.953	6.31
508.303	6.19
508.652	6.17
509.002	6.16
509.352	6.03
509.701	6.17
510.051	6.16
510.4	6.09
510.75	6.11
511.099	6.07
511.449	6.14
511.798	6.17
512.147	6.25
512.496	6.1
512.846	6.07
513.195	6.18
513.544	6.18
513.893	6.11
514.242	6.13
514.591	6.22
514.939	6.12
515.288	6.2
515.637	6.28
515.986	6.19
516.334	6.34
516.683	6.28
517.032	6.24
517.38	6.22
517.729	6.19
518.077	6.28
518.426	6.21
518.774	6.18
519.122	6.2
519.47	6.22
519.819	6.15
520.167	6.14
520.515	6.21
520.863	6.18
521.211	6.16
521.559	6.19
521.907	6.24
522.255	6.31
522.602	6.43
522.95	6.23
523.298	6.19
523.645	6.27
523.993	6.42
524.341	6.3
524.688	6.26
525.036	6.39
525.383	6.48
525.73	6.33
526.078	6.35
526.425	6.19
526.772	6.16
527.119	6.21
527.466	6.18
527.814	6.27
528.161	6.29
528.508	6.21
528.854	6.06
529.201	6.13
529.548	6.06
529.895	5.99
530.242	5.98
530.588	6.04
530.935	6.04
531.282	6.14
531.628	6.19
531.975	6.26
532.321	6.22
532.667	6.29
533.014	6.23
533.36	6.28
533.706	6.29
534.052	6.26
534.399	6.15
534.745	6.12
535.091	6.15
535.437	6.19
535.783	6.32
536.129	6.29
536.474	6.37
536.82	6.39
537.166	6.38
537.512	6.4
537.857	6.26
538.203	6.33
538.549	6.32
538.894	6.31
539.239	6.52
539.585	6.44
539.93	6.51
540.276	6.45
540.621	6.44
540.966	6.6
541.311	6.49
541.656	6.42
542.001	6.44
542.346	6.35
542.691	6.18
543.036	6.23
543.381	6.3
543.726	6.3
544.071	6.39
544.415	6.44
544.76	6.27
545.105	6.43
545.449	6.35
545.794	6.48
546.138	6.53
546.483	6.54
546.827	6.4
547.171	6.51
547.516	6.6
547.86	6.53
548.204	6.52
548.548	6.58
548.892	6.48
549.236	6.7
549.58	6.6
549.924	6.53
550.268	6.77
550.612	6.66
550.956	6.56
551.3	6.59
551.643	6.8
551.987	6.58
552.33	6.5
552.674	6.66
553.017	6.8
553.361	6.67
553.704	6.56
554.048	6.78
554.391	6.62
554.734	6.68
555.077	6.76
555.42	6.69
555.764	6.65
556.107	6.8
556.45	6.66
556.793	6.96
557.135	6.87
557.478	6.86
557.821	6.75
558.164	6.9
558.507	6.79
558.849	6.75
559.192	6.83
559.534	6.69
559.877	6.87
560.219	7.05
560.562	6.83
560.904	6.85
561.246	6.93
561.589	6.91
561.931	7.12
562.273	6.75
562.615	6.92
562.957	6.95
563.299	6.78
563.641	6.84
563.983	6.84
564.325	6.68
564.667	6.76
565.008	6.83
565.35	7.05
565.692	7.06
566.033	6.92
566.375	6.66
566.716	6.94
567.058	7.02
567.399	6.84
567.741	7.03
568.082	6.91
568.423	6.76
568.764	7.1
569.105	6.98
569.447	6.76
569.788	6.95
570.129	6.96
570.47	6.96
570.811	7.14
571.151	7.07
571.492	7.17
571.833	6.91
572.174	7.01
572.514	6.85
572.855	6.89
573.195	6.91
573.536	6.88
573.876	6.95
574.217	6.99
574.557	7.1
574.898	6.96
575.238	6.93
575.578	7.05
575.918	6.91
576.258	7.07
576.598	7.02
576.938	7.21
577.278	7.03
577.618	6.94
577.958	6.94
578.298	6.98
578.638	6.94
578.977	7.15
579.317	7.29
579.657	7.11
579.996	7.19
580.336	6.96
580.675	7.3
581.014	7.19
581.354	7.23
581.693	7.12
582.032	7.03
582.372	7.33
582.711	7.09
583.05	7.31
583.389	7.12
583.728	7.25
584.067	7.22
584.406	7.23
584.745	7.11
585.083	7.33
585.422	7.29
585.761	7.21
586.1	7.36
586.438	7.3
586.777	7.34
587.115	7.22
587.454	7.17
587.792	7.21
588.13	7.4
588.469	7.36
588.807	7.12
589.145	7.3
589.483	7.05
589.821	7.37
590.159	7.1
590.497	7
590.835	7.2
591.173	7.45
591.511	7.3
591.849	7.48
592.187	7.38
592.524	7.33
592.862	7.29
593.2	7.27
593.537	7.33
593.875	7.17
594.212	7.35
594.55	7.2
594.887	7.6
595.224	7.37
595.561	7.41
595.899	7.29
596.236	7.46
596.573	7.07
596.91	7.2
597.247	7.22
597.584	7.33
597.921	7.59
598.258	7.46
598.594	7.25
598.931	7.23
599.268	7.25
599.604	7.38
599.941	7.18
600.277	7.38
600.614	7.4
600.95	7.48
601.287	7.62
601.623	7.52
601.959	7.28
602.296	7.42
602.632	7.57
602.968	7.43
603.304	7.3
603.64	7.45
603.976	7.15
604.312	7.56
604.648	7.55
604.984	7.41
605.319	7.3
605.655	7.3
605.991	7.48
606.326	7.3
606.662	7.25
606.998	7.57
607.333	7.43
607.668	7.61
608.004	7.53
608.339	7.8
608.674	7.57
609.01	7.51
609.345	7.81
609.68	7.48
610.015	7.71
610.35	7.73
610.685	7.34
611.02	7.65
611.355	7.56
611.689	7.39
612.024	7.66
612.359	7.67
612.694	7.83
613.028	7.91
613.363	7.42
613.697	7.75
614.032	7.76
614.366	7.61
614.7	8.31
615.035	7.4
615.369	7.72
615.703	7.99
616.037	7.69
616.371	7.71
616.705	7.67
617.039	7.69
617.373	7.7
617.707	7.89
618.041	7.87
618.375	7.72
618.709	7.84
619.042	7.75
619.376	7.55
619.71	7.62
620.043	7.69
620.377	7.68
620.71	7.67
621.043	7.51
621.377	7.68
621.71	8.01
622.043	8.07
622.376	7.42
622.709	7.93
623.043	8.13
623.376	7.95
623.709	7.7
624.041	7.75
624.374	7.7
624.707	7.81
625.04	7.73
625.373	7.65
625.705	7.77
626.038	7.86
626.37	8.01
626.703	7.89
627.035	8.25
627.368	7.97
627.7	8.04
628.032	7.96
628.365	7.84
628.697	7.76
629.029	8.18
629.361	7.92
629.693	8.04
630.025	7.83
630.357	7.68
630.689	8.3
631.021	8.17
631.353	7.84
631.684	8.03
632.016	7.72
632.348	8.09
632.679	7.66
633.011	7.97
633.342	7.77
633.674	8.11
634.005	8.05
634.336	7.83
634.668	7.66
634.999	8.13
635.33	8.04
635.661	7.87
635.992	8
636.323	8.11
636.654	8.35
636.985	8.05
637.316	8.46
637.647	8.45
637.977	8.07
638.308	8.02
638.639	7.86
638.969	8.18
639.3	8.25
639.63	8.15
639.961	8.01
640.291	8.37
640.622	7.78
640.952	7.9
641.282	7.58
641.612	8.16
641.943	8.38
642.273	8.09
642.603	8.13
642.933	8.48
643.263	8.57
643.592	8.08
643.922	8.41
644.252	8.1
644.582	8.46
644.911	7.77
645.241	8.2
645.571	7.96
645.9	8.57
646.23	8.23
646.559	7.91
646.888	8.3
647.218	8.58
647.547	8.34
647.876	8.1
648.205	8.21
648.534	8.19
648.863	8.34
649.192	8.06
649.521	7.89
649.85	8.19
650.179	7.66
650.508	8.49
650.837	8.66
651.165	8.57
651.494	8.35
651.822	8.88
652.151	8.69
652.479	8.56
652.808	8.17
653.136	8.08
653.465	8.69
653.793	8.63
654.121	8.79
654.449	8.22
654.777	8.45
655.105	8.36
655.433	8.36
655.761	8.2
656.089	8.61
656.417	8.31
656.745	9.16
657.073	8.7
657.4	8.73
657.728	8.53
658.056	8.24
658.383	8.83
658.711	8.45
659.038	8.51
659.365	8.7
659.693	8.55
660.02	8.16
660.347	8.5
660.674	8.46
661.001	8.15
661.329	8.37
661.656	8.14
661.982	8.69
662.309	8.65
662.636	8.61
662.963	8.54
663.29	8.42
663.616	8.73
663.943	9.02
664.27	8.71
664.596	8.39
664.923	9.05
665.249	8.85
665.576	8.55
665.902	8.72
666.228	8.41
666.554	8.36
666.881	8.83
667.207	8.23
667.533	8.82
667.859	8.29
668.185	8.83
668.511	8.61
668.837	7.7
669.162	9.03
669.488	8.75
669.814	9.11
670.139	9.23
670.465	8.9
670.791	8.89
671.116	8.27
671.442	9.04
671.767	8.4
672.092	8.83
672.418	9.27
672.743	8.6
673.068	8.37
673.393	9.08
673.718	8.71
674.043	9.14
674.368	8.78
674.693	8.17
675.018	8.85
675.343	9.15
675.667	8.78
675.992	8.06
676.317	9.13
676.641	9.07
676.966	8.8
677.29	8.81
677.615	9.05
677.939	8.52
678.264	8.73
678.588	9.15
678.912	9.26
679.236	8.7
679.56	8.93
679.885	8.74
680.209	8.59
680.532	9.43
680.856	9.47
681.18	9.32
681.504	8.42
681.828	8.43
682.152	9.11
682.475	9.17
682.799	8.98
683.122	8.48
683.446	8.94
683.769	9.15
684.093	9.18
684.416	9.28
684.739	8.88
685.062	9.52
685.386	9.2
685.709	8.97
686.032	8.97
686.355	8.99
686.678	9.24
687.001	8.55
687.324	8.97
687.646	8.92
687.969	8.28
688.292	9.48
688.614	9.95
688.937	9.28
689.26	8.86
689.582	8.86
689.904	8.93
690.227	9.68
690.549	9.34
690.871	8.95
691.194	9.24
691.516	9.39
691.838	9.52
692.16	9.73
692.482	9.43
