Data from 0061_crown_Reflection__2__185.txt Node

Date: Fri Dec 16 15:27:19 CST 2022
User: ToomeyLab
Spectrometer: FLMS14357
Trigger mode: 0
Integration Time (sec): 1.000000E-2
Scans to average: 100
Electric dark correction enabled: true
Nonlinearity correction enabled: false
Boxcar width: 0
XAxis mode: Wavelengths
Number of Pixels in Spectrum: 2048
>>>>>Begin Spectral Data<<<<<
189.047	-17.71
189.435	-17.71
189.823	-17.71
190.211	-11.19
190.599	-1980.98
190.987	70.74
191.375	-162.63
191.763	18.77
192.151	344.64
192.538	26.61
192.926	77.9
193.314	141.1
193.702	12.45
194.089	-942.05
194.477	84.92
194.864	49.95
195.252	-11.58
195.639	81.31
196.027	111.08
196.414	85.06
196.801	-58.23
197.189	148.39
197.576	-142.13
197.963	-88.65
198.351	11.38
198.738	-31.95
199.125	5.86
199.512	4.76
199.899	-49.46
200.286	-59.37
200.673	27.1
201.06	-28.06
201.447	22.2
201.833	4.4
202.22	-8.62
202.607	-26.77
202.994	-24.41
203.38	-19.27
203.767	-4.71
204.154	-93.73
204.54	-4.95
204.927	18.19
205.313	31.76
205.699	-7.59
206.086	-36.47
206.472	-31.92
206.858	-0.61
207.245	-37.79
207.631	0.36
208.017	-19.75
208.403	7.26
208.789	4.21
209.175	20.07
209.561	3.59
209.947	-17.69
210.333	-62.32
210.719	-7.46
211.105	-12.52
211.491	-11.97
211.876	-29.21
212.262	-22.6
212.648	-41.26
213.034	14.9
213.419	27.27
213.805	-3.26
214.19	-9.84
214.576	-45.16
214.961	-7.49
215.346	-89.21
215.732	-9.21
216.117	-19.65
216.502	-52.68
216.888	-31.84
217.273	-2.05
217.658	-22.44
218.043	2.14
218.428	-17.58
218.813	-25.76
219.198	-43.41
219.583	-11.4
219.968	-40.33
220.353	21.06
220.738	-2.08
221.122	-31.51
221.507	-5.03
221.892	6.79
222.276	1.55
222.661	-23.8
223.046	1.54
223.43	-1.38
223.815	-2.88
224.199	0.51
224.583	-0.06
224.968	10.03
225.352	-1.19
225.736	1.98
226.121	-6.26
226.505	-1.09
226.889	-0.48
227.273	3.51
227.657	3.05
228.041	4.56
228.425	3.56
228.809	5.7
229.193	1.25
229.577	3.7
229.961	4.59
230.344	4.71
230.728	3.4
231.112	4.04
231.495	2.96
231.879	4.29
232.263	3.06
232.646	2.14
233.03	1.71
233.413	3.15
233.797	3.42
234.18	0.38
234.563	4.24
234.946	3.7
235.33	3.39
235.713	4.45
236.096	2.35
236.479	3.71
236.862	2.91
237.245	3.66
237.628	3.62
238.011	3.11
238.394	4.1
238.777	3.84
239.16	0.8
239.543	2.27
239.925	4.24
240.308	5.03
240.691	2.41
241.073	2.95
241.456	3.35
241.838	3.07
242.221	4.74
242.603	3.7
242.986	5.07
243.368	3.95
243.75	4.15
244.133	4.05
244.515	4.36
244.897	4.15
245.279	4.1
245.661	4.2
246.043	4.55
246.425	3.57
246.807	4.39
247.189	3.93
247.571	4.24
247.953	4.52
248.335	4.38
248.717	4.2
249.098	4.53
249.48	4.21
249.862	3.91
250.243	4.34
250.625	4.64
251.006	3.74
251.388	4.87
251.769	4.63
252.151	4.55
252.532	3.82
252.913	4.36
253.295	4.47
253.676	4.34
254.057	3.9
254.438	3.97
254.819	3.51
255.2	3.93
255.581	3.41
255.962	4.19
256.343	4.42
256.724	3.89
257.105	3.56
257.486	4.16
257.867	2.47
258.247	3.3
258.628	3.61
259.009	4.08
259.389	4.16
259.77	3.96
260.15	4.18
260.531	4.08
260.911	4.19
261.292	4.02
261.672	4.18
262.052	3.99
262.432	3.85
262.813	3.45
263.193	3.21
263.573	3.82
263.953	4.04
264.333	4
264.713	3.81
265.093	3.71
265.473	4.72
265.853	3.65
266.233	2.81
266.612	3.61
266.992	3.61
267.372	4.19
267.752	3.6
268.131	3.57
268.511	4.2
268.89	4.38
269.27	4.31
269.649	4.35
270.029	3.47
270.408	3.56
270.787	3.1
271.167	4.3
271.546	3.36
271.925	3.82
272.304	4.02
272.683	3.7
273.062	3.86
273.441	3.79
273.82	3.96
274.199	3.77
274.578	3.78
274.957	3.44
275.336	3.09
275.715	4.3
276.093	3.82
276.472	3.65
276.851	4.19
277.229	4.06
277.608	3.21
277.986	3.82
278.365	3.43
278.743	3.66
279.122	3.45
279.5	3.86
279.878	3.51
280.257	3.43
280.635	3.45
281.013	3.78
281.391	3.62
281.769	3.68
282.147	4.04
282.525	3.6
282.903	3.71
283.281	3.68
283.659	3.83
284.037	3.64
284.415	3.93
284.792	3.87
285.17	3.65
285.548	3.57
285.925	3.55
286.303	3.59
286.68	3.92
287.058	3.59
287.435	3.23
287.813	3.91
288.19	4
288.567	3.68
288.945	3.55
289.322	3.46
289.699	3.41
290.076	3.84
290.453	3.65
290.83	3.87
291.207	4.01
291.584	3.21
291.961	3.98
292.338	3.57
292.715	3.91
293.092	3.68
293.469	3.7
293.845	3.2
294.222	3.24
294.599	3.73
294.975	4.04
295.352	3.56
295.728	3.76
296.105	3.82
296.481	4.16
296.858	3.93
297.234	3.83
297.61	3.98
297.986	3.68
298.363	3.6
298.739	3.83
299.115	3.51
299.491	4.01
299.867	3.64
300.243	3.6
300.619	4.03
300.995	4.19
301.371	4.09
301.746	3.77
302.122	3.73
302.498	3.93
302.874	3.94
303.249	4.57
303.625	4.14
304	3.44
304.376	3.97
304.751	3.69
305.127	3.81
305.502	3.97
305.878	3.99
306.253	3.79
306.628	4.15
307.003	4.02
307.378	4.2
307.754	4
308.129	3.39
308.504	3.85
308.879	3.75
309.254	4.37
309.629	4.14
310.003	4.29
310.378	3.88
310.753	4.15
311.128	3.9
311.502	3.62
311.877	3.89
312.252	4.23
312.626	3.57
313.001	3.61
313.375	3.77
313.75	3.63
314.124	4.18
314.498	3.54
314.873	4.05
315.247	3.9
315.621	4.41
315.995	4.23
316.369	3.7
316.743	4.11
317.117	3.79
317.491	3.63
317.865	3.28
318.239	4.17
318.613	3.56
318.987	3.87
319.361	3.96
319.734	4.39
320.108	3.86
320.482	4.07
320.855	4.35
321.229	4.31
321.602	3.77
321.976	3.93
322.349	4.28
322.723	3.5
323.096	3.91
323.469	3.57
323.843	4.09
324.216	2.91
324.589	4.15
324.962	3.97
325.335	4.05
325.708	4.29
326.081	4.04
326.454	3.49
326.827	4.21
327.2	4.22
327.573	4.16
327.945	4.2
328.318	3.85
328.691	4.21
329.063	3.57
329.436	3.84
329.809	3.47
330.181	4.08
330.553	3.84
330.926	4.17
331.298	3.56
331.671	3.64
332.043	4.45
332.415	4.55
332.787	4.44
333.159	4.22
333.532	4.11
333.904	4.23
334.276	4.09
334.648	3.9
335.02	3.91
335.391	4.23
335.763	3.95
336.135	4.09
336.507	4.09
336.879	4.3
337.25	3.95
337.622	4.17
337.993	3.97
338.365	4.18
338.736	4.13
339.108	3.72
339.479	3.6
339.851	4.33
340.222	4.24
340.593	3.75
340.964	3.76
341.336	3.36
341.707	4.12
342.078	3.79
342.449	4.13
342.82	4
343.191	3.66
343.562	3.95
343.933	4
344.303	4
344.674	4.27
345.045	4.16
345.416	4.08
345.786	3.62
346.157	3.91
346.527	3.49
346.898	3.92
347.268	3.9
347.639	4.08
348.009	4.03
348.38	4.08
348.75	4.14
349.12	3.78
349.49	4.01
349.861	4.37
350.231	3.94
350.601	3.61
350.971	3.86
351.341	3.7
351.711	4.12
352.081	4.16
352.45	4.22
352.82	4.13
353.19	3.59
353.56	4.02
353.929	4.19
354.299	3.96
354.669	4.06
355.038	4.31
355.408	4.13
355.777	3.95
356.147	4.24
356.516	4.51
356.885	4.23
357.254	4
357.624	4.28
357.993	4.11
358.362	3.99
358.731	4.06
359.1	4.21
359.469	4.06
359.838	4.08
360.207	4.06
360.576	4.13
360.945	3.93
361.314	4.13
361.682	4.06
362.051	4.03
362.42	4.22
362.788	4.09
363.157	3.97
363.525	4.13
363.894	3.86
364.262	4.14
364.631	4.73
364.999	4.09
365.367	4.47
365.735	3.83
366.104	3.89
366.472	4.34
366.84	3.98
367.208	3.78
367.576	4.03
367.944	4.34
368.312	3.79
368.68	4.22
369.048	4.26
369.416	4.03
369.783	4.15
370.151	4.31
370.519	3.94
370.886	3.89
371.254	4.2
371.621	4.33
371.989	4.31
372.356	4.18
372.724	4.04
373.091	4.05
373.458	3.93
373.826	4.12
374.193	4.63
374.56	3.84
374.927	3.99
375.294	4.48
375.661	4.14
376.028	4.44
376.395	3.97
376.762	4.33
377.129	4.41
377.496	4.24
377.863	4.3
378.229	4.29
378.596	4.07
378.963	4.2
379.329	4.31
379.696	3.96
380.062	4.55
380.429	4.35
380.795	3.94
381.161	4.28
381.528	3.83
381.894	4.34
382.26	4.16
382.626	3.95
382.993	3.96
383.359	4.25
383.725	4.35
384.091	4.4
384.457	4.41
384.823	4.13
385.188	4.24
385.554	4.09
385.92	4.36
386.286	4.48
386.651	4.34
387.017	4.53
387.383	4.24
387.748	4.28
388.114	4.51
388.479	4.43
388.845	4.24
389.21	4.38
389.575	4.51
389.94	4.35
390.306	4.23
390.671	4.32
391.036	4.43
391.401	4.48
391.766	4.39
392.131	4.17
392.496	4.26
392.861	4.23
393.226	4.15
393.591	4.48
393.956	4.42
394.32	4.25
394.685	4.51
395.05	4.29
395.414	4.42
395.779	4.41
396.143	4.33
396.508	4.52
396.872	4.49
397.236	4.27
397.601	4.61
397.965	4.1
398.329	4.67
398.694	4.23
399.058	4.6
399.422	4.51
399.786	4.38
400.15	4.43
400.514	4.42
400.878	4.43
401.242	4.65
401.605	4.4
401.969	4.79
402.333	4.39
402.697	4.59
403.06	4.61
403.424	4.41
403.787	4.64
404.151	4.28
404.514	4.47
404.878	4.58
405.241	4.5
405.604	4.49
405.968	4.62
406.331	4.52
406.694	4.46
407.057	4.8
407.42	4.45
407.783	4.35
408.146	4.42
408.509	4.36
408.872	4.31
409.235	4.43
409.598	4.55
409.961	4.47
410.323	4.57
410.686	4.43
411.049	4.28
411.411	4.48
411.774	4.36
412.136	4.57
412.499	4.34
412.861	4.24
413.223	4.77
413.586	4.5
413.948	4.59
414.31	4.69
414.672	4.38
415.035	4.6
415.397	4.69
415.759	4.73
416.121	4.75
416.483	4.7
416.845	4.84
417.206	4.79
417.568	4.58
417.93	4.52
418.292	4.68
418.653	4.68
419.015	4.65
419.377	4.76
419.738	4.55
420.1	4.53
420.461	4.55
420.822	4.63
421.184	4.66
421.545	4.49
421.906	4.67
422.267	4.57
422.629	4.65
422.99	4.55
423.351	4.67
423.712	4.67
424.073	4.67
424.434	4.58
424.795	4.6
425.155	4.61
425.516	4.63
425.877	4.62
426.238	4.54
426.598	4.69
426.959	4.53
427.32	4.68
427.68	4.7
428.041	4.85
428.401	4.86
428.761	4.65
429.122	4.62
429.482	4.52
429.842	4.67
430.202	4.69
430.563	4.66
430.923	4.73
431.283	4.74
431.643	4.81
432.003	4.81
432.363	4.97
432.722	4.62
433.082	4.71
433.442	4.81
433.802	4.81
434.161	4.73
434.521	4.77
434.881	4.84
435.24	4.78
435.6	4.77
435.959	4.81
436.319	4.65
436.678	4.85
437.037	4.88
437.396	4.95
437.756	4.78
438.115	4.82
438.474	4.9
438.833	4.94
439.192	5.04
439.551	4.98
439.91	5.02
440.269	4.84
440.628	4.81
440.987	4.82
441.345	4.78
441.704	4.85
442.063	4.86
442.421	4.84
442.78	4.8
443.138	4.79
443.497	4.78
443.855	4.88
444.214	4.98
444.572	4.77
444.93	4.94
445.288	4.89
445.647	4.95
446.005	4.78
446.363	4.86
446.721	4.79
447.079	4.99
447.437	4.87
447.795	4.82
448.153	4.83
448.51	4.9
448.868	4.95
449.226	4.79
449.584	4.91
449.941	4.93
450.299	5.04
450.656	5
451.014	4.86
451.371	5.07
451.729	5.03
452.086	4.87
452.443	4.9
452.801	5.09
453.158	4.98
453.515	5.09
453.872	5.12
454.229	4.96
454.586	5.06
454.943	4.98
455.3	5.08
455.657	5.13
456.014	5.06
456.371	5.19
456.727	4.95
457.084	4.95
457.441	4.93
457.797	5.17
458.154	5.01
458.51	5.1
458.867	4.99
459.223	5.15
459.58	5.11
459.936	5.1
460.292	5.18
460.648	4.88
461.005	5.01
461.361	4.97
461.717	5.01
462.073	4.99
462.429	5.16
462.785	5
463.141	5.26
463.496	5.12
463.852	5.23
464.208	5.15
464.564	5.06
464.919	5.1
465.275	5.23
465.631	5.34
465.986	5.21
466.342	5.13
466.697	5.14
467.052	5.22
467.408	5.19
467.763	5.13
468.118	5.3
468.473	5.35
468.829	5.18
469.184	5.39
469.539	5.07
469.894	5.18
470.249	5.25
470.603	5.14
470.958	5.44
471.313	5.21
471.668	5.5
472.023	5.36
472.377	5.34
472.732	5.25
473.086	5.12
473.441	5.25
473.795	5.45
474.15	5.2
474.504	5.14
474.859	5.24
475.213	5.35
475.567	5.22
475.921	5.45
476.275	5.3
476.63	5.34
476.984	5.41
477.338	5.5
477.692	5.38
478.045	5.34
478.399	5.4
478.753	5.21
479.107	5.36
479.461	5.4
479.814	5.3
480.168	5.37
480.521	5.26
480.875	5.37
481.228	5.33
481.582	5.2
481.935	5.32
482.289	5.14
482.642	5.27
482.995	5.41
483.348	5.3
483.701	5.29
484.055	5.28
484.408	5.27
484.761	5.08
485.114	5.04
485.466	5.06
485.819	5.05
486.172	5.15
486.525	5.25
486.878	5.23
487.23	5.27
487.583	5.29
487.936	5.29
488.288	5.27
488.641	5.22
488.993	5.2
489.345	5.21
489.698	5.25
490.05	5.26
490.402	5.33
490.754	5.4
491.107	5.42
491.459	5.56
491.811	5.51
492.163	5.42
492.515	5.37
492.866	5.24
493.218	5.3
493.57	5.37
493.922	5.34
494.274	5.49
494.625	5.45
494.977	5.46
495.328	5.64
495.68	5.7
496.031	5.57
496.383	5.48
496.734	5.66
497.086	5.5
497.437	5.61
497.788	5.57
498.139	5.51
498.49	5.59
498.842	5.62
499.193	5.61
499.544	5.65
499.894	5.71
500.245	5.61
500.596	5.68
500.947	5.59
501.298	5.66
501.648	5.77
501.999	5.72
502.35	5.77
502.7	5.74
503.051	5.84
503.401	5.73
503.752	5.66
504.102	5.65
504.452	5.68
504.803	5.5
505.153	5.81
505.503	5.7
505.853	5.61
506.203	5.71
506.553	5.9
506.903	5.78
507.253	5.82
507.603	5.63
507.953	5.81
508.303	5.81
508.652	5.66
509.002	5.82
509.352	5.88
509.701	5.68
510.051	5.86
510.4	5.82
510.75	5.77
511.099	5.64
511.449	5.81
511.798	5.87
512.147	5.86
512.496	5.88
512.846	5.75
513.195	5.83
513.544	5.79
513.893	5.61
514.242	5.94
514.591	5.82
514.939	5.81
515.288	5.85
515.637	5.91
515.986	5.8
516.334	5.91
516.683	5.87
517.032	5.86
517.38	5.98
517.729	5.95
518.077	5.93
518.426	5.94
518.774	5.85
519.122	5.79
519.47	5.86
519.819	5.83
520.167	5.8
520.515	5.82
520.863	5.8
521.211	5.86
521.559	5.83
521.907	5.84
522.255	5.99
522.602	6.01
522.95	5.99
523.298	5.96
523.645	5.99
523.993	6.02
524.341	5.97
524.688	6.1
525.036	6.08
525.383	6.12
525.73	5.99
526.078	6.03
526.425	6.01
526.772	5.81
527.119	5.83
527.466	5.91
527.814	5.85
528.161	5.91
528.508	5.92
528.854	5.81
529.201	5.81
529.548	5.79
529.895	5.71
530.242	5.7
530.588	5.8
530.935	5.81
531.282	5.86
531.628	5.84
531.975	5.96
532.321	6
532.667	6
533.014	6.02
533.36	6.08
533.706	5.92
534.052	5.94
534.399	5.89
534.745	5.88
535.091	5.9
535.437	5.94
535.783	6.03
536.129	6
536.474	6.08
536.82	6.15
537.166	6.12
537.512	6.26
537.857	6.04
538.203	6.11
538.549	6.17
538.894	6.09
539.239	6.24
539.585	6.3
539.93	6.19
540.276	6.14
540.621	6.26
540.966	6.14
541.311	6.26
541.656	6.18
542.001	6.11
542.346	6.05
542.691	6
543.036	5.96
543.381	6.04
543.726	6.09
544.071	6.18
544.415	6.14
544.76	6.07
545.105	6.13
545.449	6.15
545.794	6.22
546.138	6.33
546.483	6.31
546.827	6.32
547.171	6.37
547.516	6.38
547.86	6.27
548.204	6.24
548.548	6.36
548.892	6.35
549.236	6.3
549.58	6.42
549.924	6.41
550.268	6.54
550.612	6.56
550.956	6.44
551.3	6.41
551.643	6.3
551.987	6.58
552.33	6.4
552.674	6.45
553.017	6.44
553.361	6.37
553.704	6.33
554.048	6.6
554.391	6.47
554.734	6.56
555.077	6.48
555.42	6.42
555.764	6.58
556.107	6.64
556.45	6.6
556.793	6.75
557.135	6.78
557.478	6.73
557.821	6.58
558.164	6.61
558.507	6.46
558.849	6.57
559.192	6.57
559.534	6.5
559.877	6.71
560.219	6.72
560.562	6.8
560.904	6.69
561.246	6.8
561.589	6.74
561.931	6.63
562.273	6.61
562.615	6.67
562.957	6.65
563.299	6.81
563.641	6.79
563.983	6.65
564.325	6.67
564.667	6.67
565.008	6.64
565.35	6.87
565.692	6.75
566.033	6.8
566.375	6.57
566.716	6.78
567.058	6.82
567.399	6.77
567.741	6.79
568.082	6.63
568.423	6.68
568.764	6.73
569.105	6.91
569.447	6.77
569.788	6.8
570.129	6.83
570.47	6.85
570.811	6.86
571.151	6.93
571.492	6.94
571.833	6.89
572.174	6.84
572.514	6.65
572.855	6.89
573.195	6.75
573.536	6.78
573.876	6.89
574.217	6.82
574.557	6.87
574.898	6.75
575.238	6.73
575.578	7.07
575.918	6.74
576.258	6.91
576.598	6.79
576.938	7
577.278	6.89
577.618	6.73
577.958	6.95
578.298	7.03
578.638	6.96
578.977	7.11
579.317	6.94
579.657	6.93
579.996	6.83
580.336	6.89
580.675	7.01
581.014	7.04
581.354	6.96
581.693	6.89
582.032	7.03
582.372	7.14
582.711	6.93
583.05	7.16
583.389	7.12
583.728	7.06
584.067	7.08
584.406	7.14
584.745	6.87
585.083	7.21
585.422	7.16
585.761	7.19
586.1	7.27
586.438	7.24
586.777	7.34
587.115	7.06
587.454	7.32
587.792	7.17
588.13	7.64
588.469	7.38
588.807	7.11
589.145	7.2
589.483	7.21
589.821	7.29
590.159	7
590.497	6.98
590.835	7.04
591.173	7.23
591.511	7.46
591.849	7.18
592.187	7.06
592.524	7.07
592.862	7.3
593.2	7.19
593.537	7.22
593.875	7.14
594.212	7.12
594.55	7.19
594.887	7.33
595.224	7.13
595.561	7.23
595.899	7.47
596.236	7.45
596.573	7.06
596.91	7.3
597.247	7.05
597.584	7.44
597.921	7.39
598.258	7.37
598.594	7.06
598.931	7.25
599.268	7.35
599.604	7.54
599.941	7.38
600.277	7.59
600.614	7.34
600.95	7.57
601.287	7.34
601.623	7.69
601.959	7.09
602.296	7.49
602.632	7.65
602.968	7.38
603.304	7.3
603.64	7.41
603.976	7.22
604.312	7.66
604.648	7.5
604.984	7.39
605.319	7.3
605.655	7.42
605.991	7.4
606.326	7.49
606.662	7.23
606.998	7.52
607.333	7.44
607.668	7.63
608.004	7.61
608.339	7.52
608.674	7.52
609.01	7.45
609.345	7.74
609.68	7.44
610.015	7.61
610.35	7.56
610.685	7.52
611.02	7.69
611.355	7.62
611.689	7.36
612.024	7.55
612.359	7.63
612.694	7.51
613.028	7.85
613.363	7.45
613.697	7.71
614.032	7.67
614.366	7.62
614.7	7.57
615.035	7.58
615.369	7.84
615.703	8.02
616.037	7.62
616.371	7.52
616.705	7.62
617.039	8.19
617.373	7.71
617.707	7.46
618.041	7.91
618.375	7.56
618.709	7.66
619.042	7.62
619.376	7.88
619.71	7.54
620.043	7.55
620.377	7.68
620.71	7.79
621.043	7.65
621.377	7.53
621.71	7.89
622.043	8.14
622.376	7.85
622.709	8.1
623.043	7.75
623.376	8.13
623.709	8.15
624.041	7.85
624.374	7.89
624.707	7.98
625.04	8.08
625.373	7.75
625.705	8.12
626.038	7.92
626.37	7.77
626.703	7.64
627.035	7.84
627.368	8.02
627.7	8.14
628.032	8.03
628.365	7.83
628.697	7.69
629.029	8.04
629.361	7.83
629.693	8.03
630.025	7.9
630.357	7.82
630.689	8.31
631.021	7.94
631.353	8.24
631.684	8.15
632.016	7.89
632.348	8.17
632.679	8.16
633.011	8.01
633.342	7.93
633.674	7.85
634.005	8.08
634.336	8.14
634.668	7.99
634.999	7.98
635.33	7.69
635.661	8.22
635.992	8.12
636.323	8.36
636.654	8.03
636.985	8.11
637.316	7.7
637.647	8.26
637.977	8.34
638.308	7.99
638.639	7.79
638.969	7.99
639.3	8.13
639.63	7.62
639.961	8.39
640.291	8.81
640.622	8.38
640.952	8.2
641.282	7.94
641.612	7.96
641.943	8.42
642.273	8.64
642.603	8.61
642.933	8.32
643.263	8.67
643.592	8.18
643.922	8.68
644.252	8.11
644.582	8.37
644.911	8.2
645.241	8.5
645.571	8.53
645.9	8.29
646.23	8.11
646.559	8.56
646.888	8.28
647.218	8.32
647.547	8.41
647.876	8.8
648.205	8.16
648.534	8.12
648.863	8.64
649.192	8.55
649.521	7.92
649.85	8.88
650.179	7.92
650.508	8.36
650.837	8.47
651.165	8.44
651.494	8.41
651.822	8.67
652.151	8.81
652.479	8.93
652.808	7.97
653.136	8.5
653.465	8.5
653.793	8.84
654.121	8.73
654.449	8.22
654.777	8.73
655.105	8.81
655.433	8.58
655.761	8.33
656.089	8.59
656.417	8.52
656.745	9.2
657.073	9.34
657.4	8.71
657.728	8.5
658.056	8.91
658.383	8.85
658.711	8.72
659.038	9.21
659.365	8.56
659.693	8.59
660.02	8.53
660.347	8.79
660.674	8.6
661.001	8.51
661.329	8.82
661.656	8.76
661.982	8.74
662.309	8.99
662.636	8.86
662.963	9.18
663.29	8.54
663.616	9.11
663.943	8.76
664.27	8.95
664.596	8.87
664.923	9.22
665.249	8.56
665.576	8.73
665.902	8.51
666.228	8.55
666.554	8.08
666.881	9.05
667.207	8.57
667.533	8.97
667.859	8.84
668.185	8.95
668.511	8.97
668.837	8.94
669.162	8.73
669.488	8.58
669.814	8.66
670.139	9.41
670.465	9.38
670.791	9.58
671.116	9.01
671.442	8.99
671.767	8.35
672.092	9.28
672.418	9.57
672.743	8.7
673.068	8.56
673.393	9.23
673.718	8.92
674.043	8.93
674.368	9.31
674.693	9.16
675.018	9.17
675.343	9.23
675.667	8.78
675.992	8.21
676.317	8.8
676.641	9.53
676.966	9
677.29	8.66
677.615	9.28
677.939	9.68
678.264	8.72
678.588	9.19
678.912	9.52
679.236	9.19
679.56	9.08
679.885	9.18
680.209	8.72
680.532	8.46
680.856	9.62
681.18	8.99
681.504	8.98
681.828	8.3
682.152	8.89
682.475	9.43
682.799	9.51
683.122	9.18
683.446	8.93
683.769	9.47
684.093	9.5
684.416	9.16
684.739	9.81
685.062	9.35
685.386	9.31
685.709	9.35
686.032	9.23
686.355	9.27
686.678	8.81
687.001	8.75
687.324	8.81
687.646	8.46
687.969	9.69
688.292	9.8
688.614	9.78
688.937	9.19
689.26	9.42
689.582	9.26
689.904	9.45
690.227	9.58
690.549	9.85
690.871	9.99
691.194	9.91
691.516	9.28
691.838	9.4
692.16	10.03
692.482	9.52
