Data from 0061_forehead_Reflection__1__189.txt Node

Date: Fri Dec 16 15:28:27 CST 2022
User: ToomeyLab
Spectrometer: FLMS14357
Trigger mode: 0
Integration Time (sec): 1.000000E-2
Scans to average: 100
Electric dark correction enabled: true
Nonlinearity correction enabled: false
Boxcar width: 0
XAxis mode: Wavelengths
Number of Pixels in Spectrum: 2048
>>>>>Begin Spectral Data<<<<<
189.047	201.81
189.435	201.81
189.823	201.81
190.211	-103.14
190.599	557.61
190.987	-696.43
191.375	14.2
191.763	30
192.151	-1465.48
192.538	-44.69
192.926	-140.56
193.314	130.56
193.702	-7.3
194.089	-361.36
194.477	23.94
194.864	-30.73
195.252	35.34
195.639	125.58
196.027	7.7
196.414	-10.92
196.801	-186.97
197.189	106
197.576	45.49
197.963	-1571.92
198.351	3.98
198.738	30.29
199.125	32
199.512	-28.96
199.899	-0.12
200.286	-46
200.673	19
201.06	26.72
201.447	8.56
201.833	8.19
202.22	13.81
202.607	7.34
202.994	-15.84
203.38	-19.28
203.767	-17.13
204.154	-83.63
204.54	19.78
204.927	20.39
205.313	49.34
205.699	2.73
206.086	9
206.472	9.57
206.858	8.27
207.245	9.73
207.631	8.42
208.017	12.84
208.403	46.64
208.789	8.38
209.175	37.63
209.561	-13.12
209.947	-16.95
210.333	-37.95
210.719	-2.81
211.105	19.43
211.491	-17.18
211.876	21.81
212.262	-27.66
212.648	-37.58
213.034	8.35
213.419	15.43
213.805	-5.62
214.19	17.45
214.576	2.28
214.961	-1.65
215.346	-46.2
215.732	-10.34
216.117	-44.54
216.502	-27.39
216.888	-4.33
217.273	1.2
217.658	-73.27
218.043	-39.66
218.428	8.39
218.813	-24.23
219.198	-18.95
219.583	9.51
219.968	-34.54
220.353	-4.48
220.738	-4.9
221.122	-7.6
221.507	-2.65
221.892	0.62
222.276	0.18
222.661	5.4
223.046	-0.42
223.43	-5.2
223.815	-4.36
224.199	6.97
224.583	5.66
224.968	13.21
225.352	-3.66
225.736	0.21
226.121	-12.92
226.505	3.56
226.889	10.19
227.273	8.2
227.657	1.16
228.041	3.97
228.425	6.76
228.809	4.66
229.193	2.53
229.577	5.14
229.961	5.12
230.344	5.44
230.728	5.48
231.112	4.13
231.495	4.23
231.879	6.34
232.263	3.97
232.646	4.36
233.03	3.4
233.413	4.16
233.797	5.16
234.18	1.37
234.563	3.82
234.946	5.2
235.33	5.16
235.713	4.86
236.096	4.42
236.479	4.85
236.862	6.92
237.245	3.96
237.628	5.65
238.011	4.82
238.394	7.12
238.777	3.49
239.16	3.32
239.543	2.94
239.925	4.94
240.308	4.2
240.691	4.21
241.073	5.56
241.456	5.37
241.838	4.31
242.221	5.25
242.603	4.7
242.986	6.04
243.368	5.02
243.75	4.78
244.133	4.7
244.515	4.73
244.897	4.89
245.279	4.33
245.661	4.87
246.043	5.12
246.425	4.65
246.807	4.75
247.189	4.54
247.571	4.73
247.953	5
248.335	5.08
248.717	4.99
249.098	5.19
249.48	4.41
249.862	4.97
250.243	5.19
250.625	4.92
251.006	4.72
251.388	5.54
251.769	5.09
252.151	4.67
252.532	5.54
252.913	5.12
253.295	4.81
253.676	5.2
254.057	4.94
254.438	4.59
254.819	4.65
255.2	4.73
255.581	4.8
255.962	3.87
256.343	5.71
256.724	5.38
257.105	5.54
257.486	4.57
257.867	3.21
258.247	5.17
258.628	5.51
259.009	5.17
259.389	5.42
259.77	4.68
260.15	5.46
260.531	4.88
260.911	4.93
261.292	4.78
261.672	4.81
262.052	4.79
262.432	4.74
262.813	4.87
263.193	4.38
263.573	4.6
263.953	4.55
264.333	4.84
264.713	3.93
265.093	4.36
265.473	6
265.853	4.89
266.233	4.31
266.612	4.83
266.992	4.06
267.372	4.86
267.752	4.34
268.131	4.67
268.511	5.2
268.89	5.13
269.27	4.81
269.649	4.39
270.029	5.08
270.408	5.25
270.787	4.85
271.167	5.22
271.546	4.58
271.925	4.83
272.304	4.82
272.683	4.36
273.062	4.66
273.441	5.04
273.82	5.05
274.199	5.08
274.578	4.39
274.957	4.72
275.336	4.26
275.715	5.11
276.093	5.47
276.472	4.84
276.851	4.59
277.229	5.3
277.608	4.22
277.986	4.79
278.365	4.5
278.743	4.66
279.122	4.29
279.5	4.39
279.878	4.2
280.257	5.29
280.635	4.45
281.013	5.12
281.391	4.72
281.769	4.38
282.147	4.28
282.525	4.49
282.903	4.73
283.281	4.71
283.659	4.52
284.037	4.5
284.415	4.44
284.792	4.53
285.17	4.56
285.548	4.72
285.925	4.66
286.303	4.55
286.68	4.66
287.058	4.45
287.435	4.49
287.813	4.61
288.19	5.11
288.567	4.99
288.945	4.79
289.322	4.79
289.699	4.67
290.076	4.77
290.453	4.71
290.83	4.82
291.207	5.15
291.584	4.4
291.961	4.93
292.338	4.74
292.715	4.75
293.092	4.64
293.469	4.47
293.845	4.92
294.222	4.94
294.599	5.14
294.975	5.28
295.352	4.2
295.728	4.84
296.105	4.69
296.481	5.47
296.858	5
297.234	5
297.61	5.18
297.986	5.17
298.363	4.53
298.739	4.9
299.115	4.92
299.491	4.85
299.867	4.98
300.243	4.88
300.619	4.85
300.995	4.77
301.371	5.21
301.746	4.86
302.122	5.23
302.498	5.44
302.874	5.18
303.249	5.7
303.625	4.98
304	4.88
304.376	5.38
304.751	5.34
305.127	5.19
305.502	5.52
305.878	4.91
306.253	5.19
306.628	5.71
307.003	5.37
307.378	5.48
307.754	5.74
308.129	4.67
308.504	4.87
308.879	5.51
309.254	5.91
309.629	5.43
310.003	5.72
310.378	5.47
310.753	5.96
311.128	5.15
311.502	5.35
311.877	5.55
312.252	5.28
312.626	5.38
313.001	5.47
313.375	5.63
313.75	5.4
314.124	6.13
314.498	5.63
314.873	5.48
315.247	5.25
315.621	6.08
315.995	5.69
316.369	5.97
316.743	5.97
317.117	5.96
317.491	6.15
317.865	5.61
318.239	5.68
318.613	5.4
318.987	5.78
319.361	5.65
319.734	5.7
320.108	5.85
320.482	5.44
320.855	6.1
321.229	6.57
321.602	6.09
321.976	5.73
322.349	5.27
322.723	5.76
323.096	5.97
323.469	5.88
323.843	5.94
324.216	5.79
324.589	6.33
324.962	6.21
325.335	6.15
325.708	6.4
326.081	6.38
326.454	6.06
326.827	6.24
327.2	6.41
327.573	6.06
327.945	6.3
328.318	6.68
328.691	6.53
329.063	6.49
329.436	6.14
329.809	5.91
330.181	6.23
330.553	6.65
330.926	6.65
331.298	5.79
331.671	6.15
332.043	6.65
332.415	6.46
332.787	6.79
333.159	6.55
333.532	6.38
333.904	6.3
334.276	6.04
334.648	6.45
335.02	6.56
335.391	6.87
335.763	6.79
336.135	6.59
336.507	6.73
336.879	6.37
337.25	6.21
337.622	6.7
337.993	6.77
338.365	6.73
338.736	6.61
339.108	6.29
339.479	6.99
339.851	7.15
340.222	6.69
340.593	6.81
340.964	6.59
341.336	6.51
341.707	6.37
342.078	6.65
342.449	7.1
342.82	6.63
343.191	6.57
343.562	7.13
343.933	7.2
344.303	6.67
344.674	6.78
345.045	7.32
345.416	6.74
345.786	6.2
346.157	6.81
346.527	6.91
346.898	7.06
347.268	6.65
347.639	7.23
348.009	7.03
348.38	7
348.75	7.22
349.12	7.02
349.49	6.98
349.861	7.48
350.231	7.73
350.601	7
350.971	6.9
351.341	7.63
351.711	7.16
352.081	7.18
352.45	7.49
352.82	7.39
353.19	7.33
353.56	7.22
353.929	7.45
354.299	7.2
354.669	7.52
355.038	7.37
355.408	7.76
355.777	7.4
356.147	7.8
356.516	7.54
356.885	7.32
357.254	7.46
357.624	7.5
357.993	8.04
358.362	7.59
358.731	7.25
359.1	7.64
359.469	7.81
359.838	7.59
360.207	7.49
360.576	7.4
360.945	7.72
361.314	7.71
361.682	7.64
362.051	7.62
362.42	7.94
362.788	7.61
363.157	7.64
363.525	7.8
363.894	7.64
364.262	7.78
364.631	8.55
364.999	7.35
365.367	8.2
365.735	7.56
366.104	7.74
366.472	8.08
366.84	8.26
367.208	7.61
367.576	8.08
367.944	8.17
368.312	8.02
368.68	7.94
369.048	8.25
369.416	8.16
369.783	8.29
370.151	8.04
370.519	8.06
370.886	8.18
371.254	8.22
371.621	8.37
371.989	8.35
372.356	8.23
372.724	8.66
373.091	8.24
373.458	7.94
373.826	8.3
374.193	8.84
374.56	8.29
374.927	8.67
375.294	8.64
375.661	8.66
376.028	8.96
376.395	8.46
376.762	8.69
377.129	8.9
377.496	8.71
377.863	8.63
378.229	8.66
378.596	8.55
378.963	8.67
379.329	8.97
379.696	8.79
380.062	8.84
380.429	9.18
380.795	8.76
381.161	8.85
381.528	8.45
381.894	8.8
382.26	8.9
382.626	8.77
382.993	8.88
383.359	8.9
383.725	9.09
384.091	9.21
384.457	9.27
384.823	9.13
385.188	9.3
385.554	9.32
385.92	9.29
386.286	9.16
386.651	9.05
387.017	9.37
387.383	9.31
387.748	9.35
388.114	9.29
388.479	9.22
388.845	9.42
389.21	9.49
389.575	9.21
389.94	9.31
390.306	9.41
390.671	9.73
391.036	9.62
391.401	9.43
391.766	9.62
392.131	9.43
392.496	9.52
392.861	9.61
393.226	9.62
393.591	9.52
393.956	9.87
394.32	9.71
394.685	9.75
395.05	9.77
395.414	9.86
395.779	10.01
396.143	9.75
396.508	9.8
396.872	9.83
397.236	9.62
397.601	10.09
397.965	9.77
398.329	10.21
398.694	9.77
399.058	9.83
399.422	9.96
399.786	10.18
400.15	10.11
400.514	10.04
400.878	10.21
401.242	10.12
401.605	10.16
401.969	10.41
402.333	10
402.697	10.34
403.06	10.24
403.424	10.27
403.787	10.36
404.151	10.25
404.514	10.22
404.878	10.42
405.241	10.4
405.604	10.26
405.968	10.21
406.331	10.48
406.694	10.36
407.057	10.72
407.42	10.45
407.783	10.48
408.146	10.54
408.509	10.47
408.872	10.49
409.235	10.77
409.598	10.65
409.961	10.74
410.323	10.77
410.686	10.59
411.049	10.62
411.411	10.67
411.774	10.71
412.136	10.95
412.499	10.83
412.861	10.55
413.223	10.77
413.586	10.74
413.948	10.95
414.31	11.14
414.672	10.96
415.035	11.3
415.397	11.1
415.759	11.01
416.121	11.18
416.483	11.23
416.845	11.43
417.206	11.18
417.568	11
417.93	11.06
418.292	11.13
418.653	11.23
419.015	11.14
419.377	11.17
419.738	11.12
420.1	11.06
420.461	11.13
420.822	11.15
421.184	11.17
421.545	11.17
421.906	11.25
422.267	11.12
422.629	11.16
422.99	11.25
423.351	11.23
423.712	11.21
424.073	11.26
424.434	11.3
424.795	11.37
425.155	11.36
425.516	11.33
425.877	11.34
426.238	11.29
426.598	11.49
426.959	11.46
427.32	11.54
427.68	11.63
428.041	11.6
428.401	11.79
428.761	11.8
429.122	11.9
429.482	11.78
429.842	11.67
430.202	11.98
430.563	11.96
430.923	11.64
431.283	12.18
431.643	11.96
432.003	12.18
432.363	12.26
432.722	11.94
433.082	12.23
433.442	12.14
433.802	12.14
434.161	12.18
434.521	12.11
434.881	12.27
435.24	12.1
435.6	12.25
435.959	12.16
436.319	12.31
436.678	12.36
437.037	12.42
437.396	12.4
437.756	12.67
438.115	12.59
438.474	12.59
438.833	12.74
439.192	12.61
439.551	12.6
439.91	12.68
440.269	12.68
440.628	12.5
440.987	12.65
441.345	12.51
441.704	12.53
442.063	12.5
442.421	12.59
442.78	12.68
443.138	12.52
443.497	12.66
443.855	12.61
444.214	12.75
444.572	12.81
444.93	12.88
445.288	12.9
445.647	12.83
446.005	12.86
446.363	12.76
446.721	12.61
447.079	12.86
447.437	12.76
447.795	12.65
448.153	12.87
448.51	12.69
448.868	13
449.226	12.97
449.584	13.07
449.941	13.1
450.299	13.19
450.656	13.21
451.014	13.2
451.371	13.34
451.729	13.4
452.086	13.25
452.443	13.34
452.801	13.55
453.158	13.5
453.515	13.46
453.872	13.47
454.229	13.38
454.586	13.58
454.943	13.56
455.3	13.63
455.657	13.6
456.014	13.69
456.371	13.68
456.727	13.59
457.084	13.69
457.441	13.68
457.797	13.87
458.154	13.78
458.51	13.87
458.867	13.76
459.223	13.96
459.58	13.78
459.936	13.88
460.292	13.86
460.648	13.76
461.005	13.73
461.361	13.68
461.717	13.81
462.073	13.86
462.429	14
462.785	13.96
463.141	14.16
463.496	14.25
463.852	14.35
464.208	14.51
464.564	14.15
464.919	14.21
465.275	14.3
465.631	14.29
465.986	14.44
466.342	14.3
466.697	14.45
467.052	14.53
467.408	14.64
467.763	14.29
468.118	14.73
468.473	14.75
468.829	14.59
469.184	14.48
469.539	14.42
469.894	14.64
470.249	14.6
470.603	14.73
470.958	14.7
471.313	14.73
471.668	14.97
472.023	14.87
472.377	14.81
472.732	14.88
473.086	14.69
473.441	14.99
473.795	15.14
474.15	14.79
474.504	14.91
474.859	15.05
475.213	14.93
475.567	14.96
475.921	15.27
476.275	15.08
476.63	15.13
476.984	15.05
477.338	15.35
477.692	15.34
478.045	15.14
478.399	15.35
478.753	15.1
479.107	15.27
479.461	15.19
479.814	15.27
480.168	15.4
480.521	15.4
480.875	15.44
481.228	15.49
481.582	15.52
481.935	15.39
482.289	15.39
482.642	15.42
482.995	15.3
483.348	15.24
483.701	15.32
484.055	15.1
484.408	15.02
484.761	14.77
485.114	14.68
485.466	14.72
485.819	14.74
486.172	14.94
486.525	15.08
486.878	15.13
487.23	15.32
487.583	15.33
487.936	15.39
488.288	15.28
488.641	15.17
488.993	15.1
489.345	15.13
489.698	15.24
490.05	15.31
490.402	15.52
490.754	15.61
491.107	15.78
491.459	15.77
491.811	16.01
492.163	15.86
492.515	15.66
492.866	15.38
493.218	15.4
493.57	15.48
493.922	15.65
494.274	15.84
494.625	15.9
494.977	16.08
495.328	16.41
495.68	16.45
496.031	16.5
496.383	16.42
496.734	16.57
497.086	16.34
497.437	16.55
497.788	16.43
498.139	16.47
498.49	16.47
498.842	16.47
499.193	16.56
499.544	16.62
499.894	16.66
500.245	16.64
500.596	16.7
500.947	16.71
501.298	16.84
501.648	16.95
501.999	17.09
502.35	16.95
502.7	16.98
503.051	16.95
503.401	17.02
503.752	16.92
504.102	17.03
504.452	16.97
504.803	16.97
505.153	17.09
505.503	17.23
505.853	16.98
506.203	17.16
506.553	17.12
506.903	17.31
507.253	17.23
507.603	17.26
507.953	17.45
508.303	17.29
508.652	17.27
509.002	17.37
509.352	17.28
509.701	17.37
510.051	17.31
510.4	17.32
510.75	17.32
511.099	17.37
511.449	17.32
511.798	17.46
512.147	17.58
512.496	17.62
512.846	17.57
513.195	17.53
513.544	17.42
513.893	17.4
514.242	17.56
514.591	17.53
514.939	17.75
515.288	17.75
515.637	17.78
515.986	17.74
516.334	17.91
516.683	17.72
517.032	17.81
517.38	17.93
517.729	17.87
518.077	17.87
518.426	18.05
518.774	17.91
519.122	17.82
519.47	17.7
519.819	17.55
520.167	17.63
520.515	17.69
520.863	17.71
521.211	17.78
521.559	17.72
521.907	18.01
522.255	18.12
522.602	18.21
522.95	18.3
523.298	18.27
523.645	18.29
523.993	18.36
524.341	18.36
524.688	18.42
525.036	18.43
525.383	18.53
525.73	18.48
526.078	18.29
526.425	18.3
526.772	18.05
527.119	18.02
527.466	18.03
527.814	18.08
528.161	18.05
528.508	18.25
528.854	18
529.201	17.91
529.548	17.72
529.895	17.58
530.242	17.61
530.588	17.72
530.935	17.82
531.282	17.88
531.628	18.02
531.975	18.18
532.321	18.3
532.667	18.4
533.014	18.51
533.36	18.49
533.706	18.46
534.052	18.26
534.399	18.11
534.745	18.11
535.091	18.14
535.437	18.25
535.783	18.46
536.129	18.66
536.474	18.67
536.82	18.86
537.166	18.92
537.512	18.87
537.857	18.7
538.203	18.72
538.549	18.74
538.894	18.79
539.239	19.03
539.585	19.23
539.93	19.14
540.276	19.11
540.621	19.28
540.966	19.24
541.311	19.31
541.656	19.11
542.001	19.08
542.346	18.72
542.691	18.46
543.036	18.45
543.381	18.66
543.726	18.84
544.071	18.94
544.415	19
544.76	19
545.105	19.07
545.449	19.08
545.794	19.35
546.138	19.46
546.483	19.39
546.827	19.67
547.171	19.53
547.516	19.48
547.86	19.47
548.204	19.37
548.548	19.7
548.892	19.64
549.236	19.78
549.58	19.88
549.924	20.05
550.268	20.19
550.612	20.25
550.956	20.1
551.3	20.1
551.643	20.16
551.987	20.19
552.33	20.18
552.674	20.33
553.017	20.36
553.361	20.28
553.704	20.11
554.048	20.26
554.391	20.01
554.734	20.12
555.077	20.2
555.42	20.35
555.764	20.36
556.107	20.37
556.45	20.6
556.793	20.57
557.135	20.69
557.478	20.71
557.821	20.4
558.164	20.67
558.507	20.67
558.849	20.64
559.192	20.72
559.534	20.46
559.877	20.68
560.219	20.82
560.562	21
560.904	20.71
561.246	20.82
561.589	20.74
561.931	21.02
562.273	20.64
562.615	20.93
562.957	21.01
563.299	20.98
563.641	20.95
563.983	20.74
564.325	20.67
564.667	20.91
565.008	20.86
565.35	21.03
565.692	21.13
566.033	21.1
566.375	20.81
566.716	20.91
567.058	21.14
567.399	21.01
567.741	20.93
568.082	21
568.423	21.09
568.764	21.02
569.105	20.94
569.447	21.19
569.788	21.21
570.129	21.48
570.47	21.24
570.811	21.48
571.151	21.24
571.492	21.2
571.833	21.38
572.174	21.16
572.514	21.32
572.855	21.26
573.195	21.15
573.536	21.32
573.876	21.17
574.217	21.35
574.557	21.37
574.898	21.13
575.238	21.23
575.578	21.49
575.918	21.17
576.258	21.48
576.598	21.4
576.938	21.69
577.278	21.43
577.618	21.73
577.958	21.57
578.298	21.77
578.638	21.8
578.977	21.9
579.317	21.9
579.657	21.81
579.996	21.94
580.336	21.75
580.675	21.88
581.014	22.11
581.354	22.07
581.693	22.28
582.032	21.91
582.372	22.07
582.711	22.07
583.05	22.2
583.389	21.96
583.728	22.24
584.067	22.11
584.406	22.49
584.745	22.12
585.083	22.2
585.422	22.21
585.761	22.33
586.1	22.37
586.438	22.31
586.777	22.33
587.115	22.53
587.454	22.28
587.792	22.27
588.13	22.72
588.469	22.56
588.807	22.38
589.145	22.49
589.483	22.63
589.821	22.68
590.159	22.48
590.497	22.53
590.835	22.25
591.173	22.83
591.511	22.35
591.849	22.51
592.187	22.61
592.524	22.54
592.862	22.72
593.2	22.63
593.537	22.69
593.875	22.82
594.212	22.62
594.55	22.89
594.887	23
595.224	22.49
595.561	22.54
595.899	22.65
596.236	22.86
596.573	22.84
596.91	23.17
597.247	22.82
597.584	22.7
597.921	22.83
598.258	22.68
598.594	22.62
598.931	22.73
599.268	22.85
599.604	23.09
599.941	22.94
600.277	22.92
600.614	22.87
600.95	23.22
601.287	23.11
601.623	23.25
601.959	23.16
602.296	23.17
602.632	23.18
602.968	23.23
603.304	22.91
603.64	23.29
603.976	23.11
604.312	23.48
604.648	23.27
604.984	22.97
605.319	23.18
605.655	23.21
605.991	22.83
606.326	23.18
606.662	23.15
606.998	23.32
607.333	23.25
607.668	23.32
608.004	23.39
608.339	23.35
608.674	23.43
609.01	23.42
609.345	23.82
609.68	23.51
610.015	23.62
610.35	23.44
610.685	23.28
611.02	23.17
611.355	23.43
611.689	23.35
612.024	23.59
612.359	23.75
612.694	23.86
613.028	23.83
613.363	23.85
613.697	24.11
614.032	24.05
614.366	23.76
614.7	24.13
615.035	23.86
615.369	24.05
615.703	24.43
616.037	23.72
616.371	24.01
616.705	23.64
617.039	24.39
617.373	23.97
617.707	24.23
618.041	24.46
618.375	24.31
618.709	24.55
619.042	24.2
619.376	24.09
619.71	24.34
620.043	24.16
620.377	23.95
620.71	24.24
621.043	23.92
621.377	24.08
621.71	24.46
622.043	24.38
622.376	24.12
622.709	24.6
623.043	24.39
623.376	24.7
623.709	24.73
624.041	24.53
624.374	24.4
624.707	24.58
625.04	24.45
625.373	24.74
625.705	24.45
626.038	24.55
626.37	24.66
626.703	24.48
627.035	24.72
627.368	24.91
627.7	24.46
628.032	24.67
628.365	24.43
628.697	24.61
629.029	24.85
629.361	24.43
629.693	24.58
630.025	24.85
630.357	24.54
630.689	25.06
631.021	25.06
631.353	24.89
631.684	24.99
632.016	25.02
632.348	25.17
632.679	24.87
633.011	25.34
633.342	24.92
633.674	24.93
634.005	25.17
634.336	25.08
634.668	24.99
634.999	25.27
635.33	24.79
635.661	25.12
635.992	25.13
636.323	24.97
636.654	25.33
636.985	25.27
637.316	25.03
637.647	25.54
637.977	25.01
638.308	25.11
638.639	25.01
638.969	25.2
639.3	25.37
639.63	25.27
639.961	25.52
640.291	25.95
640.622	25.38
640.952	25.59
641.282	25.19
641.612	25.19
641.943	25.8
642.273	24.93
642.603	25.25
642.933	25.3
643.263	25.81
643.592	25.19
643.922	25.68
644.252	25.74
644.582	25.42
644.911	25.72
645.241	25.48
645.571	25.88
645.9	25.93
646.23	25.97
646.559	25.59
646.888	25.49
647.218	26.11
647.547	25.96
647.876	26.19
648.205	25.63
648.534	25.51
648.863	26.16
649.192	25.63
649.521	26.15
649.85	26.04
650.179	25.57
650.508	26.57
650.837	25.94
651.165	25.95
651.494	26.04
651.822	26.44
652.151	26.32
652.479	26.25
652.808	25.93
653.136	26.03
653.465	26.15
653.793	26.21
654.121	26.32
654.449	25.99
654.777	26.03
655.105	26.46
655.433	26.43
655.761	26.11
656.089	26.28
656.417	25.67
656.745	26.93
657.073	26.67
657.4	26.02
657.728	26.47
658.056	26.53
658.383	26.23
658.711	25.77
659.038	27.08
659.365	26.56
659.693	26.11
660.02	25.92
660.347	26.41
660.674	26.08
661.001	26.26
661.329	26.23
661.656	26.42
661.982	26.56
662.309	26.67
662.636	26.35
662.963	26.53
663.29	26.35
663.616	26.57
663.943	26.36
664.27	26.72
664.596	26.47
664.923	27.15
665.249	26.92
665.576	26.63
665.902	26.81
666.228	26.46
666.554	26.7
666.881	26.9
667.207	27.06
667.533	27.1
667.859	26.69
668.185	26.87
668.511	26.83
668.837	27.06
669.162	27.03
669.488	27.23
669.814	27.09
670.139	27.5
670.465	27.11
670.791	27.23
671.116	27.26
671.442	26.81
671.767	27.18
672.092	27.82
672.418	27.85
672.743	27.32
673.068	27.21
673.393	26.98
673.718	26.89
674.043	27.15
674.368	27.54
