Data from 0061_chest_Reflection__4__182.txt Node

Date: Fri Dec 16 15:26:09 CST 2022
User: ToomeyLab
Spectrometer: FLMS14357
Trigger mode: 0
Integration Time (sec): 1.000000E-2
Scans to average: 100
Electric dark correction enabled: true
Nonlinearity correction enabled: false
Boxcar width: 0
XAxis mode: Wavelengths
Number of Pixels in Spectrum: 2048
>>>>>Begin Spectral Data<<<<<
189.047	238.94
189.435	238.94
189.823	238.94
190.211	64.82
190.599	563.04
190.987	-31.32
191.375	380.65
191.763	70.79
192.151	92.86
192.538	122.21
192.926	102.32
193.314	41.81
193.702	2.61
194.089	-1768.18
194.477	16.16
194.864	75.69
195.252	-68.39
195.639	134.09
196.027	32.94
196.414	208.84
196.801	-112.11
197.189	60.11
197.576	-116.67
197.963	-453.08
198.351	14.49
198.738	-15
199.125	20.6
199.512	10.12
199.899	-19.53
200.286	-36.02
200.673	21.66
201.06	29.73
201.447	26.08
201.833	46.35
202.22	30.62
202.607	12.85
202.994	26.39
203.38	-68.89
203.767	5.53
204.154	-33.65
204.54	28.08
204.927	22.83
205.313	50.94
205.699	1
206.086	-19.11
206.472	-8.62
206.858	15.34
207.245	-3.57
207.631	2.59
208.017	15.58
208.403	45.2
208.789	4.75
209.175	31.64
209.561	0.08
209.947	5.08
210.333	-4.15
210.719	24.86
211.105	21.84
211.491	15.06
211.876	23.88
212.262	1.76
212.648	-40.23
213.034	17.1
213.419	25.63
213.805	-6.49
214.19	-4.9
214.576	-28.74
214.961	10.95
215.346	-22.09
215.732	-3.47
216.117	-13.32
216.502	-23.93
216.888	-32.42
217.273	5.62
217.658	-3.2
218.043	21.3
218.428	10.37
218.813	-27.15
219.198	-11.48
219.583	28.7
219.968	2.64
220.353	15.95
220.738	3.84
221.122	19.28
221.507	-14.89
221.892	1.51
222.276	19.25
222.661	-5.91
223.046	0.93
223.43	3.2
223.815	12.52
224.199	4.15
224.583	1.62
224.968	15.63
225.352	-0.81
225.736	10.25
226.121	-2.05
226.505	3.82
226.889	2.63
227.273	11.25
227.657	5.29
228.041	6.83
228.425	5.4
228.809	6.05
229.193	1.31
229.577	4.06
229.961	4.39
230.344	3.93
230.728	3.6
231.112	3.91
231.495	3.93
231.879	3.63
232.263	2.6
232.646	3.82
233.03	3.27
233.413	3.6
233.797	7.84
234.18	3.16
234.563	2.52
234.946	3.61
235.33	5.4
235.713	4.01
236.096	3.95
236.479	5.88
236.862	5.6
237.245	4.76
237.628	4.49
238.011	5.08
238.394	7.86
238.777	5.32
239.16	2.08
239.543	2.67
239.925	4.59
240.308	3.69
240.691	2.11
241.073	4.28
241.456	3.83
241.838	3.66
242.221	4.45
242.603	4.66
242.986	4.95
243.368	3.48
243.75	4.18
244.133	4.1
244.515	4.25
244.897	4.47
245.279	3.82
245.661	4.29
246.043	4.25
246.425	3.79
246.807	4.14
247.189	3.74
247.571	4.12
247.953	4.08
248.335	4.26
248.717	4.39
249.098	4.25
249.48	3.66
249.862	4.36
250.243	4.28
250.625	4.3
251.006	4.22
251.388	4.48
251.769	4.58
252.151	4.28
252.532	3.74
252.913	4.25
253.295	3.89
253.676	4.47
254.057	3.55
254.438	3.99
254.819	4.66
255.2	4.08
255.581	3.34
255.962	3.88
256.343	5.13
256.724	3.4
257.105	4.37
257.486	4.57
257.867	2.75
258.247	3.58
258.628	4.45
259.009	3.35
259.389	4.35
259.77	4.19
260.15	5.03
260.531	4.27
260.911	4.02
261.292	4.04
261.672	3.84
262.052	4.07
262.432	4.46
262.813	4.05
263.193	3.86
263.573	3.78
263.953	4.01
264.333	4.12
264.713	4.34
265.093	3.61
265.473	4.49
265.853	3.91
266.233	3.42
266.612	4.16
266.992	3.85
267.372	3.85
267.752	3.7
268.131	4.04
268.511	3.87
268.89	4.05
269.27	4.2
269.649	4.21
270.029	3.76
270.408	3.67
270.787	3.64
271.167	3.75
271.546	2.81
271.925	3.6
272.304	3.95
272.683	3.87
273.062	4.24
273.441	3.56
273.82	4.11
274.199	4.08
274.578	4.16
274.957	3.63
275.336	4.18
275.715	4.22
276.093	4.31
276.472	3.8
276.851	3.86
277.229	4.15
277.608	3.78
277.986	4.15
278.365	3.54
278.743	4.28
279.122	3.7
279.5	3.58
279.878	3.38
280.257	4.36
280.635	3.26
281.013	4.11
281.391	3.99
281.769	3.49
282.147	4.06
282.525	3.52
282.903	3.73
283.281	3.97
283.659	3.72
284.037	3.7
284.415	3.9
284.792	3.26
285.17	3.28
285.548	3.58
285.925	3.73
286.303	3.46
286.68	3.96
287.058	3.83
287.435	3.38
287.813	3.92
288.19	4.29
288.567	3.52
288.945	3.79
289.322	3.84
289.699	3.75
290.076	4.1
290.453	3.85
290.83	4.3
291.207	3.87
291.584	3.88
291.961	4.13
292.338	4.05
292.715	3.8
293.092	4.25
293.469	4.12
293.845	4.08
294.222	4.47
294.599	4.3
294.975	3.91
295.352	3.82
295.728	3.93
296.105	4.04
296.481	4.33
296.858	3.89
297.234	3.71
297.61	4.18
297.986	3.99
298.363	3.56
298.739	4.24
299.115	3.99
299.491	4.05
299.867	4.28
300.243	3.72
300.619	4.31
300.995	4.12
301.371	4.22
301.746	3.91
302.122	4.14
302.498	3.78
302.874	4.11
303.249	4.13
303.625	4.27
304	3.91
304.376	4.43
304.751	4.02
305.127	4.06
305.502	4.25
305.878	4.13
306.253	4.09
306.628	3.92
307.003	4.18
307.378	4.06
307.754	4.01
308.129	3.38
308.504	3.85
308.879	4.54
309.254	4.62
309.629	4.25
310.003	4.82
310.378	4.4
310.753	4.04
311.128	3.79
311.502	3.93
311.877	4.38
312.252	4.02
312.626	3.93
313.001	4.1
313.375	4.11
313.75	4.23
314.124	4.87
314.498	3.97
314.873	4.19
315.247	4.04
315.621	3.94
315.995	4.19
316.369	4.32
316.743	4.46
317.117	4.34
317.491	3.83
317.865	3.99
318.239	4.86
318.613	3.85
318.987	4.27
319.361	4.4
319.734	5.05
320.108	4.48
320.482	4.39
320.855	4.24
321.229	4.83
321.602	4.55
321.976	4.33
322.349	3.82
322.723	4.2
323.096	4.07
323.469	4.11
323.843	4.45
324.216	3.94
324.589	4.66
324.962	4.33
325.335	4.49
325.708	4.76
326.081	4.85
326.454	4.45
326.827	4.43
327.2	4.84
327.573	4.54
327.945	4.54
328.318	4.75
328.691	4.62
329.063	4.31
329.436	4.04
329.809	3.85
330.181	4.48
330.553	4.36
330.926	4.78
331.298	4.1
331.671	4.6
332.043	3.98
332.415	4.97
332.787	4.71
333.159	4.82
333.532	4.25
333.904	4.52
334.276	4.58
334.648	4.66
335.02	4.04
335.391	4.58
335.763	4.29
336.135	4.49
336.507	4.75
336.879	4.56
337.25	4.24
337.622	4.73
337.993	4.49
338.365	5.09
338.736	4.78
339.108	4.28
339.479	4.4
339.851	4.81
340.222	4.7
340.593	4.15
340.964	3.99
341.336	3.88
341.707	4.42
342.078	3.95
342.449	4.93
342.82	4.54
343.191	4.89
343.562	4.26
343.933	4.62
344.303	4.5
344.674	4.76
345.045	4.72
345.416	4.42
345.786	4.18
346.157	4.53
346.527	4.19
346.898	4.34
347.268	4.88
347.639	4.46
348.009	4.91
348.38	4.45
348.75	4.47
349.12	4.3
349.49	4.58
349.861	4.7
350.231	4.62
350.601	4.88
350.971	4.66
351.341	4.44
351.711	4.27
352.081	4.48
352.45	4.63
352.82	4.64
353.19	4.29
353.56	4.32
353.929	4.81
354.299	4.38
354.669	4.72
355.038	4.3
355.408	5.14
355.777	4.44
356.147	4.8
356.516	5.01
356.885	4.42
357.254	4.7
357.624	4.65
357.993	4.62
358.362	4.89
358.731	4.62
359.1	5.01
359.469	4.91
359.838	4.33
360.207	4.3
360.576	4.56
360.945	4.54
361.314	4.94
361.682	4.42
362.051	4.72
362.42	5.09
362.788	4.92
363.157	4.39
363.525	4.5
363.894	4.32
364.262	4.76
364.631	5.2
364.999	4.45
365.367	5.06
365.735	4.46
366.104	4.5
366.472	4.84
366.84	4.84
367.208	4.32
367.576	4.79
367.944	4.98
368.312	4.48
368.68	4.67
369.048	5.1
369.416	4.73
369.783	4.73
370.151	5.16
370.519	4.56
370.886	4.55
371.254	4.92
371.621	4.87
371.989	4.66
372.356	4.58
372.724	4.59
373.091	4.51
373.458	4.6
373.826	4.68
374.193	4.87
374.56	4.57
374.927	4.64
375.294	4.82
375.661	5.04
376.028	4.81
376.395	4.78
376.762	4.81
377.129	5.19
377.496	4.9
377.863	4.72
378.229	4.59
378.596	4.77
378.963	4.72
379.329	4.79
379.696	4.64
380.062	4.9
380.429	4.51
380.795	4.76
381.161	4.81
381.528	4.35
381.894	4.61
382.26	4.73
382.626	4.4
382.993	4.45
383.359	4.9
383.725	4.86
384.091	4.79
384.457	4.88
384.823	5.07
385.188	5.12
385.554	4.89
385.92	4.87
386.286	4.91
386.651	4.74
387.017	4.67
387.383	4.77
387.748	4.64
388.114	4.93
388.479	5.11
388.845	4.84
389.21	4.8
389.575	5.13
389.94	4.74
390.306	4.92
390.671	4.99
391.036	4.89
391.401	5.27
391.766	4.84
392.131	4.71
392.496	4.77
392.861	4.81
393.226	4.86
393.591	4.73
393.956	4.84
394.32	4.72
394.685	4.98
395.05	4.8
395.414	4.75
395.779	4.85
396.143	4.85
396.508	4.97
396.872	5.05
397.236	4.53
397.601	5.19
397.965	4.79
398.329	5.16
398.694	4.85
399.058	5.09
399.422	5.23
399.786	4.97
400.15	4.79
400.514	4.85
400.878	4.9
401.242	5.01
401.605	4.91
401.969	4.9
402.333	4.98
402.697	5
403.06	4.99
403.424	4.9
403.787	4.9
404.151	4.86
404.514	5.14
404.878	5.17
405.241	4.87
405.604	4.96
405.968	5.08
406.331	5.04
406.694	4.99
407.057	5.16
407.42	4.91
407.783	4.87
408.146	5.05
408.509	4.88
408.872	4.98
409.235	4.99
409.598	5.23
409.961	5
410.323	4.94
410.686	4.99
411.049	5.01
411.411	5.09
411.774	5.17
412.136	5.13
412.499	5.22
412.861	4.95
413.223	5.17
413.586	4.99
413.948	5.22
414.31	5.22
414.672	5.08
415.035	5.16
415.397	5.17
415.759	5.21
416.121	5.35
416.483	5.02
416.845	5.17
417.206	5.13
417.568	4.99
417.93	5.06
418.292	5.1
418.653	5.28
419.015	5.25
419.377	5.15
419.738	5.03
420.1	5.13
420.461	5.08
420.822	5.22
421.184	5.11
421.545	5.07
421.906	5.03
422.267	4.96
422.629	5.06
422.99	5.08
423.351	5.08
423.712	5.06
424.073	5.17
424.434	5.01
424.795	5.01
425.155	5.12
425.516	5.1
425.877	5.17
426.238	5.02
426.598	5.1
426.959	5.09
427.32	5.23
427.68	5.21
428.041	5.09
428.401	5.12
428.761	5.08
429.122	5.09
429.482	5.06
429.842	5.4
430.202	5.24
430.563	5.22
430.923	5.25
431.283	5.2
431.643	5.15
432.003	5.34
432.363	5.3
432.722	5.23
433.082	5.22
433.442	5.29
433.802	5.28
434.161	5.16
434.521	5.37
434.881	5.31
435.24	5.06
435.6	5.24
435.959	5.16
436.319	5.12
436.678	5.32
437.037	5.44
437.396	5.29
437.756	5.32
438.115	5.33
438.474	5.42
438.833	5.37
439.192	5.43
439.551	5.32
439.91	5.33
440.269	5.48
440.628	5.45
440.987	5.13
441.345	5.21
441.704	5.29
442.063	5.29
442.421	5.38
442.78	5.19
443.138	5.22
443.497	5.21
443.855	5.28
444.214	5.33
444.572	5.29
444.93	5.46
445.288	5.33
445.647	5.37
446.005	5.31
446.363	5.31
446.721	5.14
447.079	5.31
447.437	5.34
447.795	5.31
448.153	5.16
448.51	5.31
448.868	5.34
449.226	5.4
449.584	5.39
449.941	5.5
450.299	5.36
450.656	5.42
451.014	5.29
451.371	5.6
451.729	5.48
452.086	5.21
452.443	5.49
452.801	5.61
453.158	5.44
453.515	5.49
453.872	5.59
454.229	5.44
454.586	5.4
454.943	5.43
455.3	5.69
455.657	5.54
456.014	5.39
456.371	5.56
456.727	5.34
457.084	5.32
457.441	5.53
457.797	5.58
458.154	5.59
458.51	5.54
458.867	5.38
459.223	5.54
459.58	5.44
459.936	5.5
460.292	5.68
460.648	5.3
461.005	5.39
461.361	5.43
461.717	5.43
462.073	5.55
462.429	5.48
462.785	5.46
463.141	5.56
463.496	5.52
463.852	5.62
464.208	5.55
464.564	5.38
464.919	5.48
465.275	5.62
465.631	5.69
465.986	5.55
466.342	5.57
466.697	5.57
467.052	5.72
467.408	5.64
467.763	5.56
468.118	5.68
468.473	5.79
468.829	5.7
469.184	5.81
469.539	5.55
469.894	5.71
470.249	5.63
470.603	5.72
470.958	5.76
471.313	5.54
471.668	5.77
472.023	5.86
472.377	5.56
472.732	5.83
473.086	5.62
473.441	5.88
473.795	5.85
474.15	5.53
474.504	5.67
474.859	5.77
475.213	5.76
475.567	5.68
475.921	5.95
476.275	5.71
476.63	5.76
476.984	5.63
477.338	5.93
477.692	5.78
478.045	5.7
478.399	5.8
478.753	5.49
479.107	5.66
479.461	5.67
479.814	5.65
480.168	5.83
480.521	5.77
480.875	5.92
481.228	5.86
481.582	5.76
481.935	5.67
482.289	5.76
482.642	5.8
482.995	5.81
483.348	5.65
483.701	5.72
484.055	5.64
484.408	5.69
484.761	5.51
485.114	5.48
485.466	5.45
485.819	5.43
486.172	5.57
486.525	5.63
486.878	5.66
487.23	5.68
487.583	5.74
487.936	5.71
488.288	5.68
488.641	5.64
488.993	5.52
489.345	5.6
489.698	5.65
490.05	5.63
490.402	5.72
490.754	5.86
491.107	5.84
491.459	5.9
491.811	5.92
492.163	5.89
492.515	5.75
492.866	5.6
493.218	5.7
493.57	5.76
493.922	5.73
494.274	5.92
494.625	5.85
494.977	5.96
495.328	6.07
495.68	6.14
496.031	6.12
496.383	5.92
496.734	6.12
497.086	5.98
497.437	6.05
497.788	6.07
498.139	6
498.49	6.08
498.842	6.05
499.193	6.03
499.544	6.08
499.894	6.12
500.245	6.11
500.596	6.03
500.947	6.15
501.298	6.16
501.648	6.11
501.999	6.28
502.35	6.26
502.7	6.19
503.051	6.25
503.401	6.31
503.752	6.09
504.102	6.24
504.452	6.14
504.803	6.16
505.153	6.19
505.503	6.29
505.853	6.08
506.203	6.24
506.553	6.32
506.903	6.3
507.253	6.33
507.603	6.17
507.953	6.36
508.303	6.31
508.652	6.31
509.002	6.43
509.352	6.35
509.701	6.38
510.051	6.34
510.4	6.4
510.75	6.33
511.099	6.25
511.449	6.37
511.798	6.57
512.147	6.33
512.496	6.42
512.846	6.4
513.195	6.48
513.544	6.44
513.893	6.33
514.242	6.35
514.591	6.59
514.939	6.32
515.288	6.51
515.637	6.55
515.986	6.47
516.334	6.58
516.683	6.49
517.032	6.5
517.38	6.51
517.729	6.54
518.077	6.48
518.426	6.48
518.774	6.51
519.122	6.53
519.47	6.55
519.819	6.54
520.167	6.46
520.515	6.48
520.863	6.46
521.211	6.58
521.559	6.55
521.907	6.62
522.255	6.67
522.602	6.74
522.95	6.67
523.298	6.75
523.645	6.66
523.993	6.75
524.341	6.78
524.688	6.77
525.036	6.89
525.383	6.85
525.73	6.81
526.078	6.75
526.425	6.72
526.772	6.63
527.119	6.71
527.466	6.58
527.814	6.68
528.161	6.73
528.508	6.78
528.854	6.67
529.201	6.67
529.548	6.58
529.895	6.53
530.242	6.52
530.588	6.65
530.935	6.67
531.282	6.71
531.628	6.76
531.975	6.84
532.321	6.85
532.667	6.96
533.014	6.96
533.36	6.92
533.706	6.93
534.052	6.85
534.399	6.84
534.745	6.78
535.091	6.83
535.437	6.93
535.783	6.96
536.129	6.92
536.474	7.14
536.82	7.08
537.166	7.17
537.512	7.11
537.857	7.15
538.203	7.08
538.549	7.11
538.894	7.03
539.239	7.36
539.585	7.34
539.93	7.35
540.276	7.16
540.621	7.34
540.966	7.26
541.311	7.3
541.656	7.23
542.001	7.22
542.346	7.21
542.691	7.1
543.036	7.1
543.381	7.15
543.726	7.23
544.071	7.29
544.415	7.27
544.76	7.24
545.105	7.37
545.449	7.31
545.794	7.42
546.138	7.47
546.483	7.51
546.827	7.52
547.171	7.62
547.516	7.55
547.86	7.52
548.204	7.53
548.548	7.71
548.892	7.72
549.236	7.7
549.58	7.7
549.924	7.78
550.268	7.94
550.612	7.73
550.956	7.71
551.3	7.87
551.643	7.76
551.987	7.92
552.33	7.92
552.674	8.02
553.017	8.15
553.361	7.9
553.704	7.94
554.048	7.98
554.391	7.98
554.734	8.06
555.077	8.13
555.42	8.08
555.764	8.1
556.107	8.19
556.45	8.13
556.793	8.35
557.135	8.41
557.478	8.26
557.821	8.12
558.164	8.38
558.507	8.2
558.849	8.2
559.192	8.44
559.534	8.25
559.877	8.5
560.219	8.46
560.562	8.53
560.904	8.53
561.246	8.61
561.589	8.36
561.931	8.75
562.273	8.37
562.615	8.68
562.957	8.64
563.299	8.74
563.641	8.84
563.983	8.48
564.325	8.59
564.667	8.69
565.008	8.65
565.35	8.95
565.692	8.85
566.033	8.69
566.375	8.57
566.716	8.88
567.058	8.83
567.399	8.76
567.741	8.89
568.082	8.78
568.423	8.73
568.764	8.83
569.105	8.78
569.447	8.8
569.788	8.98
570.129	8.94
570.47	8.96
570.811	8.99
571.151	9.11
571.492	9.2
571.833	9.14
572.174	9.2
572.514	8.92
572.855	9.12
573.195	9.07
573.536	9.15
573.876	9.14
574.217	9.17
574.557	9.28
574.898	9.19
575.238	9.13
575.578	9.28
575.918	9.38
576.258	9.36
576.598	9.35
576.938	9.5
577.278	9.46
577.618	9.4
577.958	9.32
578.298	9.68
578.638	9.41
578.977	9.52
579.317	9.6
579.657	9.75
579.996	9.49
580.336	9.63
580.675	9.85
581.014	9.86
581.354	9.9
581.693	9.92
582.032	9.85
582.372	9.99
582.711	9.83
583.05	10.01
583.389	10.06
583.728	10.1
584.067	10.12
584.406	10.11
584.745	10.17
585.083	10.39
585.422	10.29
585.761	10.43
586.1	10.25
586.438	10.3
586.777	10.24
587.115	10.48
587.454	10.14
587.792	10.15
588.13	10.62
588.469	10.47
588.807	10.67
589.145	10.55
589.483	10.46
589.821	10.56
590.159	10.42
590.497	10.32
590.835	10.58
591.173	10.57
591.511	10.57
591.849	10.63
592.187	10.82
592.524	10.45
592.862	10.7
593.2	10.7
593.537	10.75
593.875	10.9
594.212	10.76
594.55	10.94
594.887	11.03
595.224	10.77
595.561	10.79
595.899	10.97
596.236	11.13
596.573	10.8
596.91	11.17
597.247	11.01
597.584	11.15
597.921	11.18
598.258	11.14
598.594	10.91
598.931	11.28
599.268	11.21
599.604	11.26
599.941	11.2
600.277	11.33
600.614	11.4
600.95	11.44
601.287	11.28
601.623	11.71
601.959	11.4
602.296	11.65
602.632	11.75
602.968	11.57
603.304	11.52
603.64	11.85
603.976	11.47
604.312	11.75
604.648	11.71
604.984	11.73
605.319	11.83
605.655	11.69
605.991	11.74
606.326	11.81
606.662	11.59
606.998	11.88
607.333	11.8
607.668	11.85
608.004	11.66
608.339	11.86
608.674	12
609.01	12.07
609.345	12.33
609.68	11.91
610.015	12.25
610.35	12
610.685	12.08
611.02	12.16
611.355	12.3
611.689	12.17
612.024	12.49
612.359	12.39
612.694	12.17
613.028	12.69
613.363	12.55
613.697	12.61
614.032	12.52
614.366	12.49
614.7	12.66
615.035	12.59
615.369	12.76
615.703	12.81
616.037	12.59
616.371	12.66
616.705	12.6
617.039	13.19
617.373	12.54
617.707	12.67
618.041	12.87
618.375	12.88
618.709	13.28
619.042	12.86
619.376	12.98
619.71	12.97
620.043	12.93
620.377	13.08
620.71	12.93
621.043	12.85
621.377	13.21
621.71	13.6
622.043	13.06
622.376	13.15
622.709	13.68
623.043	13.31
623.376	13.46
623.709	13.63
624.041	13.51
624.374	13.14
624.707	13.64
625.04	13.64
625.373	13.62
625.705	13.51
626.038	13.79
626.37	13.66
626.703	13.72
627.035	13.72
627.368	13.87
627.7	14.21
628.032	13.83
628.365	13.61
628.697	13.81
629.029	13.99
629.361	13.66
629.693	14.08
630.025	13.91
630.357	13.92
630.689	14.39
631.021	14.3
631.353	14.32
631.684	14.49
632.016	14.18
632.348	14.32
632.679	14.28
633.011	14.59
633.342	14.35
633.674	14.51
634.005	14.4
634.336	14.58
634.668	14.22
634.999	14.4
635.33	14.52
635.661	14.68
635.992	14.5
636.323	14.78
636.654	15.04
636.985	14.72
637.316	14.71
637.647	14.9
637.977	14.83
638.308	14.8
638.639	14.68
638.969	14.59
639.3	15.25
639.63	14.82
639.961	14.94
640.291	15.68
640.622	15.6
640.952	15.1
641.282	14.77
641.612	15.03
641.943	15.78
642.273	15.3
642.603	15.45
642.933	15.47
643.263	15.83
643.592	15.09
643.922	15.55
644.252	15.7
644.582	15.48
644.911	15.43
645.241	15.58
645.571	15.42
645.9	15.86
646.23	15.74
646.559	16.07
646.888	15.28
647.218	16.06
647.547	16.01
647.876	16.14
648.205	15.86
648.534	15.62
648.863	15.66
649.192	15.75
649.521	15.56
649.85	15.98
650.179	15.72
650.508	16.1
650.837	16.36
651.165	16.22
651.494	15.98
651.822	16.57
652.151	16.61
652.479	16.57
652.808	16.11
653.136	16.24
653.465	16.33
653.793	16.43
654.121	16.93
654.449	16.52
654.777	16.85
655.105	16.73
655.433	16.57
655.761	16.66
656.089	16.94
656.417	16.31
656.745	17.31
657.073	17
657.4	16.72
657.728	16.99
658.056	17.1
658.383	16.77
658.711	16.74
659.038	17.19
659.365	17.2
659.693	17.02
660.02	17.38
660.347	17.22
660.674	17.03
661.001	17.04
661.329	17.01
661.656	17.26
661.982	17.04
662.309	17.53
662.636	17.65
662.963	17.47
663.29	18.06
663.616	17.62
663.943	17.76
664.27	17.6
664.596	17.2
664.923	17.82
665.249	17.66
665.576	17.44
665.902	17.31
666.228	17.41
666.554	17.46
666.881	17.51
667.207	17.87
667.533	18.37
667.859	17.84
668.185	17.93
668.511	17.6
668.837	18.09
669.162	18.2
669.488	17.99
669.814	18.29
670.139	18.65
670.465	18.32
670.791	18.55
671.116	18.71
671.442	18.13
671.767	18.5
672.092	18.74
672.418	18.4
672.743	18.12
673.068	18.16
673.393	18.79
673.718	18.52
674.043	18.43
674.368	19.37
674.693	19.11
675.018	18.74
675.343	19.03
675.667	19.05
675.992	18.65
676.317	18.37
676.641	19.18
676.966	18.39
677.29	18.62
677.615	18.97
677.939	19.23
678.264	19.37
678.588	19.51
678.912	19.55
679.236	19.55
679.56	19.37
679.885	19.12
680.209	18.83
680.532	19.32
680.856	19.96
681.18	19.51
681.504	19.23
681.828	19.07
682.152	19.26
682.475	19.72
682.799	19.65
683.122	19.41
683.446	19.59
683.769	19.93
684.093	20.01
684.416	19.68
684.739	19.6
685.062	20.34
685.386	19.65
