Data from 0061_forehead_Reflection__2__190.txt Node

Date: Fri Dec 16 15:28:46 CST 2022
User: ToomeyLab
Spectrometer: FLMS14357
Trigger mode: 0
Integration Time (sec): 1.000000E-2
Scans to average: 100
Electric dark correction enabled: true
Nonlinearity correction enabled: false
Boxcar width: 0
XAxis mode: Wavelengths
Number of Pixels in Spectrum: 2048
>>>>>Begin Spectral Data<<<<<
189.047	310
189.435	310
189.823	310
190.211	94.65
190.599	-1041.3
190.987	55.49
191.375	344.97
191.763	77.65
192.151	630.95
192.538	138.62
192.926	15.56
193.314	58.54
193.702	-5.32
194.089	-3013.64
194.477	39.07
194.864	-166.6
195.252	-30
195.639	138.62
196.027	224.88
196.414	72.74
196.801	-104.42
197.189	64.19
197.576	-55.68
197.963	-97.69
198.351	29.74
198.738	9.5
199.125	7.57
199.512	-1.18
199.899	16.12
200.286	-18.96
200.673	42.63
201.06	31.35
201.447	45.28
201.833	24.98
202.22	24.46
202.607	2.22
202.994	14.36
203.38	-2.89
203.767	-16.53
204.154	4.74
204.54	8.17
204.927	14.62
205.313	34.48
205.699	-3.45
206.086	7.9
206.472	46.01
206.858	6.4
207.245	26.97
207.631	34.94
208.017	20.74
208.403	16.46
208.789	15.33
209.175	36.11
209.561	35.34
209.947	8.64
210.333	-0.21
210.719	9.84
211.105	-13.65
211.491	-7.88
211.876	9.57
212.262	-1.03
212.648	-4.56
213.034	24.23
213.419	31
213.805	13.21
214.19	-46.37
214.576	-1.43
214.961	-10.16
215.346	-31.42
215.732	9.44
216.117	-19.9
216.502	-11.91
216.888	-19.45
217.273	35.67
217.658	3.49
218.043	-15.81
218.428	23.31
218.813	11.47
219.198	-1.79
219.583	13.49
219.968	49.07
220.353	-5.8
220.738	7.67
221.122	5.86
221.507	13.43
221.892	10.46
222.276	24.77
222.661	-5.81
223.046	4.95
223.43	9.34
223.815	3.63
224.199	3.35
224.583	7.39
224.968	17.8
225.352	1.47
225.736	14.64
226.121	6.79
226.505	8.7
226.889	7.83
227.273	3.28
227.657	0.4
228.041	4.18
228.425	4.62
228.809	4.3
229.193	2.61
229.577	3.72
229.961	4.51
230.344	3.4
230.728	4.16
231.112	4.25
231.495	3.72
231.879	3.69
232.263	2.39
232.646	4.35
233.03	2.45
233.413	2.63
233.797	4.95
234.18	3.21
234.563	3.45
234.946	3.88
235.33	3.56
235.713	4
236.096	3.03
236.479	5.32
236.862	4.49
237.245	5.12
237.628	5.56
238.011	4.71
238.394	5.66
238.777	2.91
239.16	2.28
239.543	3.57
239.925	5.17
240.308	3.57
240.691	3.45
241.073	4.35
241.456	3.42
241.838	3.15
242.221	3.32
242.603	4.16
242.986	4.85
243.368	3.64
243.75	3.38
244.133	3.74
244.515	3.65
244.897	3.64
245.279	3.82
245.661	3.87
246.043	4.73
246.425	3.72
246.807	4.26
247.189	3.87
247.571	3.69
247.953	3.74
248.335	3.51
248.717	3.58
249.098	3.62
249.48	3.17
249.862	3.81
250.243	3.61
250.625	3.13
251.006	3.4
251.388	4.5
251.769	4.11
252.151	3.88
252.532	4.06
252.913	3.62
253.295	3.22
253.676	3.77
254.057	3.67
254.438	3.55
254.819	4.24
255.2	3.6
255.581	3.61
255.962	4.06
256.343	4.93
256.724	3.63
257.105	3.97
257.486	3.71
257.867	1.46
258.247	3.75
258.628	4.05
259.009	3.51
259.389	3.74
259.77	3.64
260.15	4.04
260.531	3.88
260.911	3.46
261.292	3.61
261.672	3.63
262.052	3.44
262.432	3.49
262.813	3.56
263.193	3.44
263.573	3.42
263.953	3.44
264.333	3.59
264.713	3.75
265.093	3.78
265.473	3.8
265.853	3.98
266.233	3.4
266.612	4.44
266.992	3.93
267.372	3.51
267.752	3.69
268.131	3.54
268.511	3.46
268.89	3.66
269.27	3.77
269.649	4.01
270.029	3.38
270.408	3.37
270.787	3.37
271.167	3.86
271.546	3
271.925	3.47
272.304	3.47
272.683	3.66
273.062	3.75
273.441	3.78
273.82	3.82
274.199	3.44
274.578	2.92
274.957	3.58
275.336	3.47
275.715	4.15
276.093	3.88
276.472	3.76
276.851	3.49
277.229	3.91
277.608	3.63
277.986	3.61
278.365	3.18
278.743	3.47
279.122	3.35
279.5	3.48
279.878	2.64
280.257	3.81
280.635	2.92
281.013	3.66
281.391	3.47
281.769	3.31
282.147	4.05
282.525	3.53
282.903	3.16
283.281	3.38
283.659	3.55
284.037	3.57
284.415	3.23
284.792	3.25
285.17	3.31
285.548	3.45
285.925	3.6
286.303	3.2
286.68	3.75
287.058	3.18
287.435	3.15
287.813	3.23
288.19	3.57
288.567	3.29
288.945	3.34
289.322	3.13
289.699	3.44
290.076	3.73
290.453	3.51
290.83	3.34
291.207	3.29
291.584	3.36
291.961	3.32
292.338	3.81
292.715	3.41
293.092	3.36
293.469	3.85
293.845	3.68
294.222	3.51
294.599	3.7
294.975	4.13
295.352	3.61
295.728	3.99
296.105	3.51
296.481	3.91
296.858	3.67
297.234	3.68
297.61	3.86
297.986	3.61
298.363	3.29
298.739	3.72
299.115	3.32
299.491	3.78
299.867	3.79
300.243	3.65
300.619	3.73
300.995	3.85
301.371	4
301.746	3.86
302.122	4.09
302.498	3.71
302.874	3.82
303.249	4.05
303.625	3.7
304	3.84
304.376	3.99
304.751	4.06
305.127	3.8
305.502	4.02
305.878	4
306.253	3.74
306.628	4.05
307.003	3.76
307.378	3.98
307.754	4.42
308.129	3.78
308.504	3.7
308.879	4.39
309.254	4.04
309.629	4.31
310.003	4.33
310.378	3.97
310.753	4.21
311.128	4.14
311.502	3.86
311.877	4.13
312.252	3.73
312.626	3.92
313.001	4.05
313.375	4.31
313.75	3.85
314.124	4.33
314.498	3.68
314.873	4.08
315.247	3.69
315.621	4.59
315.995	4.26
316.369	4.39
316.743	4.84
317.117	3.99
317.491	4.35
317.865	3.64
318.239	4.62
318.613	4.39
318.987	4.06
319.361	4.8
319.734	4.33
320.108	4.79
320.482	4.37
320.855	4.55
321.229	4.9
321.602	4.6
321.976	4.63
322.349	4.44
322.723	3.86
323.096	4.27
323.469	4.12
323.843	4.4
324.216	4.32
324.589	4.64
324.962	4.43
325.335	4.47
325.708	4.53
326.081	4.81
326.454	4.54
326.827	4.77
327.2	4.94
327.573	4.68
327.945	4.31
328.318	4.69
328.691	4.53
329.063	4.84
329.436	4.68
329.809	4.6
330.181	4.49
330.553	5.16
330.926	4.84
331.298	4.15
331.671	4.75
332.043	4.84
332.415	5.06
332.787	5.09
333.159	4.69
333.532	4.66
333.904	4.98
334.276	4.56
334.648	4.35
335.02	4.42
335.391	4.78
335.763	5.07
336.135	5.24
336.507	5.02
336.879	4.83
337.25	5.14
337.622	4.92
337.993	4.64
338.365	4.51
338.736	5.02
339.108	4.65
339.479	4.85
339.851	5.04
340.222	4.82
340.593	4.48
340.964	4.77
341.336	4.69
341.707	4.83
342.078	4.15
342.449	5.24
342.82	4.72
343.191	4.92
343.562	4.82
343.933	5.15
344.303	5.32
344.674	5.35
345.045	5.45
345.416	4.92
345.786	4.88
346.157	4.89
346.527	4.67
346.898	5
347.268	4.85
347.639	4.87
348.009	5.14
348.38	5.09
348.75	5.22
349.12	5.06
349.49	4.89
349.861	5.35
350.231	5.5
350.601	5.2
350.971	4.81
351.341	4.79
351.711	4.85
352.081	5.23
352.45	5.31
352.82	5.03
353.19	5.01
353.56	5.05
353.929	5.13
354.299	4.97
354.669	5.36
355.038	5.09
355.408	5.54
355.777	4.96
356.147	5.39
356.516	5.6
356.885	5.34
357.254	5.39
357.624	5.4
357.993	5.12
358.362	5.59
358.731	5.45
359.1	5.54
359.469	5.51
359.838	5.24
360.207	5.35
360.576	5.64
360.945	5.25
361.314	5.5
361.682	4.99
362.051	5.13
362.42	5.86
362.788	5.37
363.157	5.39
363.525	5.24
363.894	5.39
364.262	5.47
364.631	6.16
364.999	5.26
365.367	5.61
365.735	5.54
366.104	5.31
366.472	5.71
366.84	5.76
367.208	5.44
367.576	5.63
367.944	6.15
368.312	5.17
368.68	5.73
369.048	5.75
369.416	5.69
369.783	5.64
370.151	5.96
370.519	5.29
370.886	5.84
371.254	5.82
371.621	5.77
371.989	5.67
372.356	5.64
372.724	5.9
373.091	5.73
373.458	6.06
373.826	5.86
374.193	6.22
374.56	5.75
374.927	6.03
375.294	6.26
375.661	6.24
376.028	6.08
376.395	5.7
376.762	6.31
377.129	6.39
377.496	6.18
377.863	6.18
378.229	6.08
378.596	5.98
378.963	5.75
379.329	6.03
379.696	5.92
380.062	6.38
380.429	6.29
380.795	6
381.161	6.26
381.528	5.66
381.894	6.05
382.26	5.99
382.626	6.21
382.993	6.15
383.359	6.11
383.725	6.63
384.091	6.47
384.457	6.36
384.823	6.5
385.188	6.73
385.554	6.41
385.92	6.54
386.286	6.24
386.651	6.4
387.017	6.5
387.383	6.34
387.748	6.28
388.114	6.3
388.479	6.73
388.845	6.54
389.21	6.71
389.575	6.52
389.94	6.55
390.306	6.56
390.671	6.52
391.036	6.68
391.401	6.78
391.766	6.75
392.131	6.58
392.496	6.65
392.861	6.52
393.226	6.6
393.591	6.72
393.956	6.79
394.32	6.63
394.685	6.81
395.05	6.73
395.414	7.06
395.779	6.76
396.143	6.77
396.508	6.8
396.872	6.84
397.236	6.64
397.601	7.06
397.965	6.39
398.329	6.92
398.694	6.84
399.058	6.89
399.422	6.93
399.786	6.96
400.15	6.95
400.514	6.87
400.878	6.93
401.242	7.03
401.605	7.08
401.969	7.05
402.333	6.97
402.697	7.29
403.06	7.11
403.424	7.16
403.787	7.37
404.151	7.16
404.514	7.17
404.878	7.23
405.241	7.3
405.604	7.15
405.968	7.18
406.331	7.2
406.694	7.29
407.057	7.34
407.42	7.37
407.783	7.13
408.146	7.39
408.509	7.16
408.872	7.25
409.235	7.46
409.598	7.61
409.961	7.49
410.323	7.58
410.686	7.41
411.049	7.55
411.411	7.52
411.774	7.45
412.136	7.62
412.499	7.38
412.861	7.41
413.223	7.82
413.586	7.42
413.948	7.58
414.31	7.81
414.672	7.58
415.035	7.8
415.397	7.77
415.759	7.51
416.121	7.72
416.483	7.7
416.845	7.81
417.206	7.71
417.568	7.87
417.93	7.5
418.292	7.65
418.653	7.69
419.015	7.72
419.377	7.63
419.738	7.62
420.1	7.67
420.461	7.56
420.822	7.67
421.184	7.73
421.545	7.77
421.906	7.7
422.267	7.57
422.629	7.68
422.99	7.61
423.351	7.75
423.712	7.87
424.073	7.9
424.434	7.67
424.795	7.67
425.155	7.83
425.516	7.73
425.877	7.83
426.238	7.82
426.598	7.97
426.959	7.96
427.32	8.16
427.68	8.14
428.041	8.13
428.401	8.09
428.761	8.29
429.122	8.22
429.482	8.19
429.842	8.29
430.202	8.33
430.563	8.27
430.923	8.16
431.283	8.35
431.643	8.35
432.003	8.35
432.363	8.5
432.722	8.45
433.082	8.41
433.442	8.26
433.802	8.4
434.161	8.33
434.521	8.25
434.881	8.43
435.24	8.22
435.6	8.44
435.959	8.41
436.319	8.46
436.678	8.55
437.037	8.64
437.396	8.65
437.756	8.66
438.115	8.72
438.474	8.66
438.833	8.84
439.192	8.81
439.551	8.67
439.91	8.69
440.269	8.84
440.628	8.51
440.987	8.66
441.345	8.58
441.704	8.69
442.063	8.65
442.421	8.81
442.78	8.71
443.138	8.77
443.497	8.85
443.855	9.02
444.214	8.92
444.572	8.82
444.93	9.16
445.288	9
445.647	9.09
446.005	8.9
446.363	8.96
446.721	8.83
447.079	8.9
447.437	8.83
447.795	8.93
448.153	8.92
448.51	8.96
448.868	9.19
449.226	9.14
449.584	9.21
449.941	9.2
450.299	9.34
450.656	9.19
451.014	9.29
451.371	9.33
451.729	9.28
452.086	9.43
452.443	9.4
452.801	9.64
453.158	9.46
453.515	9.37
453.872	9.47
454.229	9.43
454.586	9.48
454.943	9.52
455.3	9.81
455.657	9.53
456.014	9.55
456.371	9.69
456.727	9.46
457.084	9.79
457.441	9.72
457.797	9.71
458.154	9.86
458.51	9.75
458.867	9.72
459.223	9.68
459.58	9.75
459.936	9.67
460.292	9.87
460.648	9.67
461.005	9.54
461.361	9.54
461.717	9.65
462.073	9.81
462.429	9.91
462.785	10.02
463.141	10.13
463.496	9.98
463.852	10.31
464.208	10.08
464.564	10.16
464.919	10.19
465.275	10.27
465.631	10.35
465.986	10.22
466.342	10.26
466.697	10.43
467.052	10.43
467.408	10.36
467.763	10.23
468.118	10.45
468.473	10.42
468.829	10.3
469.184	10.49
469.539	10.42
469.894	10.36
470.249	10.6
470.603	10.59
470.958	10.68
471.313	10.48
471.668	10.88
472.023	10.65
472.377	10.67
472.732	10.8
473.086	10.64
473.441	10.77
473.795	10.84
474.15	10.77
474.504	10.71
474.859	10.75
475.213	10.79
475.567	10.96
475.921	10.92
476.275	10.84
476.63	10.93
476.984	11.15
477.338	11.29
477.692	11.13
478.045	10.94
478.399	10.95
478.753	10.77
479.107	10.98
479.461	11.02
479.814	11.1
480.168	10.97
480.521	10.95
480.875	11.3
481.228	11.29
481.582	11.04
481.935	11.13
482.289	11.16
482.642	11.12
482.995	11.03
483.348	11.12
483.701	10.89
484.055	10.87
484.408	10.73
484.761	10.39
485.114	10.26
485.466	10.32
485.819	10.48
486.172	10.77
486.525	10.96
486.878	11.04
487.23	11.2
487.583	11.11
487.936	11.1
488.288	10.92
488.641	10.79
488.993	10.75
489.345	10.8
489.698	10.93
490.05	11.03
490.402	11.28
490.754	11.42
491.107	11.53
491.459	11.62
491.811	11.56
492.163	11.5
492.515	11.18
492.866	11.02
493.218	11.04
493.57	11.26
493.922	11.49
494.274	11.66
494.625	11.66
494.977	11.87
495.328	12
495.68	12.15
496.031	12.12
496.383	12.03
496.734	12.29
497.086	12.1
497.437	12.19
497.788	11.97
498.139	11.87
498.49	12.08
498.842	12.1
499.193	12.13
499.544	12.3
499.894	12.26
500.245	12.21
500.596	12.26
500.947	12.34
501.298	12.5
501.648	12.41
501.999	12.55
502.35	12.79
502.7	12.73
503.051	12.59
503.401	12.56
503.752	12.69
504.102	12.68
504.452	12.54
504.803	12.58
505.153	12.72
505.503	12.61
505.853	12.54
506.203	12.76
506.553	12.71
506.903	12.85
507.253	12.8
507.603	12.93
507.953	12.99
508.303	13.01
508.652	12.94
509.002	12.82
509.352	12.85
509.701	12.83
510.051	12.79
510.4	12.84
510.75	12.92
511.099	12.94
511.449	12.89
511.798	13.14
512.147	12.98
512.496	13.14
512.846	13.16
513.195	12.97
513.544	12.95
513.893	13.07
514.242	13.2
514.591	13.19
514.939	13.12
515.288	13.38
515.637	13.44
515.986	13.3
516.334	13.39
516.683	13.44
517.032	13.44
517.38	13.49
517.729	13.41
518.077	13.45
518.426	13.45
518.774	13.48
519.122	13.14
519.47	13.26
519.819	13.14
520.167	13.2
520.515	13.19
520.863	13.26
521.211	13.37
521.559	13.5
521.907	13.51
522.255	13.65
522.602	13.7
522.95	13.82
523.298	13.81
523.645	13.78
523.993	13.88
524.341	13.84
524.688	13.98
525.036	13.92
525.383	14.05
525.73	13.89
526.078	13.92
526.425	13.78
526.772	13.4
527.119	13.51
527.466	13.53
527.814	13.63
528.161	13.67
528.508	13.71
528.854	13.61
529.201	13.47
529.548	13.12
529.895	12.96
530.242	12.99
530.588	13.23
530.935	13.42
531.282	13.58
531.628	13.74
531.975	13.85
532.321	13.84
532.667	13.97
533.014	14.07
533.36	14.09
533.706	13.92
534.052	13.8
534.399	13.65
534.745	13.46
535.091	13.62
535.437	13.95
535.783	14.09
536.129	14.19
536.474	14.29
536.82	14.3
537.166	14.35
537.512	14.31
537.857	14.02
538.203	14.07
538.549	14.27
538.894	14.31
539.239	14.62
539.585	14.68
539.93	14.82
540.276	14.78
540.621	14.76
540.966	14.83
541.311	14.83
541.656	14.47
542.001	14.42
542.346	14.17
542.691	13.94
543.036	13.94
543.381	14.29
543.726	14.3
544.071	14.54
544.415	14.56
544.76	14.42
545.105	14.71
545.449	14.73
545.794	14.91
546.138	15.01
546.483	15.04
546.827	14.95
547.171	15.04
547.516	15.07
547.86	15.06
548.204	14.91
548.548	15.06
548.892	15.02
549.236	15.31
549.58	15.28
549.924	15.42
550.268	15.58
550.612	15.65
550.956	15.67
551.3	15.86
551.643	15.69
551.987	15.73
552.33	15.77
552.674	15.81
553.017	15.8
553.361	15.84
553.704	15.67
554.048	15.69
554.391	15.66
554.734	15.75
555.077	15.89
555.42	15.77
555.764	15.9
556.107	16.02
556.45	16.09
556.793	16.28
557.135	16.32
557.478	16.19
557.821	16.22
558.164	16.19
558.507	16.04
558.849	16.22
559.192	16.44
559.534	16.11
559.877	16.46
560.219	16.23
560.562	16.36
560.904	16.18
561.246	16.59
561.589	16.33
561.931	16.56
562.273	16.4
562.615	16.54
562.957	16.55
563.299	16.31
563.641	16.55
563.983	16.64
564.325	16.33
564.667	16.53
565.008	16.47
565.35	16.56
565.692	16.74
566.033	16.63
566.375	16.47
566.716	16.5
567.058	16.8
567.399	16.47
567.741	16.63
568.082	16.4
568.423	16.6
568.764	16.73
569.105	16.79
569.447	16.82
569.788	16.9
570.129	16.81
570.47	16.98
570.811	16.92
571.151	16.94
571.492	16.98
571.833	16.9
572.174	16.96
572.514	16.7
572.855	16.93
573.195	16.65
573.536	16.8
573.876	16.74
574.217	16.83
574.557	16.93
574.898	16.91
575.238	17.03
575.578	17.19
575.918	17.14
576.258	17.06
576.598	16.99
576.938	17.13
577.278	16.99
577.618	17.15
577.958	17.04
578.298	17.51
578.638	17.22
578.977	17.38
579.317	17.55
579.657	17.64
579.996	17.52
580.336	17.25
580.675	17.76
581.014	17.85
581.354	17.81
581.693	17.52
582.032	17.69
582.372	17.63
582.711	17.67
583.05	17.94
583.389	17.96
583.728	18.13
584.067	18.04
584.406	17.98
584.745	17.9
585.083	18.09
585.422	18.05
585.761	18.21
586.1	18.19
586.438	18.01
586.777	18.02
587.115	18.18
587.454	18.12
587.792	17.88
588.13	18.25
588.469	18.12
588.807	18.17
589.145	18.33
589.483	18.18
589.821	18.3
590.159	18.38
590.497	18.22
590.835	18.23
591.173	18.47
591.511	18.2
591.849	18.23
592.187	18.33
592.524	18.21
592.862	18.59
593.2	18.62
593.537	18.39
593.875	18.54
594.212	18.42
594.55	18.36
594.887	18.51
595.224	18.52
595.561	18.28
595.899	18.57
596.236	18.66
596.573	18.28
596.91	18.57
597.247	18.41
597.584	18.47
597.921	18.52
598.258	18.22
598.594	18.01
598.931	18.38
599.268	18.42
599.604	18.77
599.941	18.77
600.277	18.76
600.614	18.74
600.95	19.01
601.287	18.96
601.623	19.02
601.959	18.98
602.296	19.04
602.632	19.25
602.968	18.86
603.304	19.07
603.64	18.99
603.976	18.93
604.312	19.12
604.648	19.07
604.984	18.86
605.319	18.9
605.655	18.79
605.991	18.81
606.326	18.65
606.662	18.53
606.998	18.88
607.333	19.03
607.668	19.02
608.004	19.23
608.339	19.33
608.674	19.41
609.01	19.29
609.345	19.58
609.68	19.26
610.015	19.48
610.35	19.24
610.685	19.11
611.02	19.14
611.355	19.35
611.689	19.05
612.024	19.51
612.359	19.38
612.694	19.79
613.028	19.96
613.363	19.88
613.697	19.68
614.032	19.81
614.366	19.78
614.7	19.99
615.035	20.01
615.369	20.13
615.703	20.06
616.037	19.83
616.371	19.75
616.705	19.75
617.039	20.26
617.373	19.93
617.707	20.05
618.041	19.99
618.375	19.92
618.709	20.17
619.042	19.95
619.376	20.17
619.71	19.97
620.043	19.81
620.377	19.95
620.71	20.24
621.043	19.88
621.377	20.11
621.71	20.47
622.043	20.03
622.376	19.96
622.709	20.51
623.043	19.92
623.376	20.56
623.709	20.52
624.041	20.28
624.374	20.53
624.707	20.25
625.04	20.42
625.373	20.27
625.705	20.69
626.038	20.57
626.37	20.47
626.703	20.65
627.035	20.51
627.368	20.66
627.7	20.27
628.032	20.32
628.365	20.18
628.697	20.29
629.029	20.54
629.361	20.28
629.693	20.96
630.025	20.59
630.357	20.8
630.689	21
631.021	21.03
631.353	20.77
631.684	21.21
632.016	20.56
632.348	20.82
632.679	20.96
633.011	20.9
633.342	20.69
633.674	20.97
634.005	21.18
634.336	21.38
634.668	20.85
634.999	21.1
635.33	20.87
635.661	21.19
635.992	21.16
636.323	21.1
636.654	21.15
636.985	20.91
637.316	21.3
637.647	21.59
637.977	21.14
638.308	21.07
638.639	21.08
638.969	20.99
639.3	21.42
639.63	21.28
639.961	21.49
640.291	21.76
640.622	21.58
640.952	21.31
641.282	21.35
641.612	21.57
641.943	21.53
642.273	21.25
642.603	21.8
642.933	21.83
643.263	21.93
643.592	21.52
643.922	21.91
644.252	21.89
644.582	21.8
644.911	21.73
645.241	21.73
645.571	22.02
645.9	22.11
646.23	21.51
646.559	21.73
646.888	21.91
647.218	21.87
647.547	22.09
647.876	22.08
648.205	21.93
648.534	21.9
648.863	22.05
649.192	21.81
649.521	22.06
649.85	22.07
650.179	22.21
650.508	22.48
650.837	21.88
651.165	22.23
651.494	22.24
651.822	22.25
652.151	22.44
652.479	22.25
652.808	22.22
653.136	22.1
653.465	22.36
653.793	22.25
654.121	22.56
654.449	22.06
654.777	22.26
655.105	22.68
655.433	22.7
655.761	22.06
656.089	22.43
656.417	22.17
656.745	22.66
657.073	23.03
657.4	22.79
657.728	22.02
658.056	22.32
658.383	22.83
658.711	22.4
659.038	23.02
659.365	22.86
659.693	22.64
660.02	22.66
660.347	22.39
660.674	22.52
661.001	22.22
661.329	22.61
661.656	22.86
661.982	22.65
662.309	22.51
662.636	22.9
662.963	23.06
663.29	22.89
663.616	22.8
663.943	23.11
664.27	23.24
664.596	22.71
664.923	23.05
665.249	23.13
665.576	23.19
665.902	23.13
666.228	23.68
666.554	23.27
666.881	23.4
667.207	23.29
667.533	23.36
667.859	22.81
668.185	23.14
668.511	23.07
668.837	22.81
669.162	23.29
669.488	23.21
669.814	23.62
670.139	23.54
670.465	23.32
670.791	23.55
671.116	23.26
671.442	23.77
671.767	23.33
672.092	24.04
672.418	23.73
672.743	23.43
673.068	23.45
673.393	23.6
673.718	23.32
674.043	23.58
674.368	24.09
674.693	24.25
675.018	23.15
675.343	23.61
675.667	23.59
675.992	23.56
676.317	24.38
676.641	23.62
676.966	23.96
677.29	24.02
677.615	23.24
677.939	23.48
