Data from 0061_chest_Reflection__2__180.txt Node

Date: Fri Dec 16 15:25:39 CST 2022
User: ToomeyLab
Spectrometer: FLMS14357
Trigger mode: 0
Integration Time (sec): 1.000000E-2
Scans to average: 100
Electric dark correction enabled: true
Nonlinearity correction enabled: false
Boxcar width: 0
XAxis mode: Wavelengths
Number of Pixels in Spectrum: 2048
>>>>>Begin Spectral Data<<<<<
189.047	74.84
189.435	74.84
189.823	74.84
190.211	147.82
190.599	60.33
190.987	-171.57
191.375	265.26
191.763	24.97
192.151	-200.6
192.538	26.72
192.926	-86.01
193.314	11.21
193.702	19.71
194.089	-1637.5
194.477	71.04
194.864	60.82
195.252	-25.26
195.639	68.93
196.027	-143.19
196.414	-23.78
196.801	-131.02
197.189	106.71
197.576	43.43
197.963	-883.27
198.351	-1.86
198.738	-14.63
199.125	6.9
199.512	-21.27
199.899	-36.95
200.286	-44.16
200.673	49.73
201.06	3.33
201.447	34.56
201.833	-5.84
202.22	14
202.607	21.13
202.994	-10.93
203.38	-48.07
203.767	-35.73
204.154	-18.44
204.54	25.94
204.927	-18.82
205.313	10.61
205.699	-25.19
206.086	8.2
206.472	16.93
206.858	-17.57
207.245	39.14
207.631	-20.26
208.017	6.06
208.403	4.86
208.789	25.34
209.175	40.75
209.561	-3.58
209.947	2.36
210.333	-12.01
210.719	-17.42
211.105	6.27
211.491	8.4
211.876	-17.18
212.262	-37.36
212.648	-38.35
213.034	-15.34
213.419	1.6
213.805	1.25
214.19	21.48
214.576	-24.46
214.961	-12.92
215.346	-63.66
215.732	-1.96
216.117	-46.39
216.502	-48.22
216.888	-47.93
217.273	15.4
217.658	-52.56
218.043	-12.73
218.428	-4.7
218.813	-20.21
219.198	-0.09
219.583	-1.21
219.968	-21.34
220.353	23.45
220.738	4.11
221.122	-7.46
221.507	-1
221.892	3.91
222.276	-2.13
222.661	-0.93
223.046	-5.49
223.43	-1.61
223.815	-0.35
224.199	0.21
224.583	-5.97
224.968	4.37
225.352	4.92
225.736	-1.48
226.121	-8.7
226.505	0.17
226.889	6.25
227.273	1.38
227.657	-2.92
228.041	3.15
228.425	4.94
228.809	4.39
229.193	2.71
229.577	2.5
229.961	3.42
230.344	3.65
230.728	3.58
231.112	3.58
231.495	3.71
231.879	3.63
232.263	2.08
232.646	2.55
233.03	2.93
233.413	1.54
233.797	4.21
234.18	-2.01
234.563	0.93
234.946	1.03
235.33	4.29
235.713	3.1
236.096	0.92
236.479	5.17
236.862	4.11
237.245	3.69
237.628	3.84
238.011	3.02
238.394	4.01
238.777	2.75
239.16	1.06
239.543	2.87
239.925	4.54
240.308	4.42
240.691	2.91
241.073	3.06
241.456	3.15
241.838	2.46
242.221	3.55
242.603	2.86
242.986	4.5
243.368	3.74
243.75	3.06
244.133	3.17
244.515	3.08
244.897	3.05
245.279	2.57
245.661	3.4
246.043	3.2
246.425	2.74
246.807	2.82
247.189	2.84
247.571	3.37
247.953	3.57
248.335	3.6
248.717	3.31
249.098	3.35
249.48	3.26
249.862	3.66
250.243	3.25
250.625	3.39
251.006	2.83
251.388	3.43
251.769	2.96
252.151	3.18
252.532	3.46
252.913	3.65
253.295	3.5
253.676	3.1
254.057	2.99
254.438	2.76
254.819	3.61
255.2	3
255.581	2.12
255.962	3.02
256.343	4.22
256.724	1.98
257.105	2.46
257.486	3.81
257.867	1.86
258.247	2.63
258.628	3.63
259.009	3.48
259.389	3.62
259.77	2.78
260.15	3.73
260.531	3.39
260.911	3.17
261.292	3.3
261.672	3.08
262.052	3.16
262.432	3.13
262.813	3.67
263.193	2.59
263.573	3.6
263.953	3.05
264.333	3.34
264.713	3.31
265.093	2.9
265.473	3.5
265.853	3.26
266.233	3.53
266.612	3.67
266.992	2.76
267.372	2.79
267.752	2.84
268.131	3.36
268.511	2.87
268.89	3.84
269.27	3.5
269.649	3.63
270.029	3.34
270.408	3.23
270.787	3.09
271.167	3.1
271.546	2.25
271.925	3.04
272.304	3.16
272.683	2.79
273.062	3.21
273.441	3.45
273.82	3.13
274.199	2.98
274.578	2.58
274.957	3.23
275.336	2.92
275.715	2.96
276.093	3.68
276.472	3.27
276.851	3.72
277.229	3.83
277.608	3.22
277.986	2.88
278.365	2.78
278.743	3.31
279.122	2.5
279.5	2.9
279.878	2.31
280.257	3.26
280.635	2.81
281.013	3.17
281.391	3.02
281.769	2.44
282.147	2.91
282.525	3.21
282.903	3.34
283.281	3.14
283.659	3.2
284.037	2.95
284.415	3.13
284.792	3.06
285.17	2.88
285.548	3.03
285.925	3.06
286.303	2.85
286.68	3.21
287.058	3.03
287.435	3.04
287.813	3.02
288.19	3.41
288.567	3
288.945	3.28
289.322	3.56
289.699	3.27
290.076	3.27
290.453	3.05
290.83	3.35
291.207	3
291.584	2.99
291.961	3.39
292.338	3.11
292.715	3.5
293.092	3.45
293.469	3.28
293.845	3.37
294.222	3
294.599	3.32
294.975	3.44
295.352	2.82
295.728	3.52
296.105	3.13
296.481	3.4
296.858	3.54
297.234	3.39
297.61	3.28
297.986	3.48
298.363	2.97
298.739	3.72
299.115	3.34
299.491	3.52
299.867	3.31
300.243	2.99
300.619	3.67
300.995	3.61
301.371	3.51
301.746	3.36
302.122	3.31
302.498	3.44
302.874	3.36
303.249	3.57
303.625	3.33
304	2.73
304.376	3.17
304.751	3.53
305.127	3.09
305.502	4
305.878	3.35
306.253	3.27
306.628	3.7
307.003	3.9
307.378	3.2
307.754	3.75
308.129	2.71
308.504	3.48
308.879	4.09
309.254	3.71
309.629	3.2
310.003	3.77
310.378	3.8
310.753	3.86
311.128	3.35
311.502	3.61
311.877	3.4
312.252	3.43
312.626	3.62
313.001	3.65
313.375	3.93
313.75	3
314.124	3.58
314.498	3.68
314.873	3.08
315.247	3.23
315.621	3.74
315.995	3.88
316.369	3.4
316.743	3.87
317.117	3.31
317.491	3.73
317.865	3.31
318.239	4.03
318.613	3.45
318.987	3.63
319.361	3.48
319.734	3.24
320.108	3.46
320.482	3.66
320.855	3.69
321.229	4.54
321.602	3.72
321.976	3.49
322.349	3.63
322.723	3.04
323.096	3.97
323.469	2.82
323.843	3.49
324.216	3.48
324.589	4.3
324.962	3.84
325.335	3.99
325.708	3.66
326.081	3.76
326.454	3.88
326.827	3.54
327.2	4.1
327.573	3.84
327.945	4.11
328.318	3.91
328.691	4.23
329.063	3.88
329.436	3.57
329.809	3.73
330.181	3.37
330.553	3.57
330.926	3.91
331.298	3.56
331.671	3.85
332.043	3.63
332.415	4.01
332.787	3.99
333.159	3.99
333.532	3.51
333.904	4.17
334.276	3.88
334.648	4
335.02	3.53
335.391	3.92
335.763	3.61
336.135	3.59
336.507	3.85
336.879	3.96
337.25	3.88
337.622	4.27
337.993	4.09
338.365	4.08
338.736	3.63
339.108	3.78
339.479	3.8
339.851	4.36
340.222	3.75
340.593	3.91
340.964	3.48
341.336	3.54
341.707	4.05
342.078	3.67
342.449	4.21
342.82	3.26
343.191	3.75
343.562	4.21
343.933	3.7
344.303	4.06
344.674	3.98
345.045	4.21
345.416	3.9
345.786	3.79
346.157	3.99
346.527	3.66
346.898	3.93
347.268	3.88
347.639	3.59
348.009	4.05
348.38	3.64
348.75	3.78
349.12	4.01
349.49	3.51
349.861	4.26
350.231	4.17
350.601	3.87
350.971	3.6
351.341	3.89
351.711	4.24
352.081	4.11
352.45	4.18
352.82	3.79
353.19	3.6
353.56	4.04
353.929	3.99
354.299	3.94
354.669	4.29
355.038	4.01
355.408	4.25
355.777	3.84
356.147	4.32
356.516	4.2
356.885	4.05
357.254	3.87
357.624	3.68
357.993	4.2
358.362	4.17
358.731	4.02
359.1	4.14
359.469	4.16
359.838	4.05
360.207	3.85
360.576	4.08
360.945	3.86
361.314	4.15
361.682	3.92
362.051	3.88
362.42	4.22
362.788	4.12
363.157	3.92
363.525	4.04
363.894	3.91
364.262	4.04
364.631	4.75
364.999	3.95
365.367	4.27
365.735	3.68
366.104	3.9
366.472	4.44
366.84	4.17
367.208	4.02
367.576	4.34
367.944	4.19
368.312	3.85
368.68	4.16
369.048	4.28
369.416	4
369.783	4.11
370.151	4.13
370.519	3.97
370.886	3.88
371.254	4.02
371.621	4.05
371.989	4.13
372.356	3.98
372.724	4.13
373.091	4.2
373.458	4.24
373.826	4.16
374.193	4.63
374.56	3.9
374.927	4.08
375.294	4.48
375.661	3.93
376.028	4.23
376.395	4.15
376.762	4.24
377.129	4.1
377.496	4.28
377.863	4.32
378.229	4.13
378.596	4.25
378.963	4.33
379.329	4.17
379.696	4.35
380.062	4.39
380.429	4.05
380.795	4.1
381.161	4.1
381.528	3.96
381.894	4.32
382.26	4.03
382.626	4.13
382.993	4
383.359	4.38
383.725	4.41
384.091	4.27
384.457	4.44
384.823	3.92
385.188	4.15
385.554	4.49
385.92	4.5
386.286	4.53
386.651	4.35
387.017	4.37
387.383	4.44
387.748	4.13
388.114	4.28
388.479	4.39
388.845	4.44
389.21	4.64
389.575	4.53
389.94	4.43
390.306	4.08
390.671	4.25
391.036	4.56
391.401	4.77
391.766	4.52
392.131	4.42
392.496	4.34
392.861	4.32
393.226	4.52
393.591	4.45
393.956	4.58
394.32	4.45
394.685	4.54
395.05	4.33
395.414	4.57
395.779	4.34
396.143	4.42
396.508	4.55
396.872	4.56
397.236	4.14
397.601	4.34
397.965	4.15
398.329	4.54
398.694	4.36
399.058	4.13
399.422	4.55
399.786	4.79
400.15	4.36
400.514	4.55
400.878	4.64
401.242	4.6
401.605	4.62
401.969	4.54
402.333	4.44
402.697	4.64
403.06	4.63
403.424	4.67
403.787	4.62
404.151	4.27
404.514	4.63
404.878	4.62
405.241	4.6
405.604	4.63
405.968	4.66
406.331	4.66
406.694	4.71
407.057	4.86
407.42	4.63
407.783	4.65
408.146	4.48
408.509	4.47
408.872	4.4
409.235	4.59
409.598	4.75
409.961	4.74
410.323	4.47
410.686	4.58
411.049	4.4
411.411	4.92
411.774	4.65
412.136	4.56
412.499	4.5
412.861	4.57
413.223	4.81
413.586	4.4
413.948	4.55
414.31	4.66
414.672	4.47
415.035	4.79
415.397	4.78
415.759	4.84
416.121	5.12
416.483	4.88
416.845	4.71
417.206	4.66
417.568	4.7
417.93	4.74
418.292	4.7
418.653	4.7
419.015	4.82
419.377	4.78
419.738	4.81
420.1	4.69
420.461	4.73
420.822	4.72
421.184	4.72
421.545	4.74
421.906	4.75
422.267	4.66
422.629	4.74
422.99	4.77
423.351	4.75
423.712	4.69
424.073	4.81
424.434	4.69
424.795	4.71
425.155	4.69
425.516	4.72
425.877	4.84
426.238	4.67
426.598	4.75
426.959	4.71
427.32	4.79
427.68	4.86
428.041	4.88
428.401	4.61
428.761	4.83
429.122	4.81
429.482	4.69
429.842	4.96
430.202	4.91
430.563	4.91
430.923	4.94
431.283	4.87
431.643	4.8
432.003	4.86
432.363	4.97
432.722	4.79
433.082	4.87
433.442	4.97
433.802	5
434.161	4.94
434.521	5.01
434.881	4.98
435.24	4.8
435.6	4.9
435.959	5.03
436.319	5.03
436.678	5.06
437.037	4.86
437.396	5.02
437.756	4.98
438.115	5.06
438.474	5.05
438.833	5.1
439.192	5.14
439.551	5.1
439.91	5.15
440.269	5.22
440.628	4.96
440.987	4.99
441.345	4.99
441.704	4.97
442.063	4.98
442.421	5.1
442.78	4.95
443.138	4.99
443.497	4.91
443.855	5
444.214	5.07
444.572	4.93
444.93	5.1
445.288	5.12
445.647	5.07
446.005	5.1
446.363	5.05
446.721	4.98
447.079	5.08
447.437	5.02
447.795	5.1
448.153	5.03
448.51	5.03
448.868	5.09
449.226	5.01
449.584	5.05
449.941	5.15
450.299	5.2
450.656	5.2
451.014	5.03
451.371	5.14
451.729	5.25
452.086	5.27
452.443	5.1
452.801	5.33
453.158	5.15
453.515	5.14
453.872	5.28
454.229	5.12
454.586	5.08
454.943	5.19
455.3	5.42
455.657	5.1
456.014	5.28
456.371	5.25
456.727	5.07
457.084	5.11
457.441	5.23
457.797	5.38
458.154	5.22
458.51	5.2
458.867	5.16
459.223	5.29
459.58	5.37
459.936	5.28
460.292	5.25
460.648	5.18
461.005	5.23
461.361	5.23
461.717	5.26
462.073	5.33
462.429	5.38
462.785	5.43
463.141	5.33
463.496	5.45
463.852	5.4
464.208	5.39
464.564	5.49
464.919	5.38
465.275	5.38
465.631	5.34
465.986	5.37
466.342	5.52
466.697	5.55
467.052	5.51
467.408	5.45
467.763	5.37
468.118	5.47
468.473	5.57
468.829	5.54
469.184	5.62
469.539	5.4
469.894	5.4
470.249	5.61
470.603	5.5
470.958	5.55
471.313	5.42
471.668	5.64
472.023	5.76
472.377	5.63
472.732	5.62
473.086	5.51
473.441	5.66
473.795	5.64
474.15	5.44
474.504	5.56
474.859	5.54
475.213	5.49
475.567	5.59
475.921	5.61
476.275	5.61
476.63	5.55
476.984	5.51
477.338	6
477.692	5.62
478.045	5.59
478.399	5.67
478.753	5.57
479.107	5.73
479.461	5.6
479.814	5.72
480.168	5.7
480.521	5.59
480.875	5.86
481.228	5.75
481.582	5.5
481.935	5.76
482.289	5.62
482.642	5.7
482.995	5.65
483.348	5.72
483.701	5.57
484.055	5.58
484.408	5.53
484.761	5.41
485.114	5.38
485.466	5.41
485.819	5.41
486.172	5.51
486.525	5.52
486.878	5.57
487.23	5.59
487.583	5.63
487.936	5.64
488.288	5.6
488.641	5.58
488.993	5.5
489.345	5.55
489.698	5.62
490.05	5.62
490.402	5.76
490.754	5.79
491.107	5.72
491.459	5.77
491.811	5.89
492.163	5.87
492.515	5.82
492.866	5.64
493.218	5.67
493.57	5.72
493.922	5.75
494.274	5.81
494.625	5.87
494.977	5.8
495.328	6.03
495.68	6.04
496.031	5.99
496.383	5.97
496.734	6.13
497.086	5.88
497.437	6.1
497.788	6.03
498.139	6.03
498.49	6.01
498.842	5.94
499.193	6.06
499.544	6.14
499.894	6.11
500.245	6.01
500.596	6.09
500.947	6.05
501.298	6.03
501.648	6.09
501.999	6.28
502.35	6.28
502.7	6.23
503.051	6.32
503.401	6.25
503.752	6.16
504.102	6.25
504.452	6.19
504.803	6.06
505.153	6.2
505.503	6.27
505.853	6.25
506.203	6.23
506.553	6.3
506.903	6.2
507.253	6.28
507.603	6.19
507.953	6.42
508.303	6.39
508.652	6.33
509.002	6.31
509.352	6.44
509.701	6.38
510.051	6.37
510.4	6.28
510.75	6.37
511.099	6.33
511.449	6.37
511.798	6.52
512.147	6.47
512.496	6.58
512.846	6.36
513.195	6.41
513.544	6.46
513.893	6.43
514.242	6.45
514.591	6.48
514.939	6.46
515.288	6.46
515.637	6.66
515.986	6.42
516.334	6.69
516.683	6.58
517.032	6.54
517.38	6.71
517.729	6.6
518.077	6.65
518.426	6.56
518.774	6.66
519.122	6.6
519.47	6.59
519.819	6.62
520.167	6.6
520.515	6.55
520.863	6.57
521.211	6.69
521.559	6.6
521.907	6.64
522.255	6.82
522.602	6.92
522.95	6.9
523.298	6.79
523.645	6.79
523.993	6.91
524.341	6.9
524.688	6.86
525.036	6.94
525.383	7.02
525.73	6.99
526.078	6.91
526.425	6.97
526.772	6.74
527.119	6.78
527.466	6.8
527.814	6.85
528.161	6.9
528.508	6.95
528.854	6.82
529.201	6.85
529.548	6.8
529.895	6.76
530.242	6.73
530.588	6.82
530.935	6.84
531.282	6.85
531.628	6.96
531.975	6.97
532.321	7.08
532.667	7.05
533.014	7.07
533.36	7.11
533.706	7.08
534.052	7.03
534.399	7
534.745	7
535.091	7.05
535.437	7.08
535.783	7.24
536.129	7.19
536.474	7.37
536.82	7.25
537.166	7.33
537.512	7.32
537.857	7.23
538.203	7.3
538.549	7.33
538.894	7.37
539.239	7.53
539.585	7.5
539.93	7.54
540.276	7.54
540.621	7.53
540.966	7.58
541.311	7.71
541.656	7.55
542.001	7.63
542.346	7.4
542.691	7.43
543.036	7.36
543.381	7.48
543.726	7.54
544.071	7.56
544.415	7.65
544.76	7.53
545.105	7.67
545.449	7.68
545.794	7.83
546.138	7.85
546.483	7.81
546.827	7.81
547.171	7.82
547.516	7.97
547.86	7.87
548.204	7.8
548.548	8.07
548.892	7.93
549.236	8.04
549.58	8.02
549.924	8.16
550.268	8.21
550.612	8.21
550.956	8.06
551.3	8.15
551.643	8.37
551.987	8.05
552.33	8.22
552.674	8.41
553.017	8.42
553.361	8.41
553.704	8.23
554.048	8.32
554.391	8.38
554.734	8.26
555.077	8.49
555.42	8.4
555.764	8.4
556.107	8.55
556.45	8.47
556.793	8.61
557.135	8.78
557.478	8.83
557.821	8.65
558.164	8.57
558.507	8.45
558.849	8.72
559.192	8.82
559.534	8.67
559.877	8.83
560.219	8.88
560.562	8.75
560.904	8.69
561.246	8.88
561.589	8.88
561.931	8.89
562.273	8.74
562.615	8.93
562.957	8.99
563.299	9
563.641	9.1
563.983	8.93
564.325	8.95
564.667	8.9
565.008	9.09
565.35	9.11
565.692	9.35
566.033	9.12
566.375	8.99
566.716	9.25
567.058	9.25
567.399	9.27
567.741	9.31
568.082	9.18
568.423	9.33
568.764	9.32
569.105	9.41
569.447	9.24
569.788	9.24
570.129	9.49
570.47	9.54
570.811	9.56
571.151	9.47
571.492	9.7
571.833	9.64
572.174	9.45
572.514	9.57
572.855	9.48
573.195	9.5
573.536	9.67
573.876	9.55
574.217	9.74
574.557	9.83
574.898	9.6
575.238	9.45
575.578	10.06
575.918	9.81
576.258	9.7
576.598	9.74
576.938	9.96
577.278	9.79
577.618	9.95
577.958	10
578.298	10.11
578.638	9.96
578.977	10.1
579.317	10.19
579.657	10.3
579.996	10.19
580.336	10.18
580.675	10.46
581.014	10.21
581.354	10.29
581.693	10.37
582.032	10.26
582.372	10.47
582.711	10.41
583.05	10.4
583.389	10.68
583.728	10.81
584.067	10.33
584.406	10.66
584.745	10.82
585.083	10.82
585.422	10.64
585.761	10.83
586.1	10.94
586.438	10.81
586.777	10.7
587.115	10.76
587.454	10.88
587.792	10.76
588.13	11.13
588.469	10.95
588.807	11.05
589.145	11.15
589.483	10.98
589.821	11.03
590.159	10.88
590.497	10.93
590.835	11.11
591.173	11.22
591.511	11.22
591.849	11.26
592.187	11.23
592.524	11.29
592.862	11.35
593.2	11.37
593.537	11.38
593.875	11.53
594.212	11.39
594.55	11.58
594.887	11.8
595.224	11.69
595.561	11.58
595.899	11.59
596.236	11.59
596.573	11.57
596.91	11.6
597.247	11.6
597.584	11.79
597.921	11.77
598.258	11.71
598.594	11.6
598.931	11.66
599.268	11.83
599.604	11.77
599.941	11.92
600.277	12.04
600.614	11.98
600.95	12.34
601.287	12.22
601.623	12.41
601.959	12.18
602.296	12.18
602.632	12.22
602.968	12.15
603.304	12.12
603.64	12.43
603.976	12.29
604.312	12.4
604.648	12.53
604.984	12.29
605.319	12.53
605.655	12.45
605.991	12.42
606.326	12.33
606.662	12.3
606.998	12.6
607.333	12.67
607.668	12.42
608.004	12.58
608.339	12.79
608.674	12.33
609.01	12.62
609.345	13.12
609.68	12.65
610.015	12.9
610.35	12.78
610.685	12.85
611.02	13.04
611.355	13.02
611.689	12.89
612.024	13.01
612.359	13.03
612.694	12.97
613.028	13.43
613.363	12.87
613.697	13.32
614.032	13.33
614.366	13.09
614.7	13.49
615.035	13.13
615.369	13.41
615.703	13.51
616.037	13.49
616.371	13.27
616.705	13.44
617.039	13.88
617.373	13.67
617.707	13.71
618.041	13.48
618.375	13.54
618.709	13.79
619.042	13.7
619.376	13.66
619.71	13.68
620.043	13.61
620.377	13.63
620.71	13.86
621.043	13.72
621.377	13.84
621.71	14.04
622.043	14.12
622.376	13.61
622.709	13.91
623.043	13.9
623.376	14.25
623.709	14.52
624.041	14.09
624.374	14.25
624.707	14.23
625.04	14.18
625.373	13.99
625.705	14.17
626.038	14.19
626.37	14.41
626.703	14.43
627.035	14.69
627.368	14.83
627.7	14.59
628.032	14.54
628.365	14.59
628.697	14.56
629.029	14.84
629.361	14.55
629.693	14.65
630.025	14.79
630.357	14.5
630.689	14.88
631.021	14.82
631.353	14.83
631.684	15.22
632.016	14.71
632.348	15.19
632.679	14.95
633.011	15.05
633.342	14.95
633.674	15.14
634.005	15.02
634.336	15.19
634.668	15.02
634.999	15.2
635.33	15.4
635.661	15.49
635.992	15.17
636.323	15.49
636.654	15.68
636.985	15.35
637.316	15.29
637.647	15.44
637.977	15.46
638.308	15.36
638.639	15.44
638.969	15.32
639.3	15.54
639.63	15.56
639.961	15.84
640.291	16.11
640.622	15.83
640.952	15.54
641.282	15.74
641.612	15.72
641.943	15.74
642.273	16.23
642.603	16.08
642.933	15.99
643.263	16.06
643.592	15.84
643.922	16.24
644.252	16.28
644.582	16.25
644.911	16.26
645.241	15.68
645.571	15.87
645.9	16.27
646.23	16.01
646.559	16.13
646.888	16.28
647.218	16.12
647.547	16.45
647.876	16.74
648.205	16.31
648.534	16.47
648.863	16.93
649.192	16.18
649.521	16.42
649.85	16.51
650.179	16.43
650.508	16.86
650.837	16.95
651.165	16.68
651.494	16.95
651.822	16.93
652.151	17.35
652.479	17.37
652.808	16.81
653.136	16.94
653.465	16.74
653.793	16.7
654.121	17.42
654.449	16.75
654.777	16.78
655.105	17.68
655.433	17.22
655.761	17.22
656.089	16.92
656.417	16.89
656.745	17.5
657.073	17.85
657.4	17.46
657.728	17.54
658.056	17.8
658.383	17.48
658.711	17.59
659.038	17.68
659.365	17.54
659.693	17.53
660.02	17.63
660.347	17.47
660.674	17.25
661.001	17.43
661.329	17.63
661.656	17.7
661.982	17.93
662.309	18.1
662.636	17.66
662.963	17.89
663.29	17.47
663.616	18.26
663.943	18.4
664.27	18.14
664.596	18.15
664.923	18.49
665.249	18.03
665.576	18.02
665.902	18.05
666.228	18.22
666.554	18.07
666.881	18.13
667.207	18.22
667.533	17.9
667.859	18.26
668.185	18.48
668.511	18.22
668.837	17.72
669.162	18.97
669.488	18.61
669.814	19.15
670.139	18.4
670.465	18.32
670.791	18.97
671.116	18.76
671.442	18.72
671.767	18.67
672.092	18.48
672.418	18.81
672.743	18.82
673.068	18.57
673.393	18.88
673.718	18.81
674.043	19.11
674.368	18.84
674.693	18.97
675.018	18.87
675.343	18.92
675.667	18.91
675.992	18.56
676.317	19.58
676.641	19.18
676.966	19.77
677.29	18.66
677.615	19.03
677.939	18.86
678.264	18.96
678.588	19.06
678.912	19.72
679.236	19.26
679.56	19.12
679.885	19.44
680.209	18.73
680.532	19.32
680.856	19.19
681.18	19.2
681.504	19.76
681.828	19
682.152	19.78
682.475	19.8
682.799	19.85
683.122	19.78
683.446	19.3
683.769	19.91
684.093	20.14
684.416	20.27
684.739	19.88
685.062	20.02
685.386	19.83
685.709	19.92
