Data from 0061_chest_Reflection__1__179.txt Node

Date: Fri Dec 16 15:25:28 CST 2022
User: ToomeyLab
Spectrometer: FLMS14357
Trigger mode: 0
Integration Time (sec): 1.000000E-2
Scans to average: 100
Electric dark correction enabled: true
Nonlinearity correction enabled: false
Boxcar width: 0
XAxis mode: Wavelengths
Number of Pixels in Spectrum: 2048
>>>>>Begin Spectral Data<<<<<
189.047	307.55
189.435	307.55
189.823	307.55
190.211	25.28
190.599	-901.09
190.987	95.33
191.375	30.53
191.763	8.99
192.151	-3120.24
192.538	49.29
192.926	39.24
193.314	25.35
193.702	60.11
194.089	3134.09
194.477	-15.29
194.864	32.71
195.252	20.06
195.639	66.94
196.027	229.74
196.414	91.43
196.801	-36.11
197.189	104.61
197.576	1.17
197.963	-512.69
198.351	-1.14
198.738	-8.19
199.125	-11.58
199.512	-11.87
199.899	-47.53
200.286	-2.63
200.673	10.54
201.06	7.01
201.447	23.2
201.833	-31.16
202.22	16.89
202.607	-7.91
202.994	-4.42
203.38	-38.12
203.767	-14.15
204.154	-37.87
204.54	14.56
204.927	-15.84
205.313	27.54
205.699	17.22
206.086	-44.44
206.472	-1.89
206.858	-16.69
207.245	-7.01
207.631	-2.57
208.017	-3.7
208.403	19.4
208.789	-7.01
209.175	22.66
209.561	0.25
209.947	-14.18
210.333	-30.88
210.719	-15.53
211.105	-95.84
211.491	-40.52
211.876	-14.83
212.262	-20.79
212.648	-44.54
213.034	-2.57
213.419	17.64
213.805	15.4
214.19	-32.97
214.576	27.96
214.961	0.24
215.346	-12.56
215.732	-13.48
216.117	-76.3
216.502	-58.56
216.888	-17.99
217.273	2.33
217.658	-67.04
218.043	8.16
218.428	35.14
218.813	1.58
219.198	-37.62
219.583	9.38
219.968	-19.09
220.353	12.59
220.738	-5.08
221.122	-31.04
221.507	-10
221.892	-0.4
222.276	7.64
222.661	-14.18
223.046	2.44
223.43	-5.89
223.815	0.54
224.199	5.5
224.583	1.3
224.968	-3.71
225.352	-12.5
225.736	-1.53
226.121	-5.02
226.505	-2.82
226.889	8.2
227.273	2.99
227.657	-2.79
228.041	-0.32
228.425	-1.42
228.809	-0.38
229.193	0.6
229.577	1.34
229.961	1.09
230.344	1.56
230.728	1.19
231.112	1.25
231.495	-0.15
231.879	2.47
232.263	1.16
232.646	0.38
233.03	-1.48
233.413	-0.34
233.797	1.37
234.18	-0.19
234.563	-0.18
234.946	-0.17
235.33	2.18
235.713	0.79
236.096	-0.37
236.479	2.49
236.862	2.32
237.245	2.41
237.628	1.39
238.011	0.32
238.394	3.28
238.777	1.23
239.16	-0.82
239.543	-0.37
239.925	0.52
240.308	2.09
240.691	0.47
241.073	1.54
241.456	1.02
241.838	0.98
242.221	1.05
242.603	1.33
242.986	1.81
243.368	1.23
243.75	0.99
244.133	1.18
244.515	1.11
244.897	1.24
245.279	1.4
245.661	1.28
246.043	1.25
246.425	0.65
246.807	1.07
247.189	0.87
247.571	1.19
247.953	1.06
248.335	1.39
248.717	1.27
249.098	1.37
249.48	1.41
249.862	1.17
250.243	1.38
250.625	1.22
251.006	0.8
251.388	1.65
251.769	0.63
252.151	0.7
252.532	1.23
252.913	1.77
253.295	1.12
253.676	1.51
254.057	1.25
254.438	0.51
254.819	1.36
255.2	0.85
255.581	0.36
255.962	0.14
256.343	1.38
256.724	1.21
257.105	0.5
257.486	1.41
257.867	0.06
258.247	1.44
258.628	2.07
259.009	0.83
259.389	1.24
259.77	0.85
260.15	1.95
260.531	1.33
260.911	1.22
261.292	1.3
261.672	1.17
262.052	1.21
262.432	0.76
262.813	1.66
263.193	0.68
263.573	1.33
263.953	1.4
264.333	1.21
264.713	1.17
265.093	1.12
265.473	2.21
265.853	1.25
266.233	1
266.612	1.39
266.992	1.06
267.372	0.85
267.752	0.98
268.131	0.96
268.511	1.1
268.89	1.48
269.27	1.49
269.649	1.55
270.029	1.18
270.408	1.32
270.787	1.31
271.167	1.62
271.546	0.12
271.925	0.79
272.304	1.7
272.683	1.01
273.062	1.01
273.441	1.6
273.82	1.7
274.199	1.25
274.578	0.9
274.957	1.4
275.336	0.83
275.715	1.23
276.093	2.15
276.472	1.5
276.851	1.53
277.229	1.91
277.608	1.21
277.986	1.14
278.365	0.96
278.743	1.07
279.122	0.68
279.5	0.51
279.878	1.11
280.257	1.25
280.635	0.7
281.013	1.15
281.391	0.82
281.769	0.88
282.147	1.18
282.525	0.81
282.903	1.22
283.281	1.28
283.659	1.18
284.037	0.94
284.415	1.14
284.792	1.16
285.17	0.69
285.548	0.73
285.925	1.01
286.303	0.98
286.68	1.56
287.058	1.28
287.435	1.14
287.813	0.89
288.19	1.24
288.567	1.07
288.945	1.28
289.322	1.08
289.699	1.38
290.076	1.92
290.453	1.38
290.83	1.38
291.207	1
291.584	0.95
291.961	1.12
292.338	1.27
292.715	1.07
293.092	1.44
293.469	1.4
293.845	1.09
294.222	0.89
294.599	1.2
294.975	1.3
295.352	0.93
295.728	1.26
296.105	1.43
296.481	1.82
296.858	1.65
297.234	1.04
297.61	1.55
297.986	1.34
298.363	1.14
298.739	1.38
299.115	1.18
299.491	1.19
299.867	1.27
300.243	1.5
300.619	0.95
300.995	1.31
301.371	1.54
301.746	1.24
302.122	1.68
302.498	1.2
302.874	1.39
303.249	1.23
303.625	1.31
304	1.19
304.376	1.37
304.751	1.08
305.127	1.45
305.502	1.58
305.878	1.32
306.253	1.4
306.628	2
307.003	1.62
307.378	1.08
307.754	1.23
308.129	1.67
308.504	1.07
308.879	1.66
309.254	1.51
309.629	0.86
310.003	1.64
310.378	1.66
310.753	1.1
311.128	1.78
311.502	1.21
311.877	1.32
312.252	1.42
312.626	1.17
313.001	1.53
313.375	1.35
313.75	1.27
314.124	1.95
314.498	1.3
314.873	1.9
315.247	0.85
315.621	1.7
315.995	1.09
316.369	1.75
316.743	1.69
317.117	1.42
317.491	1.59
317.865	0.4
318.239	1.68
318.613	1.08
318.987	2.03
319.361	1.66
319.734	1.85
320.108	1.83
320.482	1.35
320.855	1.29
321.229	2.5
321.602	1.91
321.976	1.29
322.349	1.19
322.723	1.43
323.096	1.05
323.469	0.98
323.843	1.36
324.216	0.9
324.589	2.07
324.962	1.61
325.335	1.17
325.708	1.76
326.081	1.84
326.454	1.46
326.827	1.72
327.2	1.58
327.573	1.97
327.945	1.1
328.318	1.7
328.691	1.48
329.063	1.27
329.436	1.24
329.809	0.87
330.181	1.78
330.553	2.06
330.926	1.99
331.298	1.4
331.671	1.36
332.043	1.77
332.415	2.08
332.787	1.96
333.159	1.28
333.532	1.88
333.904	1.91
334.276	1.45
334.648	1.64
335.02	1.28
335.391	1.96
335.763	1.35
336.135	2.01
336.507	1.86
336.879	1.24
337.25	1.86
337.622	2.11
337.993	1.91
338.365	2.09
338.736	1.85
339.108	1.16
339.479	1.74
339.851	1.87
340.222	1.82
340.593	1.18
340.964	1.89
341.336	1.08
341.707	1.54
342.078	1.43
342.449	1.89
342.82	1.41
343.191	1.49
343.562	1.3
343.933	1.76
344.303	1.9
344.674	1.37
345.045	2.01
345.416	1.69
345.786	1.34
346.157	2.04
346.527	1.4
346.898	1.33
347.268	1.42
347.639	1.72
348.009	2.36
348.38	1.5
348.75	1.84
349.12	1.54
349.49	1.5
349.861	2.17
350.231	1.82
350.601	1.87
350.971	1.54
351.341	1.58
351.711	1.58
352.081	1.85
352.45	1.63
352.82	1.66
353.19	1.64
353.56	1.73
353.929	1.65
354.299	1.42
354.669	1.52
355.038	1.98
355.408	2.26
355.777	1.81
356.147	1.74
356.516	1.78
356.885	1.79
357.254	1.71
357.624	1.96
357.993	1.77
358.362	1.97
358.731	1.67
359.1	1.94
359.469	1.6
359.838	1.57
360.207	1.5
360.576	1.6
360.945	1.75
361.314	1.83
361.682	1.52
362.051	1.65
362.42	2.26
362.788	2
363.157	1.62
363.525	1.77
363.894	1.66
364.262	1.87
364.631	2.15
364.999	1.88
365.367	1.72
365.735	1.6
366.104	1.82
366.472	1.99
366.84	1.66
367.208	1.57
367.576	1.88
367.944	2
368.312	1.78
368.68	2.11
369.048	2.16
369.416	1.72
369.783	1.96
370.151	2.14
370.519	1.66
370.886	1.84
371.254	1.68
371.621	1.56
371.989	1.9
372.356	1.81
372.724	1.82
373.091	1.73
373.458	1.79
373.826	1.73
374.193	2.29
374.56	1.7
374.927	1.66
375.294	2.25
375.661	1.78
376.028	1.81
376.395	1.56
376.762	1.97
377.129	2.01
377.496	1.79
377.863	2.03
378.229	1.82
378.596	1.72
378.963	1.86
379.329	1.83
379.696	1.91
380.062	1.98
380.429	1.79
380.795	1.73
381.161	1.88
381.528	1.57
381.894	1.91
382.26	2.03
382.626	1.7
382.993	1.73
383.359	1.93
383.725	2.2
384.091	1.87
384.457	1.76
384.823	1.92
385.188	1.99
385.554	1.9
385.92	2.27
386.286	2.09
386.651	1.78
387.017	2.13
387.383	2.01
387.748	1.93
388.114	1.88
388.479	2.06
388.845	2.07
389.21	2.11
389.575	1.92
389.94	2.14
390.306	2.04
390.671	1.97
391.036	2.17
391.401	2.09
391.766	2.1
392.131	2
392.496	2.09
392.861	1.9
393.226	2.08
393.591	2
393.956	2.13
394.32	1.99
394.685	2.32
395.05	1.89
395.414	2.19
395.779	2.03
396.143	2
396.508	2.05
396.872	2.02
397.236	1.89
397.601	2.22
397.965	2.06
398.329	2.41
398.694	1.86
399.058	1.99
399.422	2.22
399.786	2.02
400.15	2.03
400.514	1.89
400.878	1.88
401.242	2.17
401.605	2.09
401.969	1.99
402.333	1.93
402.697	2.11
403.06	2.29
403.424	2
403.787	1.89
404.151	1.8
404.514	2.29
404.878	2.18
405.241	2.27
405.604	2.1
405.968	2.12
406.331	2.2
406.694	2.27
407.057	2.45
407.42	2.19
407.783	2.25
408.146	2.13
408.509	2.05
408.872	1.84
409.235	2.25
409.598	2.42
409.961	2.26
410.323	2.2
410.686	1.91
411.049	2.15
411.411	2.06
411.774	2.08
412.136	2.39
412.499	1.9
412.861	1.87
413.223	2.24
413.586	2.06
413.948	2.14
414.31	2.37
414.672	2.15
415.035	2.22
415.397	2.21
415.759	2.02
416.121	2.42
416.483	2.27
416.845	2.17
417.206	2.13
417.568	2.16
417.93	2.26
418.292	2.13
418.653	2.22
419.015	2.21
419.377	2.19
419.738	2.13
420.1	2.1
420.461	2.22
420.822	2.27
421.184	2.21
421.545	2.14
421.906	2.17
422.267	2.01
422.629	2.19
422.99	2.19
423.351	2.23
423.712	2.19
424.073	2.3
424.434	2.15
424.795	2.17
425.155	2.2
425.516	2.16
425.877	2.2
426.238	2.14
426.598	2.27
426.959	2.21
427.32	2.23
427.68	2.27
428.041	2.38
428.401	2.16
428.761	2.23
429.122	2.29
429.482	2.18
429.842	2.23
430.202	2.36
430.563	2.25
430.923	2.29
431.283	2.36
431.643	2.23
432.003	2.47
432.363	2.38
432.722	2.26
433.082	2.24
433.442	2.32
433.802	2.31
434.161	2.32
434.521	2.2
434.881	2.44
435.24	2.32
435.6	2.22
435.959	2.34
436.319	2.35
436.678	2.34
437.037	2.36
437.396	2.42
437.756	2.44
438.115	2.29
438.474	2.36
438.833	2.38
439.192	2.38
439.551	2.36
439.91	2.46
440.269	2.51
440.628	2.43
440.987	2.21
441.345	2.25
441.704	2.38
442.063	2.32
442.421	2.3
442.78	2.3
443.138	2.27
443.497	2.24
443.855	2.29
444.214	2.46
444.572	2.29
444.93	2.56
445.288	2.45
445.647	2.44
446.005	2.25
446.363	2.26
446.721	2.2
447.079	2.35
447.437	2.24
447.795	2.34
448.153	2.28
448.51	2.35
448.868	2.47
449.226	2.37
449.584	2.36
449.941	2.48
450.299	2.38
450.656	2.44
451.014	2.37
451.371	2.4
451.729	2.56
452.086	2.34
452.443	2.49
452.801	2.47
453.158	2.59
453.515	2.3
453.872	2.6
454.229	2.38
454.586	2.48
454.943	2.47
455.3	2.68
455.657	2.46
456.014	2.54
456.371	2.55
456.727	2.45
457.084	2.55
457.441	2.45
457.797	2.47
458.154	2.5
458.51	2.47
458.867	2.35
459.223	2.56
459.58	2.39
459.936	2.48
460.292	2.51
460.648	2.44
461.005	2.33
461.361	2.41
461.717	2.45
462.073	2.48
462.429	2.42
462.785	2.49
463.141	2.45
463.496	2.4
463.852	2.7
464.208	2.54
464.564	2.4
464.919	2.5
465.275	2.52
465.631	2.58
465.986	2.38
466.342	2.57
466.697	2.43
467.052	2.6
467.408	2.49
467.763	2.38
468.118	2.54
468.473	2.71
468.829	2.52
469.184	2.75
469.539	2.48
469.894	2.54
470.249	2.56
470.603	2.64
470.958	2.63
471.313	2.49
471.668	2.66
472.023	2.73
472.377	2.6
472.732	2.53
473.086	2.39
473.441	2.64
473.795	2.64
474.15	2.63
474.504	2.47
474.859	2.63
475.213	2.69
475.567	2.49
475.921	2.72
476.275	2.68
476.63	2.52
476.984	2.57
477.338	2.83
477.692	2.65
478.045	2.6
478.399	2.58
478.753	2.57
479.107	2.57
479.461	2.57
479.814	2.62
480.168	2.6
480.521	2.62
480.875	2.79
481.228	2.76
481.582	2.66
481.935	2.61
482.289	2.56
482.642	2.65
482.995	2.67
483.348	2.68
483.701	2.48
484.055	2.62
484.408	2.52
484.761	2.47
485.114	2.43
485.466	2.46
485.819	2.49
486.172	2.61
486.525	2.66
486.878	2.64
487.23	2.66
487.583	2.63
487.936	2.65
488.288	2.58
488.641	2.57
488.993	2.52
489.345	2.54
489.698	2.6
490.05	2.61
490.402	2.75
490.754	2.74
491.107	2.75
491.459	2.69
491.811	2.79
492.163	2.73
492.515	2.65
492.866	2.55
493.218	2.57
493.57	2.67
493.922	2.65
494.274	2.8
494.625	2.69
494.977	2.74
495.328	2.84
495.68	2.9
496.031	2.81
496.383	2.82
496.734	2.95
497.086	2.76
497.437	2.84
497.788	2.79
498.139	2.86
498.49	2.86
498.842	2.74
499.193	2.9
499.544	2.96
499.894	2.89
500.245	2.78
500.596	2.85
500.947	2.86
501.298	2.85
501.648	2.89
501.999	3
502.35	2.94
502.7	3.01
503.051	3.03
503.401	3.01
503.752	2.81
504.102	2.98
504.452	2.78
504.803	2.71
505.153	3
505.503	2.86
505.853	2.79
506.203	2.9
506.553	2.84
506.903	2.87
507.253	3.04
507.603	2.83
507.953	3.11
508.303	2.97
508.652	2.97
509.002	3.02
509.352	3.12
509.701	3.01
510.051	3.03
510.4	2.98
510.75	2.93
511.099	2.94
511.449	2.97
511.798	3.05
512.147	3.06
512.496	3.06
512.846	2.94
513.195	2.99
513.544	2.96
513.893	2.93
514.242	3.11
514.591	3.01
514.939	2.93
515.288	3.04
515.637	3.22
515.986	2.98
516.334	3.12
516.683	3.04
517.032	3.04
517.38	3.17
517.729	3.09
518.077	3.08
518.426	3.05
518.774	3.06
519.122	3.05
519.47	3.08
519.819	3.01
520.167	3.06
520.515	3.04
520.863	3.06
521.211	3.11
521.559	3.17
521.907	3.12
522.255	3.19
522.602	3.32
522.95	3.17
523.298	3.2
523.645	3.17
523.993	3.35
524.341	3.2
524.688	3.24
525.036	3.28
525.383	3.27
525.73	3.1
526.078	3.28
526.425	3.28
526.772	3.11
527.119	3.13
527.466	3.16
527.814	3.19
528.161	3.24
528.508	3.19
528.854	3.21
529.201	3.15
529.548	3.08
529.895	3.05
530.242	3.06
530.588	3.17
530.935	3.23
531.282	3.24
531.628	3.32
531.975	3.35
532.321	3.25
532.667	3.29
533.014	3.41
533.36	3.39
533.706	3.37
534.052	3.29
534.399	3.27
534.745	3.22
535.091	3.29
535.437	3.33
535.783	3.44
536.129	3.43
536.474	3.54
536.82	3.4
537.166	3.46
537.512	3.46
537.857	3.4
538.203	3.39
538.549	3.48
538.894	3.43
539.239	3.61
539.585	3.53
539.93	3.55
540.276	3.49
540.621	3.5
540.966	3.52
541.311	3.52
541.656	3.49
542.001	3.56
542.346	3.43
542.691	3.39
543.036	3.4
543.381	3.49
543.726	3.55
544.071	3.67
544.415	3.61
544.76	3.5
545.105	3.68
545.449	3.58
545.794	3.68
546.138	3.78
546.483	3.69
546.827	3.72
547.171	3.65
547.516	3.84
547.86	3.69
548.204	3.67
548.548	3.84
548.892	3.84
549.236	3.85
549.58	3.96
549.924	3.88
550.268	4.04
550.612	3.92
550.956	3.78
551.3	3.82
551.643	3.92
551.987	4.06
552.33	3.96
552.674	3.99
553.017	4.13
553.361	3.87
553.704	3.98
554.048	3.99
554.391	4.01
554.734	3.95
555.077	4.2
555.42	4.07
555.764	3.97
556.107	4.15
556.45	4.05
556.793	4.26
557.135	4.28
557.478	4.29
557.821	4.17
558.164	4.11
558.507	3.94
558.849	4.05
559.192	4.23
559.534	4.1
559.877	4.38
560.219	4.34
560.562	4.29
560.904	4.07
561.246	4.33
561.589	4.34
561.931	4.38
562.273	4.26
562.615	4.39
562.957	4.22
563.299	4.49
563.641	4.41
563.983	4.49
564.325	4.35
564.667	4.37
565.008	4.24
565.35	4.49
565.692	4.37
566.033	4.52
566.375	4.42
566.716	4.61
567.058	4.58
567.399	4.48
567.741	4.6
568.082	4.48
568.423	4.55
568.764	4.53
569.105	4.69
569.447	4.57
569.788	4.63
570.129	4.68
570.47	4.68
570.811	4.62
571.151	4.67
571.492	4.74
571.833	4.78
572.174	4.81
572.514	4.62
572.855	4.68
573.195	4.59
573.536	4.81
573.876	4.68
574.217	4.86
574.557	4.8
574.898	4.69
575.238	4.72
575.578	5.2
575.918	4.94
576.258	4.88
576.598	4.89
576.938	5.14
577.278	4.96
577.618	5.03
577.958	5.07
578.298	5.14
578.638	5.04
578.977	5.2
579.317	5.23
579.657	5
579.996	5
580.336	5.05
580.675	5.21
581.014	5.11
581.354	5.31
581.693	5.52
582.032	5.24
582.372	5.18
582.711	5.28
583.05	5.32
583.389	5.51
583.728	5.23
584.067	5.16
584.406	5.66
584.745	5.43
585.083	5.46
585.422	5.43
585.761	5.53
586.1	5.56
586.438	5.73
586.777	5.5
587.115	5.6
587.454	5.57
587.792	5.33
588.13	5.83
588.469	5.75
588.807	5.85
589.145	5.58
589.483	5.43
589.821	5.64
590.159	5.67
590.497	5.72
590.835	5.72
591.173	5.92
591.511	5.65
591.849	6.04
592.187	5.87
592.524	5.81
592.862	5.84
593.2	5.94
593.537	5.86
593.875	5.71
594.212	5.76
594.55	5.96
594.887	5.89
595.224	5.87
595.561	6.05
595.899	5.92
596.236	6.11
596.573	6.07
596.91	6.02
597.247	6.09
597.584	6.04
597.921	6.06
598.258	6.18
598.594	5.92
598.931	6.14
599.268	6.23
599.604	6.27
599.941	6.29
600.277	6.39
600.614	6.34
600.95	6.43
601.287	6.4
601.623	6.44
601.959	6.48
602.296	6.41
602.632	6.64
602.968	6.75
603.304	6.42
603.64	6.4
603.976	6.5
604.312	6.81
604.648	6.66
604.984	6.63
605.319	6.48
605.655	6.64
605.991	6.64
606.326	6.48
606.662	6.55
606.998	6.65
607.333	6.81
607.668	6.79
608.004	6.81
608.339	6.73
608.674	6.92
609.01	6.98
609.345	7.11
609.68	6.87
610.015	6.99
610.35	6.92
610.685	6.91
611.02	7.04
611.355	7
611.689	6.83
612.024	6.93
612.359	7.31
612.694	7.26
613.028	7.43
613.363	7.1
613.697	7.13
614.032	7.26
614.366	7.04
614.7	7.62
615.035	7.19
615.369	7.28
615.703	7.76
616.037	7.48
616.371	7.36
616.705	7.4
617.039	7.58
617.373	7.42
617.707	7.22
618.041	7.79
618.375	7.68
618.709	7.72
619.042	7.59
619.376	7.42
619.71	7.8
620.043	7.55
620.377	7.63
620.71	7.96
621.043	7.47
621.377	7.64
621.71	7.9
622.043	8.13
622.376	7.43
622.709	8.3
623.043	7.79
623.376	8
623.709	8.16
624.041	7.87
624.374	7.6
624.707	7.91
625.04	8.06
625.373	8.04
625.705	8.07
626.038	8.04
626.37	7.84
626.703	7.97
627.035	8.3
627.368	8.51
627.7	8.17
628.032	7.91
628.365	7.99
628.697	8.16
629.029	8.29
629.361	8.08
629.693	8.57
630.025	8.22
630.357	8.21
630.689	8.61
631.021	8.54
631.353	8.64
631.684	8.47
632.016	8.54
632.348	8.82
632.679	8.23
633.011	8.63
633.342	8.6
633.674	8.87
634.005	8.85
634.336	8.64
634.668	8.48
634.999	8.51
635.33	8.76
635.661	8.71
635.992	8.84
636.323	8.79
636.654	8.87
636.985	8.7
637.316	8.75
637.647	8.97
637.977	9.14
638.308	8.83
638.639	8.59
638.969	8.91
639.3	8.92
639.63	8.69
639.961	9.08
640.291	9.23
640.622	9.5
640.952	9.3
641.282	8.61
641.612	8.97
641.943	9.27
642.273	9.08
642.603	9.27
642.933	9.08
643.263	9.4
643.592	9.72
643.922	9.67
644.252	9.87
644.582	9.27
644.911	9.25
645.241	9.57
645.571	9.7
645.9	9.9
646.23	9.48
646.559	9.56
646.888	9.59
647.218	9.63
647.547	9.78
647.876	9.76
648.205	9.62
648.534	9.72
648.863	9.79
649.192	9.44
649.521	9.63
649.85	9.87
650.179	9.63
650.508	9.62
650.837	10.21
651.165	10.17
651.494	9.84
651.822	9.89
652.151	10.52
652.479	10.23
652.808	9.99
653.136	9.91
653.465	10.55
653.793	10.55
654.121	10.55
654.449	10.1
654.777	10.25
655.105	10.54
655.433	10.61
655.761	10.25
656.089	10.71
656.417	9.82
656.745	10.82
657.073	11.01
657.4	10.53
657.728	10.34
658.056	10.78
658.383	10.86
658.711	10.49
659.038	11.13
659.365	10.94
659.693	10.58
660.02	10.65
660.347	10.8
660.674	10.52
661.001	10.28
661.329	10.79
661.656	10.48
661.982	11
662.309	11.03
662.636	11.16
662.963	11.16
663.29	10.84
663.616	11.54
663.943	11.08
664.27	11
664.596	10.96
664.923	11.62
665.249	11.44
665.576	11
665.902	11.28
666.228	10.97
666.554	10.93
666.881	11.51
667.207	11.31
667.533	11.38
667.859	11.17
668.185	11.29
668.511	11.22
668.837	10.68
669.162	11.28
669.488	11.45
669.814	11.95
670.139	12.33
670.465	11.33
670.791	11.69
671.116	11.64
671.442	11.48
671.767	11.45
672.092	12.39
672.418	11.74
672.743	11.77
673.068	11.77
673.393	11.98
673.718	11.95
674.043	11.41
674.368	11.93
674.693	12.12
675.018	11.44
675.343	12.33
675.667	12.01
675.992	11.5
676.317	12.17
676.641	11.82
676.966	12.02
677.29	11.87
677.615	12.29
677.939	12.5
678.264	12.21
678.588	12.52
678.912	12.67
679.236	12.2
679.56	12.38
679.885	12.38
680.209	11.51
680.532	12.46
680.856	12.64
681.18	12.44
681.504	12.44
681.828	11.92
682.152	12.73
682.475	12.95
682.799	12.93
683.122	12.28
683.446	12.16
683.769	12.92
684.093	12.6
684.416	13.22
684.739	12.53
685.062	13.63
685.386	13.16
685.709	12.77
686.032	13.3
686.355	12.3
686.678	12.44
687.001	12.32
687.324	12.92
687.646	12.83
687.969	12.78
688.292	13.65
688.614	14.05
688.937	13.38
689.26	12.63
689.582	13.14
689.904	13.5
