Data from 0061_forehead_Reflection__4__192.txt Node

Date: Fri Dec 16 15:29:08 CST 2022
User: ToomeyLab
Spectrometer: FLMS14357
Trigger mode: 0
Integration Time (sec): 1.000000E-2
Scans to average: 100
Electric dark correction enabled: true
Nonlinearity correction enabled: false
Boxcar width: 0
XAxis mode: Wavelengths
Number of Pixels in Spectrum: 2048
>>>>>Begin Spectral Data<<<<<
189.047	207.29
189.435	207.29
189.823	207.29
190.211	16.72
190.599	961.41
190.987	122.12
191.375	353.33
191.763	-26.3
192.151	24.4
192.538	123.61
192.926	-16.64
193.314	147.03
193.702	24.2
194.089	2901.14
194.477	38.98
194.864	190.17
195.252	92.61
195.639	108.42
196.027	34.66
196.414	179.38
196.801	15.63
197.189	60.83
197.576	10.15
197.963	-659.81
198.351	40.6
198.738	-7.3
199.125	23.84
199.512	16.73
199.899	19.57
200.286	12.12
200.673	25.79
201.06	47.77
201.447	43.17
201.833	-3.71
202.22	56.62
202.607	23.19
202.994	26.02
203.38	-38.08
203.767	5.15
204.154	7.69
204.54	20.47
204.927	30.43
205.313	37.71
205.699	15.44
206.086	5.94
206.472	16.64
206.858	14.7
207.245	34.67
207.631	47.5
208.017	25.36
208.403	16.78
208.789	-3.64
209.175	61.1
209.561	7.31
209.947	-11.16
210.333	-9.27
210.719	21.53
211.105	-7.7
211.491	54.12
211.876	-24.15
212.262	-0.57
212.648	-31.42
213.034	6.68
213.419	18.6
213.805	4
214.19	13.65
214.576	-37.93
214.961	12.31
215.346	7.74
215.732	0.24
216.117	-1.1
216.502	34.65
216.888	-17.96
217.273	1.39
217.658	-5.1
218.043	-9.29
218.428	12.7
218.813	20.93
219.198	-18.91
219.583	9.89
219.968	10.73
220.353	27.32
220.738	4.68
221.122	-4.11
221.507	20.02
221.892	20.69
222.276	21.89
222.661	12
223.046	25.89
223.43	18.74
223.815	10.79
224.199	6.12
224.583	5.19
224.968	15.16
225.352	4.91
225.736	16.65
226.121	6.51
226.505	2.05
226.889	14.56
227.273	12.1
227.657	3.32
228.041	4.65
228.425	10.19
228.809	7.26
229.193	4.81
229.577	5.3
229.961	6.38
230.344	6.28
230.728	6.42
231.112	5.57
231.495	5.71
231.879	8.39
232.263	5.32
232.646	6.21
233.03	5.51
233.413	5.32
233.797	8.16
234.18	4.82
234.563	4.52
234.946	6.42
235.33	7.27
235.713	6.68
236.096	6.1
236.479	7.73
236.862	6.74
237.245	7.69
237.628	7.06
238.011	6.4
238.394	7.28
238.777	6.02
239.16	4.25
239.543	5.73
239.925	6.09
240.308	8.81
240.691	7.14
241.073	6.67
241.456	6.34
241.838	5.95
242.221	6.4
242.603	6.03
242.986	6.9
243.368	5.85
243.75	6.06
244.133	6.07
244.515	6.2
244.897	5.95
245.279	6.7
245.661	5.36
246.043	7.54
246.425	5.82
246.807	5.82
247.189	6.18
247.571	6.32
247.953	5.86
248.335	6.09
248.717	5.87
249.098	5.71
249.48	5.75
249.862	6.05
250.243	5.99
250.625	5.73
251.006	5.46
251.388	7.32
251.769	5.98
252.151	6.33
252.532	6.66
252.913	6.05
253.295	5.82
253.676	6
254.057	5.51
254.438	5.98
254.819	6.75
255.2	5.38
255.581	5.74
255.962	6.49
256.343	6.89
256.724	6.93
257.105	5.75
257.486	5.77
257.867	5.31
258.247	6.52
258.628	6.96
259.009	6.04
259.389	5.74
259.77	5.77
260.15	6.23
260.531	5.91
260.911	5.79
261.292	5.8
261.672	5.64
262.052	5.54
262.432	5.63
262.813	5.42
263.193	5.62
263.573	5.87
263.953	5.85
264.333	5.68
264.713	5.73
265.093	5.54
265.473	6.79
265.853	5.39
266.233	5.53
266.612	5.92
266.992	5.31
267.372	5.91
267.752	5.4
268.131	5.77
268.511	6.26
268.89	5.6
269.27	6.03
269.649	5.66
270.029	5.78
270.408	6.21
270.787	5.81
271.167	5.77
271.546	5.72
271.925	5.42
272.304	5.65
272.683	5.35
273.062	6.03
273.441	5.68
273.82	5.93
274.199	6.08
274.578	5.08
274.957	5.96
275.336	5.66
275.715	6.14
276.093	6.11
276.472	5.46
276.851	5.73
277.229	5.97
277.608	5.67
277.986	5.42
278.365	5.6
278.743	5.78
279.122	5.33
279.5	5.3
279.878	4.74
280.257	5.86
280.635	5.33
281.013	5.89
281.391	5.78
281.769	5.31
282.147	5.94
282.525	5.24
282.903	5.73
283.281	5.71
283.659	5.45
284.037	5.44
284.415	5.82
284.792	5.73
285.17	5.61
285.548	5.58
285.925	5.95
286.303	5.51
286.68	5.85
287.058	5.68
287.435	5.37
287.813	5.48
288.19	5.81
288.567	5.81
288.945	5.28
289.322	5.65
289.699	5.48
290.076	5.83
290.453	5.71
290.83	5.96
291.207	5.68
291.584	5.64
291.961	5.54
292.338	5.98
292.715	5.84
293.092	5.56
293.469	5.93
293.845	5.95
294.222	5.87
294.599	6.13
294.975	5.96
295.352	5.96
295.728	6.4
296.105	5.72
296.481	6.36
296.858	6.26
297.234	6.06
297.61	6.03
297.986	6.06
298.363	6.03
298.739	6.13
299.115	5.53
299.491	5.77
299.867	6.23
300.243	6.02
300.619	5.86
300.995	6.15
301.371	6.27
301.746	6.23
302.122	6.04
302.498	6.35
302.874	5.94
303.249	6.55
303.625	6.43
304	5.96
304.376	6.54
304.751	6.08
305.127	6.31
305.502	6.24
305.878	6.04
306.253	6.4
306.628	6.37
307.003	6.47
307.378	6.06
307.754	7.18
308.129	6.32
308.504	6.78
308.879	6.82
309.254	6.87
309.629	6.85
310.003	7.55
310.378	6.57
310.753	6.73
311.128	6.47
311.502	6.54
311.877	6.32
312.252	6.17
312.626	6.36
313.001	6.69
313.375	6.47
313.75	6.49
314.124	7.18
314.498	6.77
314.873	6.72
315.247	6.61
315.621	7.16
315.995	6.96
316.369	7.01
316.743	7.4
317.117	6.97
317.491	7.07
317.865	6.62
318.239	7.11
318.613	7.11
318.987	6.76
319.361	7.79
319.734	7.02
320.108	7.09
320.482	6.85
320.855	7.06
321.229	7.59
321.602	7.23
321.976	7.21
322.349	6.58
322.723	6.88
323.096	7.04
323.469	6.93
323.843	7.16
324.216	7.27
324.589	7.42
324.962	7.9
325.335	7.36
325.708	7.39
326.081	8.07
326.454	7.35
326.827	7.9
327.2	7.93
327.573	7.6
327.945	7.32
328.318	7.58
328.691	7.6
329.063	7.46
329.436	7.37
329.809	7.24
330.181	7.08
330.553	7.43
330.926	7.93
331.298	7.21
331.671	7.19
332.043	7.76
332.415	8
332.787	7.89
333.159	7.63
333.532	7.82
333.904	7.58
334.276	7.56
334.648	7.79
335.02	7.55
335.391	7.87
335.763	7.82
336.135	8.28
336.507	7.96
336.879	7.88
337.25	8.13
337.622	7.89
337.993	7.8
338.365	8.25
338.736	8.27
339.108	7.77
339.479	8.16
339.851	8.42
340.222	7.75
340.593	7.53
340.964	7.81
341.336	7.37
341.707	8.27
342.078	7.96
342.449	8.47
342.82	7.92
343.191	8.1
343.562	8.3
343.933	8.23
344.303	8.17
344.674	8.01
345.045	8.37
345.416	8.48
345.786	8.02
346.157	8.15
346.527	7.88
346.898	8.38
347.268	8.16
347.639	8.44
348.009	8.67
348.38	8.1
348.75	8.57
349.12	8.66
349.49	8.31
349.861	8.69
350.231	9.25
350.601	8.71
350.971	8.66
351.341	8.94
351.711	8.51
352.081	8.65
352.45	8.4
352.82	8.78
353.19	8.6
353.56	8.77
353.929	8.71
354.299	9.01
354.669	8.84
355.038	9.07
355.408	9.73
355.777	8.65
356.147	8.99
356.516	9.18
356.885	8.74
357.254	9.16
357.624	9.14
357.993	8.82
358.362	9.2
358.731	9.45
359.1	9.01
359.469	9.23
359.838	8.94
360.207	9.24
360.576	9.23
360.945	9.21
361.314	9.2
361.682	9.03
362.051	9.25
362.42	9.48
362.788	9.28
363.157	9.35
363.525	9.28
363.894	9.23
364.262	9.45
364.631	10
364.999	9.01
365.367	9.63
365.735	9.2
366.104	9.31
366.472	9.79
366.84	9.58
367.208	9.56
367.576	9.78
367.944	10.15
368.312	9.54
368.68	9.82
369.048	10.01
369.416	9.51
369.783	9.75
370.151	10.05
370.519	9.98
370.886	9.67
371.254	9.8
371.621	10.1
371.989	10.05
372.356	10.06
372.724	9.81
373.091	10.02
373.458	10.05
373.826	9.95
374.193	10.33
374.56	10
374.927	10.2
375.294	10.27
375.661	10.22
376.028	10.39
376.395	10.15
376.762	10.61
377.129	10.57
377.496	10.71
377.863	10.27
378.229	10.61
378.596	10.15
378.963	10.47
379.329	10.29
379.696	10.25
380.062	10.43
380.429	10.74
380.795	10.25
381.161	10.66
381.528	10.37
381.894	10.5
382.26	10.31
382.626	10.31
382.993	10.47
383.359	10.66
383.725	11.18
384.091	10.66
384.457	10.83
384.823	10.91
385.188	10.93
385.554	10.7
385.92	11.27
386.286	11.15
386.651	10.91
387.017	11.19
387.383	11.08
387.748	11.06
388.114	11.26
388.479	11.27
388.845	11.15
389.21	11.43
389.575	11.2
389.94	11.39
390.306	11.32
390.671	11.34
391.036	11.56
391.401	11.62
391.766	11.4
392.131	11.61
392.496	11.2
392.861	11.18
393.226	11.58
393.591	11.7
393.956	11.67
394.32	11.54
394.685	11.75
395.05	11.57
395.414	11.46
395.779	11.63
396.143	11.63
396.508	12.06
396.872	11.75
397.236	11.48
397.601	11.97
397.965	11.93
398.329	12.01
398.694	11.82
399.058	11.99
399.422	11.81
399.786	12.18
400.15	12.05
400.514	12.06
400.878	12.13
401.242	12.09
401.605	12.15
401.969	12.31
402.333	12.27
402.697	12.36
403.06	12.24
403.424	12.26
403.787	12.47
404.151	12.35
404.514	12.4
404.878	12.72
405.241	12.44
405.604	12.51
405.968	12.42
406.331	12.47
406.694	12.49
407.057	12.83
407.42	12.59
407.783	12.52
408.146	12.54
408.509	12.59
408.872	12.77
409.235	12.7
409.598	13.06
409.961	12.9
410.323	12.76
410.686	12.94
411.049	12.71
411.411	12.98
411.774	12.92
412.136	12.95
412.499	12.95
412.861	13.02
413.223	13.13
413.586	12.97
413.948	13.15
414.31	13.49
414.672	13.07
415.035	13.29
415.397	13.49
415.759	13.02
416.121	13.49
416.483	13.61
416.845	13.43
417.206	13.24
417.568	13.32
417.93	13.3
418.292	13.63
418.653	13.34
419.015	13.47
419.377	13.48
419.738	13.35
420.1	13.43
420.461	13.27
420.822	13.44
421.184	13.47
421.545	13.46
421.906	13.52
422.267	13.32
422.629	13.31
422.99	13.44
423.351	13.48
423.712	13.58
424.073	13.68
424.434	13.68
424.795	13.69
425.155	13.65
425.516	13.58
425.877	13.69
426.238	13.7
426.598	13.87
426.959	13.73
427.32	13.9
427.68	14.16
428.041	14.18
428.401	14.18
428.761	14.11
429.122	14.39
429.482	14.01
429.842	14.47
430.202	14.35
430.563	14.48
430.923	14.48
431.283	14.48
431.643	14.49
432.003	14.49
432.363	14.65
432.722	14.68
433.082	14.62
433.442	14.54
433.802	14.59
434.161	14.76
434.521	14.68
434.881	14.86
435.24	14.58
435.6	14.76
435.959	14.81
436.319	14.82
436.678	15.03
437.037	14.93
437.396	14.93
437.756	15.1
438.115	15.03
438.474	15.02
438.833	15.15
439.192	15.29
439.551	15.1
439.91	15.16
440.269	15.12
440.628	15.11
440.987	15.09
441.345	15.01
441.704	15.13
442.063	15.13
442.421	15.21
442.78	15.15
443.138	15.27
443.497	15.4
443.855	15.42
444.214	15.52
444.572	15.53
444.93	15.45
445.288	15.69
445.647	15.68
446.005	15.57
446.363	15.59
446.721	15.39
447.079	15.48
447.437	15.41
447.795	15.39
448.153	15.44
448.51	15.48
448.868	15.65
449.226	15.88
449.584	15.99
449.941	15.97
450.299	15.9
450.656	15.93
451.014	16.1
451.371	16.24
451.729	16.3
452.086	16.21
452.443	16.15
452.801	16.46
453.158	16.38
453.515	16.08
453.872	16.42
454.229	16.25
454.586	16.53
454.943	16.42
455.3	16.64
455.657	16.47
456.014	16.51
456.371	16.65
456.727	16.64
457.084	16.66
457.441	16.5
457.797	16.63
458.154	16.64
458.51	16.86
458.867	16.8
459.223	16.93
459.58	16.78
459.936	16.71
460.292	16.83
460.648	16.62
461.005	16.44
461.361	16.54
461.717	16.7
462.073	16.8
462.429	16.95
462.785	17.09
463.141	17.16
463.496	17.18
463.852	17.33
464.208	17.55
464.564	17.28
464.919	17.35
465.275	17.53
465.631	17.43
465.986	17.4
466.342	17.55
466.697	17.53
467.052	17.79
467.408	17.63
467.763	17.58
468.118	17.73
468.473	17.8
468.829	17.87
469.184	17.8
469.539	17.63
469.894	17.71
470.249	17.89
470.603	18
470.958	17.82
471.313	18.01
471.668	18.1
472.023	18.2
472.377	18
472.732	18.01
473.086	18.05
473.441	18.37
473.795	18.37
474.15	18.18
474.504	18.3
474.859	18.36
475.213	18.4
475.567	18.44
475.921	18.5
476.275	18.4
476.63	18.62
476.984	18.67
477.338	18.83
477.692	18.5
478.045	18.44
478.399	18.62
478.753	18.55
479.107	18.7
479.461	18.69
479.814	18.81
480.168	18.67
480.521	18.68
480.875	18.84
481.228	18.91
481.582	18.94
481.935	18.82
482.289	18.77
482.642	18.81
482.995	18.85
483.348	18.8
483.701	18.63
484.055	18.54
484.408	18.37
484.761	17.98
485.114	17.85
485.466	17.97
485.819	18.02
486.172	18.28
486.525	18.44
486.878	18.59
487.23	18.74
487.583	18.73
487.936	18.76
488.288	18.57
488.641	18.46
488.993	18.47
489.345	18.48
489.698	18.62
490.05	18.74
490.402	18.96
490.754	19.13
491.107	19.21
491.459	19.43
491.811	19.43
492.163	19.36
492.515	19.07
492.866	18.89
493.218	18.83
493.57	18.99
493.922	19.21
494.274	19.5
494.625	19.6
494.977	19.81
495.328	20.05
495.68	20.25
496.031	20.09
496.383	20.1
496.734	20.12
497.086	20.18
497.437	20.25
497.788	20.1
498.139	20.16
498.49	20.07
498.842	20.13
499.193	20.16
499.544	20.35
499.894	20.33
500.245	20.2
500.596	20.53
500.947	20.36
501.298	20.63
501.648	20.63
501.999	20.83
502.35	20.79
502.7	20.85
503.051	20.94
503.401	20.82
503.752	20.93
504.102	20.94
504.452	20.76
504.803	20.81
505.153	20.76
505.503	21
505.853	21
506.203	21
506.553	21.21
506.903	21.06
507.253	21.14
507.603	21.2
507.953	21.34
508.303	21.37
508.652	21.24
509.002	21.32
509.352	21.33
509.701	21.14
510.051	21.16
510.4	21.15
510.75	21.38
511.099	21.26
511.449	21.18
511.798	21.35
512.147	21.4
512.496	21.45
512.846	21.48
513.195	21.56
513.544	21.57
513.893	21.39
514.242	21.48
514.591	21.73
514.939	21.64
515.288	21.81
515.637	21.84
515.986	21.66
516.334	21.98
516.683	21.91
517.032	21.92
517.38	21.96
517.729	21.92
518.077	22.11
518.426	21.94
518.774	21.91
519.122	21.62
519.47	21.69
519.819	21.62
520.167	21.76
520.515	21.64
520.863	21.68
521.211	21.87
521.559	21.87
521.907	22.13
522.255	22.19
522.602	22.18
522.95	22.36
523.298	22.3
523.645	22.37
523.993	22.63
524.341	22.58
524.688	22.56
525.036	22.6
525.383	22.58
525.73	22.42
526.078	22.26
526.425	22.45
526.772	22.13
527.119	22.02
527.466	22.07
527.814	22.28
528.161	22.21
528.508	22.26
528.854	22.16
529.201	22.06
529.548	21.64
529.895	21.6
530.242	21.59
530.588	21.79
530.935	21.91
531.282	21.99
531.628	22.11
531.975	22.38
532.321	22.54
532.667	22.61
533.014	22.66
533.36	22.56
533.706	22.61
534.052	22.41
534.399	22.2
534.745	22.21
535.091	22.34
535.437	22.46
535.783	22.79
536.129	22.86
536.474	22.98
536.82	23.01
537.166	23.11
537.512	23.14
537.857	22.79
538.203	22.73
538.549	22.93
538.894	23.07
539.239	23.3
539.585	23.38
539.93	23.52
540.276	23.47
540.621	23.67
540.966	23.75
541.311	23.47
541.656	23.53
542.001	23.31
542.346	22.94
542.691	22.7
543.036	22.71
543.381	22.93
543.726	23.06
544.071	23.31
544.415	23.28
544.76	23.24
545.105	23.49
545.449	23.55
545.794	23.68
546.138	23.95
546.483	23.76
546.827	24.05
547.171	23.85
547.516	24.03
547.86	23.83
548.204	23.78
548.548	23.93
548.892	24.1
549.236	24.09
549.58	24.2
549.924	24.38
550.268	24.54
550.612	24.51
550.956	24.66
551.3	24.72
551.643	24.81
551.987	24.9
552.33	24.85
552.674	25.01
553.017	24.86
553.361	24.85
553.704	24.7
554.048	24.82
554.391	24.69
554.734	24.86
555.077	24.78
555.42	24.96
555.764	25.03
556.107	25.09
556.45	25.01
556.793	25.42
557.135	25.41
557.478	25.35
557.821	25.14
558.164	25.25
558.507	25.31
558.849	25.31
559.192	25.52
559.534	25.42
559.877	25.3
560.219	25.35
560.562	25.47
560.904	25.46
561.246	25.69
561.589	25.62
561.931	25.99
562.273	25.48
562.615	25.75
562.957	25.66
563.299	25.74
563.641	25.59
563.983	25.6
564.325	25.73
564.667	25.75
565.008	25.74
565.35	25.79
565.692	25.96
566.033	25.8
566.375	25.73
566.716	25.69
567.058	25.69
567.399	25.61
567.741	25.56
568.082	25.84
568.423	25.89
568.764	25.83
569.105	25.97
569.447	26.21
569.788	26.28
570.129	26.12
570.47	25.95
570.811	26.11
571.151	26.11
571.492	26.13
571.833	26.15
572.174	26.04
572.514	26.06
572.855	26.01
573.195	25.98
573.536	25.95
573.876	26.3
574.217	26.23
574.557	26.48
574.898	26.14
575.238	26.09
575.578	26.34
575.918	26.25
576.258	26.12
576.598	26.46
576.938	26.53
577.278	26.2
577.618	26.38
577.958	26.51
578.298	26.54
578.638	26.83
578.977	26.76
579.317	26.81
579.657	26.89
579.996	26.69
580.336	26.99
580.675	27.01
581.014	26.78
581.354	27.02
581.693	26.84
582.032	26.93
582.372	27.28
582.711	27.15
583.05	27.24
583.389	27.02
583.728	27.38
584.067	27.42
584.406	27.21
584.745	27.14
585.083	27.33
585.422	27.3
585.761	27.53
586.1	27.55
586.438	27.58
586.777	27.38
587.115	27.28
587.454	27.53
587.792	27.54
588.13	27.58
588.469	27.6
588.807	27.64
589.145	27.64
589.483	27.45
589.821	27.49
590.159	27.67
590.497	27.67
590.835	27.43
591.173	27.63
591.511	27.69
591.849	28.02
592.187	27.59
592.524	27.63
592.862	27.68
593.2	27.69
593.537	27.75
593.875	27.91
594.212	27.85
594.55	27.82
594.887	28.28
595.224	27.97
595.561	27.9
595.899	27.83
596.236	28.08
596.573	27.9
596.91	28.11
597.247	27.97
597.584	28.06
597.921	28.12
598.258	27.85
598.594	27.62
598.931	28.19
599.268	27.93
599.604	28.08
599.941	28.19
600.277	28.22
600.614	28.66
600.95	28.71
601.287	28.67
601.623	28.3
601.959	28.44
602.296	28.56
602.632	28.57
602.968	28.42
603.304	28.14
603.64	28.48
603.976	28.55
604.312	28.37
604.648	28.21
604.984	28.21
605.319	28.42
605.655	28.37
605.991	28.11
606.326	28.33
606.662	28.25
606.998	28.52
607.333	28.75
607.668	28.4
608.004	28.86
608.339	28.61
608.674	28.5
609.01	29.14
609.345	29.14
609.68	28.75
610.015	29.07
610.35	28.76
610.685	28.63
611.02	28.85
611.355	28.89
611.689	28.76
612.024	29.03
612.359	29
612.694	29.23
613.028	29.47
613.363	29.34
613.697	29.13
614.032	29.25
614.366	29.1
614.7	29.64
615.035	29.22
615.369	29.51
615.703	29.69
616.037	29.54
616.371	29.51
616.705	29.5
617.039	30.09
617.373	29.5
617.707	29.9
618.041	29.55
618.375	29.61
618.709	29.68
619.042	29.58
619.376	29.84
619.71	29.72
620.043	29.9
620.377	29.56
620.71	29.25
621.043	29.94
621.377	29.87
621.71	29.85
622.043	29.48
622.376	29.77
622.709	30.11
623.043	29.74
623.376	30.27
623.709	30.33
624.041	29.95
624.374	30.22
624.707	30.01
625.04	29.52
625.373	29.94
625.705	29.94
626.038	29.72
626.37	30.09
626.703	30.28
627.035	30.36
627.368	29.9
627.7	30.05
628.032	30.28
628.365	29.77
628.697	29.81
629.029	29.95
629.361	29.85
629.693	30.14
630.025	30.39
630.357	30.26
630.689	30.56
631.021	30.06
631.353	30.44
631.684	30.44
632.016	30.19
632.348	30.61
632.679	30.33
633.011	30.35
633.342	30.24
633.674	30.17
634.005	30.49
634.336	30.95
634.668	30.36
634.999	30.56
635.33	30.37
635.661	30.76
635.992	30.19
636.323	30.59
636.654	30.79
636.985	30.61
637.316	30.33
637.647	30.82
637.977	30.66
638.308	30.68
638.639	30.89
638.969	30.87
639.3	31
639.63	31.14
639.961	31.24
640.291	31.43
640.622	30.97
640.952	30.82
641.282	30.64
641.612	30.9
641.943	31.33
642.273	30.9
642.603	31.28
642.933	31.05
643.263	31.29
643.592	30.93
643.922	31.11
644.252	31.2
644.582	31.38
644.911	31.63
645.241	31.41
645.571	31.24
645.9	31.49
646.23	31.47
646.559	31.43
646.888	31.14
647.218	31.44
647.547	32.11
647.876	31.94
648.205	31.77
648.534	31.47
648.863	31.37
649.192	31.31
649.521	31.44
649.85	31.88
650.179	31.01
650.508	31.61
650.837	31.63
651.165	32.26
651.494	31.96
651.822	32.1
652.151	32.25
652.479	31.68
652.808	31.88
653.136	31.49
653.465	32.11
653.793	31.85
654.121	32.26
654.449	31.83
654.777	32
655.105	31.98
655.433	32.41
655.761	31.95
656.089	31.92
656.417	31.45
656.745	32.48
657.073	32.31
657.4	32.19
657.728	32.08
658.056	31.81
658.383	32.09
658.711	31.85
659.038	32.24
659.365	32.55
659.693	31.9
660.02	32.47
660.347	32.6
660.674	32.02
661.001	32.11
661.329	32.12
661.656	32.17
661.982	32.43
662.309	32.14
662.636	32.47
662.963	32.35
663.29	32.61
663.616	32.49
663.943	32.77
664.27	32.9
664.596	32.99
664.923	32.88
665.249	32.75
665.576	33.25
665.902	33.11
666.228	32.87
666.554	32.36
666.881	32.77
667.207	32.59
667.533	32.29
667.859	32.94
668.185	32.85
668.511	33.09
668.837	32.51
669.162	33
669.488	33.22
669.814	33.36
670.139	33.16
670.465	32.95
670.791	33.12
671.116	33.25
671.442	33.35
671.767	32.96
672.092	33.65
672.418	33.25
672.743	32.71
