Data from 0061_crown_Reflection__0__183.txt Node

Date: Fri Dec 16 15:26:47 CST 2022
User: ToomeyLab
Spectrometer: FLMS14357
Trigger mode: 0
Integration Time (sec): 1.000000E-2
Scans to average: 100
Electric dark correction enabled: true
Nonlinearity correction enabled: false
Boxcar width: 0
XAxis mode: Wavelengths
Number of Pixels in Spectrum: 2048
>>>>>Begin Spectral Data<<<<<
189.047	276.7
189.435	276.7
189.823	276.7
190.211	-17.21
190.599	-1111.96
190.987	151.92
191.375	258.42
191.763	20
192.151	-1665.48
192.538	46.33
192.926	85.93
193.314	91.49
193.702	131.96
194.089	-6088.64
194.477	23.94
194.864	150.3
195.252	29.37
195.639	66.99
196.027	-45.38
196.414	57.67
196.801	52.35
197.189	95.23
197.576	-44.38
197.963	-375
198.351	19.82
198.738	-25.6
199.125	3.18
199.512	4.76
199.899	-36.93
200.286	-30.48
200.673	-14.45
201.06	26.23
201.447	8.83
201.833	5.27
202.22	-3.04
202.607	3.78
202.994	4.71
203.38	-102.18
203.767	-16.19
204.154	-25.45
204.54	-30.9
204.927	-1.46
205.313	12.29
205.699	-33.3
206.086	4.23
206.472	-20.55
206.858	-2.91
207.245	8.41
207.631	-40.31
208.017	15.36
208.403	-10.56
208.789	8.02
209.175	31.02
209.561	4.85
209.947	-9.84
210.333	-34.92
210.719	17.43
211.105	-77.05
211.491	-10.87
211.876	-25.9
212.262	-39.86
212.648	-55.46
213.034	-6.35
213.419	9.44
213.805	-6.12
214.19	-4.55
214.576	-29.22
214.961	-25.25
215.346	-22.38
215.732	-9.59
216.117	-1.42
216.502	-33.29
216.888	-24.34
217.273	10.01
217.658	-33.39
218.043	-22.69
218.428	-8.7
218.813	-15.67
219.198	-24.81
219.583	9.08
219.968	0.25
220.353	3.17
220.738	-13.2
221.122	-23.29
221.507	-8.69
221.892	-2.44
222.276	5.92
222.661	-19.4
223.046	-8.8
223.43	-0.56
223.815	2.61
224.199	3.63
224.583	3.23
224.968	-1.39
225.352	-8.78
225.736	-1.53
226.121	-9.22
226.505	1.42
226.889	7.28
227.273	5.15
227.657	-1
228.041	2.56
228.425	3.39
228.809	-0.29
229.193	0.65
229.577	1.78
229.961	2.3
230.344	1.56
230.728	1.55
231.112	1.86
231.495	-0.59
231.879	1.16
232.263	0.91
232.646	0.49
233.03	-1.09
233.413	1.94
233.797	4.92
234.18	-1.03
234.563	0
234.946	1.5
235.33	2.52
235.713	1.26
236.096	0.32
236.479	1.48
236.862	1.9
237.245	2.58
237.628	1.92
238.011	-0.55
238.394	1.46
238.777	2.41
239.16	-2.2
239.543	1.75
239.925	1
240.308	2.12
240.691	1.46
241.073	0.9
241.456	2.45
241.838	2.45
242.221	1.94
242.603	1.52
242.986	3.03
243.368	1.85
243.75	1.95
244.133	1.75
244.515	2.35
244.897	1.86
245.279	2.08
245.661	2.32
246.043	1.61
246.425	1.46
246.807	1.72
247.189	1.51
247.571	2.17
247.953	2
248.335	2.14
248.717	2.11
249.098	2.41
249.48	2.07
249.862	2.28
250.243	2.15
250.625	2.12
251.006	2.71
251.388	1.61
251.769	1.01
252.151	2.43
252.532	1.9
252.913	2.12
253.295	2.09
253.676	2.14
254.057	1.9
254.438	1.76
254.819	2.98
255.2	1.79
255.581	1.01
255.962	1.25
256.343	1.91
256.724	1.16
257.105	1.35
257.486	2.5
257.867	-0.09
258.247	1.42
258.628	2.25
259.009	1.18
259.389	2.29
259.77	2.17
260.15	2.35
260.531	2.14
260.911	2.13
261.292	1.9
261.672	2.03
262.052	1.78
262.432	1.62
262.813	2.41
263.193	2.04
263.573	1.66
263.953	1.54
264.333	1.78
264.713	1.12
265.093	1.24
265.473	2.38
265.853	1.63
266.233	1.02
266.612	1.25
266.992	1.85
267.372	2.15
267.752	1.57
268.131	1.7
268.511	1.4
268.89	2.11
269.27	1.34
269.649	2.22
270.029	2.11
270.408	2.09
270.787	1.78
271.167	1.62
271.546	1.18
271.925	1.98
272.304	2.13
272.683	1.91
273.062	2
273.441	1.9
273.82	2.01
274.199	1.88
274.578	1.6
274.957	1.95
275.336	2.01
275.715	2.05
276.093	2.34
276.472	2.27
276.851	1.89
277.229	1.79
277.608	1.26
277.986	1.61
278.365	1.37
278.743	2.28
279.122	0.99
279.5	1.26
279.878	0.78
280.257	1.74
280.635	0.87
281.013	2.49
281.391	1.49
281.769	2.1
282.147	2
282.525	1.5
282.903	2.22
283.281	1.57
283.659	2.14
284.037	1.68
284.415	2.12
284.792	1.54
285.17	1.74
285.548	1.61
285.925	1.53
286.303	1.48
286.68	2.18
287.058	1.76
287.435	1.34
287.813	2.04
288.19	2.21
288.567	1.55
288.945	1.81
289.322	1.98
289.699	1.48
290.076	2.39
290.453	1.84
290.83	2
291.207	1.51
291.584	1.65
291.961	2.09
292.338	1.85
292.715	1.99
293.092	1.95
293.469	2.46
293.845	2.22
294.222	1.73
294.599	2.07
294.975	2.25
295.352	1.51
295.728	1.94
296.105	1.83
296.481	2.47
296.858	2.03
297.234	2.01
297.61	2.4
297.986	2.09
298.363	1.65
298.739	2.39
299.115	1.79
299.491	1.87
299.867	1.98
300.243	1.84
300.619	1.67
300.995	2.34
301.371	2.28
301.746	1.84
302.122	2.01
302.498	1.47
302.874	1.86
303.249	2.44
303.625	2.02
304	1.43
304.376	2.03
304.751	1.73
305.127	2.29
305.502	2.2
305.878	1.89
306.253	1.97
306.628	2.72
307.003	2.51
307.378	1.79
307.754	1.8
308.129	1.48
308.504	2
308.879	2.45
309.254	1.97
309.629	1.87
310.003	2.29
310.378	2.1
310.753	2.36
311.128	2.34
311.502	1.98
311.877	2.3
312.252	1.7
312.626	2.09
313.001	2.04
313.375	1.78
313.75	2.07
314.124	2.57
314.498	1.89
314.873	2.12
315.247	1.81
315.621	2.51
315.995	2.33
316.369	2.23
316.743	2.43
317.117	2.09
317.491	2.21
317.865	1.81
318.239	2.28
318.613	2.23
318.987	2.56
319.361	1.97
319.734	1.99
320.108	2.07
320.482	2.2
320.855	2.03
321.229	2.69
321.602	2.43
321.976	2.24
322.349	1.49
322.723	1.45
323.096	2.37
323.469	1.67
323.843	2.31
324.216	1.92
324.589	2.12
324.962	2.22
325.335	2.01
325.708	2.17
326.081	2.35
326.454	2.02
326.827	2.11
327.2	2.84
327.573	2.33
327.945	2.38
328.318	2.19
328.691	2.33
329.063	2.14
329.436	1.87
329.809	2.2
330.181	1.63
330.553	2.43
330.926	2.24
331.298	1.71
331.671	2.1
332.043	2.79
332.415	2.39
332.787	2.25
333.159	2.14
333.532	2.43
333.904	2.43
334.276	2.17
334.648	2.59
335.02	1.72
335.391	1.9
335.763	1.79
336.135	2.27
336.507	1.9
336.879	2.4
337.25	1.73
337.622	2.36
337.993	2.25
338.365	2.31
338.736	2.46
339.108	1.77
339.479	1.88
339.851	2.62
340.222	2.34
340.593	1.9
340.964	1.93
341.336	1.89
341.707	2.16
342.078	1.83
342.449	2.66
342.82	2.05
343.191	1.7
343.562	2.36
343.933	2.5
344.303	2.06
344.674	2.37
345.045	2.18
345.416	2.09
345.786	2.02
346.157	2.47
346.527	1.89
346.898	2.27
347.268	2.23
347.639	2.39
348.009	2.65
348.38	2.32
348.75	1.73
349.12	2.24
349.49	1.92
349.861	2.57
350.231	2.4
350.601	2.33
350.971	2.42
351.341	2.27
351.711	1.82
352.081	2.16
352.45	2.14
352.82	2.3
353.19	2.09
353.56	2.06
353.929	2.42
354.299	2.05
354.669	2.44
355.038	2.66
355.408	2.38
355.777	2.05
356.147	2.3
356.516	2.26
356.885	2.2
357.254	2.42
357.624	2.41
357.993	2.24
358.362	2.31
358.731	2.04
359.1	2.19
359.469	2.26
359.838	2.03
360.207	2.09
360.576	2.63
360.945	2.33
361.314	2.47
361.682	2.2
362.051	2.21
362.42	2.51
362.788	2.36
363.157	2.27
363.525	2.39
363.894	2.2
364.262	2
364.631	2.88
364.999	2.02
365.367	2.68
365.735	2.14
366.104	2.11
366.472	2.46
366.84	2.23
367.208	2.04
367.576	2.62
367.944	2.65
368.312	2.1
368.68	2.49
369.048	2.31
369.416	2.15
369.783	2.15
370.151	2.43
370.519	2.39
370.886	2.53
371.254	2.28
371.621	2.35
371.989	2.42
372.356	2.39
372.724	2.35
373.091	2.39
373.458	2.42
373.826	2.38
374.193	2.53
374.56	1.72
374.927	2.18
375.294	2.62
375.661	2.56
376.028	2.54
376.395	2.39
376.762	2.63
377.129	2.53
377.496	2.42
377.863	2.58
378.229	2.14
378.596	2.51
378.963	2.27
379.329	2.3
379.696	2.29
380.062	2.64
380.429	2.46
380.795	2.25
381.161	2.44
381.528	2.02
381.894	2.46
382.26	2.18
382.626	2.33
382.993	2.15
383.359	2.11
383.725	2.67
384.091	2.4
384.457	2.29
384.823	2.55
385.188	2.47
385.554	2.29
385.92	2.79
386.286	2.63
386.651	2.42
387.017	2.59
387.383	2.49
387.748	2.4
388.114	2.56
388.479	2.52
388.845	2.52
389.21	2.52
389.575	2.57
389.94	2.69
390.306	2.65
390.671	2.39
391.036	2.47
391.401	2.75
391.766	2.3
392.131	2.43
392.496	2.26
392.861	2.39
393.226	2.42
393.591	2.54
393.956	2.53
394.32	2.51
394.685	2.43
395.05	2.49
395.414	2.56
395.779	2.48
396.143	2.4
396.508	2.7
396.872	2.59
397.236	2.16
397.601	2.73
397.965	2.34
398.329	2.75
398.694	2.55
399.058	2.53
399.422	2.67
399.786	2.65
400.15	2.57
400.514	2.6
400.878	2.56
401.242	2.49
401.605	2.58
401.969	2.51
402.333	2.47
402.697	2.75
403.06	2.62
403.424	2.48
403.787	2.82
404.151	2.46
404.514	2.62
404.878	2.7
405.241	2.59
405.604	2.56
405.968	2.52
406.331	2.67
406.694	2.58
407.057	2.85
407.42	2.61
407.783	2.47
408.146	2.71
408.509	2.49
408.872	2.44
409.235	2.91
409.598	2.75
409.961	2.83
410.323	2.61
410.686	2.54
411.049	2.64
411.411	2.77
411.774	2.54
412.136	2.78
412.499	2.57
412.861	2.34
413.223	2.66
413.586	2.37
413.948	2.72
414.31	2.85
414.672	2.55
415.035	2.71
415.397	2.88
415.759	2.69
416.121	2.78
416.483	2.92
416.845	2.75
417.206	2.67
417.568	2.84
417.93	2.53
418.292	2.56
418.653	2.59
419.015	2.76
419.377	2.74
419.738	2.53
420.1	2.56
420.461	2.57
420.822	2.65
421.184	2.59
421.545	2.64
421.906	2.72
422.267	2.47
422.629	2.6
422.99	2.58
423.351	2.64
423.712	2.73
424.073	2.85
424.434	2.62
424.795	2.6
425.155	2.7
425.516	2.59
425.877	2.62
426.238	2.58
426.598	2.68
426.959	2.66
427.32	2.63
427.68	2.79
428.041	2.63
428.401	2.66
428.761	2.6
429.122	2.8
429.482	2.59
429.842	2.77
430.202	2.67
430.563	2.85
430.923	2.58
431.283	2.91
431.643	2.82
432.003	2.8
432.363	2.64
432.722	2.73
433.082	2.73
433.442	2.77
433.802	2.79
434.161	2.62
434.521	2.7
434.881	2.75
435.24	2.66
435.6	2.74
435.959	2.73
436.319	2.68
436.678	2.72
437.037	2.78
437.396	3
437.756	2.79
438.115	2.85
438.474	2.84
438.833	2.9
439.192	2.88
439.551	2.92
439.91	2.8
440.269	2.8
440.628	2.72
440.987	2.68
441.345	2.82
441.704	2.73
442.063	2.76
442.421	2.71
442.78	2.74
443.138	2.81
443.497	2.76
443.855	2.8
444.214	2.69
444.572	2.74
444.93	2.98
445.288	2.86
445.647	2.95
446.005	2.78
446.363	2.76
446.721	2.71
447.079	2.83
447.437	2.75
447.795	2.79
448.153	2.75
448.51	2.75
448.868	2.92
449.226	2.79
449.584	2.81
449.941	2.87
450.299	2.87
450.656	2.88
451.014	2.82
451.371	2.73
451.729	2.85
452.086	2.81
452.443	2.76
452.801	2.7
453.158	2.79
453.515	2.93
453.872	2.89
454.229	2.83
454.586	2.98
454.943	2.78
455.3	2.99
455.657	2.87
456.014	2.94
456.371	3.17
456.727	2.82
457.084	2.9
457.441	2.85
457.797	2.89
458.154	2.99
458.51	2.94
458.867	2.87
459.223	2.86
459.58	2.76
459.936	2.96
460.292	2.87
460.648	2.82
461.005	2.82
461.361	2.91
461.717	2.87
462.073	3.04
462.429	2.94
462.785	3.04
463.141	3.04
463.496	2.91
463.852	3
464.208	2.9
464.564	2.7
464.919	2.93
465.275	3.14
465.631	2.94
465.986	2.8
466.342	2.84
466.697	2.86
467.052	3.07
467.408	2.99
467.763	2.89
468.118	2.96
468.473	3.17
468.829	2.92
469.184	3.12
469.539	2.91
469.894	3.18
470.249	2.94
470.603	3.08
470.958	3.11
471.313	2.95
471.668	3.13
472.023	3.09
472.377	2.98
472.732	2.9
473.086	2.96
473.441	3.11
473.795	3.23
474.15	2.91
474.504	2.93
474.859	2.99
475.213	3
475.567	3.11
475.921	3.33
476.275	3.06
476.63	3
476.984	2.99
477.338	3.2
477.692	3.13
478.045	3.01
478.399	3.1
478.753	2.94
479.107	3.01
479.461	3.16
479.814	3
480.168	3.14
480.521	3.04
480.875	3.18
481.228	3.18
481.582	2.84
481.935	3.08
482.289	2.96
482.642	3.09
482.995	3.06
483.348	2.96
483.701	3.03
484.055	2.91
484.408	2.96
484.761	2.85
485.114	2.81
485.466	2.82
485.819	2.86
486.172	2.96
486.525	2.99
486.878	3.01
487.23	2.97
487.583	3.03
487.936	3.02
488.288	3
488.641	2.92
488.993	2.89
489.345	2.93
489.698	2.98
490.05	2.96
490.402	3.06
490.754	3.16
491.107	3.09
491.459	3.05
491.811	3.13
492.163	3.16
492.515	3.05
492.866	2.9
493.218	2.97
493.57	3.04
493.922	3.07
494.274	3.14
494.625	3.17
494.977	3.13
495.328	3.11
495.68	3.22
496.031	3.22
496.383	3.08
496.734	3.23
497.086	3.19
497.437	3.18
497.788	3.16
498.139	3.22
498.49	3.2
498.842	3.2
499.193	3.18
499.544	3.27
499.894	3.18
500.245	3.2
500.596	3.17
500.947	3.22
501.298	3.19
501.648	3.31
501.999	3.4
502.35	3.32
502.7	3.27
503.051	3.38
503.401	3.3
503.752	3.27
504.102	3.24
504.452	3.22
504.803	3.1
505.153	3.21
505.503	3.15
505.853	3.15
506.203	3.26
506.553	3.25
506.903	3.22
507.253	3.25
507.603	3.18
507.953	3.34
508.303	3.26
508.652	3.33
509.002	3.2
509.352	3.21
509.701	3.22
510.051	3.32
510.4	3.3
510.75	3.25
511.099	3.23
511.449	3.32
511.798	3.47
512.147	3.31
512.496	3.32
512.846	3.22
513.195	3.32
513.544	3.35
513.893	3.19
514.242	3.39
514.591	3.42
514.939	3.4
515.288	3.31
515.637	3.46
515.986	3.3
516.334	3.43
516.683	3.33
517.032	3.27
517.38	3.37
517.729	3.28
518.077	3.46
518.426	3.32
518.774	3.33
519.122	3.26
519.47	3.32
519.819	3.24
520.167	3.27
520.515	3.24
520.863	3.29
521.211	3.34
521.559	3.32
521.907	3.33
522.255	3.38
522.602	3.4
522.95	3.42
523.298	3.4
523.645	3.42
523.993	3.47
524.341	3.27
524.688	3.32
525.036	3.5
525.383	3.42
525.73	3.42
526.078	3.53
526.425	3.39
526.772	3.27
527.119	3.32
527.466	3.38
527.814	3.35
528.161	3.44
528.508	3.36
528.854	3.27
529.201	3.27
529.548	3.21
529.895	3.2
530.242	3.16
530.588	3.22
530.935	3.28
531.282	3.35
531.628	3.34
531.975	3.36
532.321	3.33
532.667	3.41
533.014	3.49
533.36	3.41
533.706	3.4
534.052	3.24
534.399	3.3
534.745	3.28
535.091	3.29
535.437	3.35
535.783	3.42
536.129	3.43
536.474	3.48
536.82	3.41
537.166	3.48
537.512	3.5
537.857	3.41
538.203	3.44
538.549	3.45
538.894	3.41
539.239	3.65
539.585	3.53
539.93	3.55
540.276	3.41
540.621	3.5
540.966	3.51
541.311	3.6
541.656	3.49
542.001	3.37
542.346	3.42
542.691	3.29
543.036	3.4
543.381	3.42
543.726	3.47
544.071	3.51
544.415	3.51
544.76	3.47
545.105	3.52
545.449	3.46
545.794	3.53
546.138	3.61
546.483	3.56
546.827	3.63
547.171	3.51
547.516	3.74
547.86	3.6
548.204	3.51
548.548	3.67
548.892	3.59
549.236	3.61
549.58	3.65
549.924	3.64
550.268	3.7
550.612	3.73
550.956	3.53
551.3	3.56
551.643	3.7
551.987	3.67
552.33	3.54
552.674	3.68
553.017	3.7
553.361	3.65
553.704	3.58
554.048	3.68
554.391	3.55
554.734	3.68
555.077	3.74
555.42	3.68
555.764	3.82
556.107	3.67
556.45	3.61
556.793	3.75
557.135	3.78
557.478	3.7
557.821	3.74
558.164	3.8
558.507	3.67
558.849	3.56
559.192	3.91
559.534	3.65
559.877	3.84
560.219	3.8
560.562	3.86
560.904	3.56
561.246	3.88
561.589	3.86
561.931	3.95
562.273	3.69
562.615	3.79
562.957	3.71
563.299	3.9
563.641	3.78
563.983	3.74
564.325	3.74
564.667	3.64
565.008	3.82
565.35	3.89
565.692	3.9
566.033	3.81
566.375	3.68
566.716	3.77
567.058	3.94
567.399	3.94
567.741	3.92
568.082	3.72
568.423	3.81
568.764	3.87
569.105	3.88
569.447	3.78
569.788	3.95
570.129	3.91
570.47	3.85
570.811	3.84
571.151	3.84
571.492	4.03
571.833	3.9
572.174	3.77
572.514	3.64
572.855	3.95
573.195	3.55
573.536	3.87
573.876	3.73
574.217	3.82
574.557	3.98
574.898	3.75
575.238	3.82
575.578	3.99
575.918	3.81
576.258	3.85
576.598	3.86
576.938	3.92
577.278	3.85
577.618	3.88
577.958	3.71
578.298	3.98
578.638	3.88
578.977	3.98
579.317	3.9
579.657	3.9
579.996	3.91
580.336	3.81
580.675	4.1
581.014	3.99
581.354	4.13
581.693	3.74
582.032	3.79
582.372	4.15
582.711	3.93
583.05	4.13
583.389	3.98
583.728	3.98
584.067	3.82
584.406	4.12
584.745	3.92
585.083	4.31
585.422	4.13
585.761	4.51
586.1	4.15
586.438	3.96
586.777	4.12
587.115	4.24
587.454	4.07
587.792	3.94
588.13	4.33
588.469	4.07
588.807	4.23
589.145	4.2
589.483	4.03
589.821	4.04
590.159	4
590.497	3.85
590.835	4.03
591.173	4.02
591.511	4.26
591.849	4.14
592.187	4.32
592.524	3.96
592.862	4.1
593.2	4.04
593.537	4.09
593.875	4.31
594.212	4.04
594.55	3.97
594.887	4.05
595.224	4.05
595.561	4.06
595.899	3.89
596.236	4.04
596.573	3.91
596.91	4.34
597.247	4.02
597.584	4.28
597.921	4.15
598.258	4.05
598.594	3.92
598.931	4.13
599.268	4.11
599.604	4.25
599.941	4.05
600.277	4.3
600.614	3.99
600.95	4.2
601.287	4.26
601.623	4.46
601.959	4.08
602.296	4.28
602.632	4.54
602.968	4.09
603.304	3.93
603.64	4.2
603.976	4.18
604.312	4.24
604.648	4.31
604.984	4.15
605.319	4.15
605.655	4.19
605.991	4.12
606.326	4.19
606.662	4.04
606.998	4.21
607.333	4.23
607.668	4.3
608.004	4.24
608.339	4.41
608.674	4.27
609.01	4.43
609.345	4.45
609.68	4.21
610.015	4.29
610.35	4.1
610.685	4.18
611.02	4.36
611.355	4.34
611.689	4.31
612.024	4.42
612.359	4.41
612.694	4.58
613.028	4.73
613.363	4.2
613.697	4.25
614.032	4.39
614.366	4.09
614.7	4.97
615.035	4.22
615.369	4.16
615.703	4.82
616.037	4.31
616.371	4.4
616.705	4.37
617.039	4.45
617.373	4.35
617.707	4.28
618.041	4.64
618.375	4.19
618.709	4.27
619.042	4.26
619.376	4.48
619.71	4.52
620.043	4.54
620.377	4.24
620.71	4.6
621.043	4.14
621.377	4.31
621.71	4.67
622.043	4.95
622.376	4.26
622.709	4.62
623.043	4.41
623.376	4.6
623.709	4.51
624.041	4.37
624.374	4.37
624.707	4.46
625.04	4.92
625.373	4.37
625.705	4.49
626.038	4.35
626.37	4.62
626.703	4.36
627.035	4.38
627.368	4.84
627.7	4.57
628.032	4.46
628.365	4.17
628.697	4.27
629.029	4.72
629.361	4.25
629.693	4.9
630.025	4.51
630.357	4.31
630.689	4.69
631.021	4.44
631.353	4.72
631.684	4.78
632.016	4.42
632.348	4.68
632.679	4.58
633.011	4.84
633.342	4.7
633.674	4.42
634.005	4.52
634.336	4.54
634.668	4.6
634.999	4.65
635.33	4.4
635.661	4.95
635.992	4.59
636.323	4.55
636.654	4.61
636.985	4.66
637.316	4.66
637.647	4.64
637.977	4.77
638.308	4.69
638.639	4.58
638.969	4.56
639.3	4.75
639.63	4.84
639.961	4.62
640.291	5.24
640.622	4.87
640.952	4.9
641.282	4.45
641.612	4.71
641.943	4.87
642.273	4.7
642.603	4.93
642.933	4.51
643.263	4.98
643.592	4.61
643.922	5.39
644.252	4.74
644.582	4.6
644.911	4.83
645.241	4.88
645.571	4.79
645.9	5.13
646.23	4.53
646.559	4.98
646.888	4.2
647.218	4.83
647.547	4.9
647.876	4.9
648.205	4.55
648.534	4.78
648.863	5.11
649.192	4.47
649.521	3.97
649.85	5
650.179	4.51
650.508	4.77
650.837	5.03
651.165	5.09
651.494	4.86
651.822	4.7
652.151	5.66
652.479	5.02
652.808	4.54
653.136	4.79
653.465	5.04
653.793	5.15
654.121	5.24
654.449	4.63
654.777	4.83
655.105	5.43
655.433	5.06
655.761	4.68
656.089	4.69
656.417	4.63
656.745	5.63
657.073	4.91
657.4	4.86
657.728	5
658.056	4.88
658.383	5.1
658.711	4.42
659.038	5.14
659.365	5.14
659.693	4.92
660.02	4.38
660.347	5.01
660.674	4.9
661.001	4.66
661.329	4.87
661.656	4.91
661.982	5.19
662.309	5.07
662.636	4.83
662.963	4.97
663.29	5.32
663.616	4.91
663.943	5.13
664.27	5.51
664.596	5.06
664.923	5.17
665.249	4.99
665.576	4.88
665.902	4.69
666.228	4.76
666.554	4.66
666.881	5.42
667.207	4.92
667.533	5.61
667.859	4.94
668.185	5.13
668.511	4.69
668.837	4.49
669.162	4.98
669.488	5.36
669.814	5.14
670.139	5.94
670.465	5.48
670.791	5.29
671.116	5.07
671.442	5.24
671.767	5.16
672.092	5.29
672.418	5.11
672.743	4.41
673.068	5.37
673.393	4.94
673.718	5.35
674.043	5.54
674.368	5.38
674.693	5.39
675.018	5.51
675.343	5.37
675.667	5.06
675.992	4.54
676.317	4.84
676.641	5.43
676.966	6.06
677.29	5.44
677.615	5.23
677.939	4.83
678.264	4.87
678.588	5.17
678.912	4.97
679.236	6.12
679.56	5.25
679.885	5.46
680.209	4.48
680.532	4.28
680.856	5.47
681.18	5.4
681.504	5.18
681.828	4.44
682.152	5.35
682.475	5.52
682.799	5.54
683.122	5
683.446	5.03
683.769	5.92
684.093	5.12
684.416	5.19
684.739	5.37
685.062	5.56
685.386	4.84
685.709	4.96
686.032	5.32
686.355	5.04
686.678	4.82
687.001	4.6
687.324	5.03
687.646	4.88
687.969	5.65
688.292	4.9
688.614	6
688.937	5.31
689.26	4.92
689.582	4.85
689.904	5.55
690.227	5.49
690.549	5.5
690.871	5.46
691.194	5.78
691.516	5.34
691.838	5.31
692.16	5.5
692.482	5.72
692.804	4.64
693.126	4.93
