Data from 0061_crown_Reflection__4__187.txt Node

Date: Fri Dec 16 15:27:42 CST 2022
User: ToomeyLab
Spectrometer: FLMS14357
Trigger mode: 0
Integration Time (sec): 1.000000E-2
Scans to average: 100
Electric dark correction enabled: true
Nonlinearity correction enabled: false
Boxcar width: 0
XAxis mode: Wavelengths
Number of Pixels in Spectrum: 2048
>>>>>Begin Spectral Data<<<<<
189.047	314.89
189.435	314.89
189.823	314.89
190.211	-12.76
190.599	747.83
190.987	48.35
191.375	103.52
191.763	-34.97
192.151	-1323.81
192.538	42.89
192.926	27.81
193.314	118.83
193.702	131.14
194.089	-1363.64
194.477	-60.7
194.864	-36.36
195.252	-24.37
195.639	76.5
196.027	-114.69
196.414	82.31
196.801	29.63
197.189	23.82
197.576	14.81
197.963	264.62
198.351	30.76
198.738	-24.76
199.125	34.35
199.512	5.15
199.899	-31.77
200.286	-21.67
200.673	19.76
201.06	25.23
201.447	22.72
201.833	1.9
202.22	29.38
202.607	14.65
202.994	-8.93
203.38	-13.64
203.767	-30.04
204.154	-17.89
204.54	6.65
204.927	17.53
205.313	25.37
205.699	-13.69
206.086	-21.74
206.472	-12.1
206.858	21.33
207.245	-10.6
207.631	-45.27
208.017	9.1
208.403	-8.77
208.789	22.59
209.175	41.64
209.561	-2.73
209.947	6.61
210.333	-5.58
210.719	12.51
211.105	-85.06
211.491	3.09
211.876	-28.13
212.262	-31.14
212.648	-13.82
213.034	24.03
213.419	29.74
213.805	-17.98
214.19	-10.9
214.576	33.62
214.961	4.26
215.346	-38.04
215.732	19.21
216.117	-1.95
216.502	5.48
216.888	-28.31
217.273	25.09
217.658	1.15
218.043	10.36
218.428	10.89
218.813	-13.37
219.198	-10.86
219.583	3.12
219.968	36.06
220.353	-4.16
220.738	-8.7
221.122	10.15
221.507	-1.73
221.892	7.27
222.276	-0.77
222.661	18.42
223.046	15.32
223.43	-8.47
223.815	14.11
224.199	15.4
224.583	1.18
224.968	17.79
225.352	0.7
225.736	5.77
226.121	7.44
226.505	16
226.889	12.04
227.273	11.22
227.657	5.35
228.041	12.26
228.425	9.63
228.809	6.52
229.193	7.6
229.577	8.8
229.961	10.48
230.344	8.98
230.728	9.4
231.112	9.68
231.495	9.66
231.879	9.53
232.263	7.96
232.646	8.13
233.03	6.95
233.413	9.58
233.797	11.18
234.18	7.37
234.563	7.22
234.946	9.81
235.33	9.77
235.713	9.65
236.096	7.93
236.479	10.52
236.862	8.99
237.245	8.37
237.628	9.63
238.011	9
238.394	11.48
238.777	10.53
239.16	7.99
239.543	8.03
239.925	10.63
240.308	8.83
240.691	8.21
241.073	9.35
241.456	8.73
241.838	8.5
242.221	8.71
242.603	8.93
242.986	9.52
243.368	9.09
243.75	8.05
244.133	8.11
244.515	8.48
244.897	8.38
245.279	7.74
245.661	7.97
246.043	9.62
246.425	7.58
246.807	8.46
247.189	8.1
247.571	8.5
247.953	8.03
248.335	8.21
248.717	8.24
249.098	8.14
249.48	7.58
249.862	8.07
250.243	7.87
250.625	7.93
251.006	7.69
251.388	8.45
251.769	8.2
252.151	6.99
252.532	7.72
252.913	7.38
253.295	7.68
253.676	8.17
254.057	7.76
254.438	7.41
254.819	8.05
255.2	6.82
255.581	7.46
255.962	7.86
256.343	8.22
256.724	7.68
257.105	7.15
257.486	8.72
257.867	6.58
258.247	8.82
258.628	7.55
259.009	7.32
259.389	7.77
259.77	7.68
260.15	8.21
260.531	7.69
260.911	7.36
261.292	7.31
261.672	7.23
262.052	7.27
262.432	7.56
262.813	7.47
263.193	6.93
263.573	7.6
263.953	7.27
264.333	6.94
264.713	7.32
265.093	7.04
265.473	7.84
265.853	7.82
266.233	6.99
266.612	7.48
266.992	6.88
267.372	6.82
267.752	7.12
268.131	7.09
268.511	7.13
268.89	7.41
269.27	7.02
269.649	7.55
270.029	7.28
270.408	7.16
270.787	7
271.167	7.14
271.546	6.72
271.925	7.25
272.304	7
272.683	7
273.062	7.16
273.441	7.1
273.82	7.52
274.199	6.49
274.578	6.61
274.957	6.98
275.336	6.68
275.715	7.14
276.093	6.77
276.472	6.73
276.851	7.13
277.229	7.82
277.608	6.86
277.986	6.63
278.365	6.38
278.743	6.4
279.122	6.49
279.5	5.92
279.878	5.98
280.257	7.29
280.635	6.65
281.013	7.32
281.391	6.45
281.769	6.27
282.147	6.98
282.525	6.4
282.903	6.71
283.281	6.85
283.659	6.83
284.037	6.8
284.415	7.05
284.792	6.89
285.17	6.65
285.548	6.41
285.925	6.41
286.303	6.48
286.68	6.78
287.058	6.96
287.435	6.49
287.813	6.5
288.19	7.07
288.567	6.88
288.945	6.35
289.322	5.85
289.699	6.68
290.076	6.77
290.453	6.47
290.83	6.32
291.207	6.15
291.584	6.63
291.961	6.49
292.338	6.55
292.715	6.35
293.092	6.57
293.469	6.66
293.845	6.4
294.222	6.4
294.599	6.37
294.975	6.32
295.352	6.2
295.728	6.23
296.105	6.19
296.481	7.07
296.858	6.58
297.234	6.75
297.61	6.55
297.986	6.52
298.363	6.19
298.739	6.36
299.115	6.19
299.491	6.31
299.867	6.31
300.243	5.91
300.619	6.27
300.995	6.61
301.371	6.66
301.746	5.98
302.122	6.32
302.498	6.3
302.874	6.7
303.249	6.5
303.625	5.98
304	6.19
304.376	6.35
304.751	6.74
305.127	6.39
305.502	6.16
305.878	6.49
306.253	5.94
306.628	6.56
307.003	6.3
307.378	6.22
307.754	6.5
308.129	5.83
308.504	6.34
308.879	6.55
309.254	6.52
309.629	5.99
310.003	6.51
310.378	6.55
310.753	6.25
311.128	6.13
311.502	6.2
311.877	6.28
312.252	6.07
312.626	6.42
313.001	6.09
313.375	6.21
313.75	6
314.124	6.94
314.498	5.94
314.873	6.17
315.247	6.05
315.621	6.29
315.995	6.61
316.369	6.29
316.743	6.4
317.117	6.49
317.491	6.42
317.865	5.94
318.239	6.32
318.613	6.05
318.987	6.34
319.361	6.13
319.734	6.2
320.108	5.84
320.482	6.07
320.855	5.83
321.229	6.76
321.602	5.94
321.976	5.69
322.349	5.24
322.723	6.17
323.096	6.59
323.469	5.51
323.843	6.47
324.216	6.02
324.589	6.21
324.962	6.13
325.335	6.37
325.708	6.42
326.081	6.83
326.454	6.29
326.827	6.42
327.2	5.88
327.573	6.52
327.945	5.8
328.318	6.49
328.691	6.13
329.063	6.02
329.436	5.9
329.809	5.81
330.181	6.05
330.553	6.43
330.926	6.31
331.298	6.07
331.671	6.17
332.043	6.48
332.415	6.55
332.787	6.47
333.159	6.09
333.532	6.35
333.904	6.04
334.276	6.21
334.648	6.12
335.02	5.59
335.391	6.22
335.763	5.86
336.135	6.05
336.507	6.42
336.879	5.99
337.25	6.39
337.622	6.51
337.993	6.54
338.365	6.07
338.736	6.12
339.108	6.2
339.479	6.09
339.851	6.61
340.222	6.6
340.593	6.59
340.964	6.11
341.336	5.98
341.707	5.74
342.078	6.13
342.449	6.75
342.82	6.18
343.191	6.1
343.562	6.32
343.933	6.58
344.303	6.46
344.674	6.2
345.045	6.52
345.416	6.17
345.786	6.26
346.157	6.45
346.527	5.91
346.898	6.47
347.268	6.49
347.639	6.3
348.009	6.37
348.38	6.2
348.75	6.34
349.12	6.26
349.49	5.98
349.861	6.42
350.231	6.7
350.601	6.58
350.971	6.27
351.341	6.49
351.711	6.12
352.081	6.22
352.45	6.7
352.82	6.6
353.19	6.48
353.56	6.24
353.929	6.55
354.299	6.43
354.669	6.41
355.038	6.34
355.408	6.99
355.777	6.48
356.147	6.52
356.516	6.67
356.885	6.41
357.254	6.45
357.624	6.74
357.993	6.35
358.362	6.62
358.731	6.54
359.1	6.72
359.469	6.49
359.838	6.57
360.207	6.31
360.576	6.58
360.945	6.49
361.314	6.65
361.682	6.29
362.051	6.63
362.42	6.66
362.788	6.66
363.157	6.34
363.525	6.48
363.894	6.2
364.262	6.69
364.631	6.95
364.999	6.43
365.367	6.67
365.735	6.57
366.104	6.57
366.472	6.87
366.84	6.46
367.208	6.38
367.576	6.64
367.944	6.83
368.312	6.27
368.68	6.87
369.048	6.61
369.416	6.7
369.783	6.72
370.151	6.59
370.519	6.71
370.886	6.72
371.254	6.7
371.621	6.72
371.989	6.73
372.356	6.7
372.724	6.72
373.091	6.46
373.458	6.41
373.826	6.55
374.193	6.85
374.56	6.53
374.927	6.67
375.294	7.1
375.661	6.95
376.028	6.85
376.395	6.55
376.762	6.95
377.129	6.79
377.496	6.73
377.863	6.99
378.229	6.84
378.596	6.74
378.963	6.75
379.329	6.72
379.696	6.7
380.062	6.8
380.429	6.76
380.795	6.64
381.161	7.09
381.528	6.42
381.894	6.74
382.26	6.64
382.626	6.52
382.993	6.63
383.359	6.77
383.725	6.86
384.091	6.64
384.457	7.06
384.823	6.81
385.188	7.29
385.554	7.04
385.92	6.95
386.286	6.9
386.651	6.74
387.017	7.02
387.383	6.8
387.748	6.75
388.114	7.08
388.479	6.91
388.845	6.85
389.21	7
389.575	6.94
389.94	6.91
390.306	6.77
390.671	7.01
391.036	6.97
391.401	7.45
391.766	7.09
392.131	6.77
392.496	6.93
392.861	6.86
393.226	6.94
393.591	7
393.956	7.05
394.32	6.98
394.685	7.11
395.05	6.76
395.414	6.98
395.779	6.97
396.143	6.99
396.508	6.87
396.872	7
397.236	6.92
397.601	7.1
397.965	6.61
398.329	7.35
398.694	6.76
399.058	7.04
399.422	7
399.786	7.1
400.15	6.9
400.514	6.96
400.878	7.03
401.242	7.06
401.605	6.82
401.969	6.93
402.333	7.18
402.697	7
403.06	6.99
403.424	6.99
403.787	7.31
404.151	6.99
404.514	6.97
404.878	6.97
405.241	6.9
405.604	7.12
405.968	6.91
406.331	7.04
406.694	6.83
407.057	7.33
407.42	6.98
407.783	6.96
408.146	6.99
408.509	6.82
408.872	6.85
409.235	7.27
409.598	7.13
409.961	6.99
410.323	7.21
410.686	6.93
411.049	6.92
411.411	7.38
411.774	7.06
412.136	7.11
412.499	7.04
412.861	7.19
413.223	7.25
413.586	7.1
413.948	7.07
414.31	7.05
414.672	6.93
415.035	7.1
415.397	7.42
415.759	6.87
416.121	7.32
416.483	7.2
416.845	7.13
417.206	7.06
417.568	7.06
417.93	7.15
418.292	7.17
418.653	7.01
419.015	7.3
419.377	7.11
419.738	7.04
420.1	7.01
420.461	7.03
420.822	6.99
421.184	7.05
421.545	7.01
421.906	7.15
422.267	6.83
422.629	6.95
422.99	6.98
423.351	7.03
423.712	6.94
424.073	6.99
424.434	7.01
424.795	6.99
425.155	7
425.516	6.9
425.877	7.02
426.238	6.86
426.598	6.96
426.959	6.94
427.32	7.01
427.68	7.1
428.041	7.1
428.401	6.9
428.761	7.1
429.122	7.16
429.482	7.03
429.842	7.15
430.202	7.12
430.563	7.23
430.923	7.19
431.283	7.2
431.643	7.21
432.003	7.1
432.363	7.34
432.722	7.24
433.082	7.16
433.442	7.24
433.802	7.18
434.161	7.02
434.521	6.99
434.881	7.16
435.24	6.92
435.6	7.02
435.959	7.01
436.319	7.06
436.678	7.11
437.037	7.21
437.396	7.34
437.756	7.2
438.115	7.16
438.474	7.16
438.833	7.08
439.192	7.19
439.551	7.26
439.91	7.18
440.269	7.15
440.628	7.03
440.987	6.93
441.345	7.08
441.704	7.09
442.063	6.99
442.421	7.04
442.78	7.01
443.138	7.1
443.497	7.14
443.855	7.12
444.214	7.26
444.572	7
444.93	7.17
445.288	7.11
445.647	7.12
446.005	7.01
446.363	7.19
446.721	6.85
447.079	6.97
447.437	6.99
447.795	7.04
448.153	6.97
448.51	6.94
448.868	7.05
449.226	7
449.584	7.04
449.941	7.19
450.299	7.13
450.656	7.11
451.014	6.99
451.371	7.14
451.729	7.11
452.086	6.97
452.443	7.17
452.801	7.22
453.158	7.14
453.515	7.14
453.872	7.24
454.229	7.06
454.586	7.1
454.943	7.08
455.3	7.21
455.657	7.02
456.014	7.2
456.371	7.14
456.727	7.05
457.084	7.05
457.441	7.15
457.797	7.14
458.154	6.94
458.51	7.13
458.867	7.03
459.223	7.12
459.58	7.1
459.936	7.19
460.292	7.13
460.648	6.99
461.005	6.9
461.361	6.97
461.717	6.9
462.073	7
462.429	7.08
462.785	7.02
463.141	7.14
463.496	7.18
463.852	7.17
464.208	7.18
464.564	7.03
464.919	7.07
465.275	7.05
465.631	7.16
465.986	7.09
466.342	7.22
466.697	7.14
467.052	7.23
467.408	7.13
467.763	7.01
468.118	7.18
468.473	7.3
468.829	7.22
469.184	7.22
469.539	7.03
469.894	7.08
470.249	7.14
470.603	7.13
470.958	7.2
471.313	7.18
471.668	7.27
472.023	7.34
472.377	7.15
472.732	7.09
473.086	7
473.441	7.22
473.795	7.16
474.15	7.09
474.504	7.23
474.859	7.31
475.213	6.92
475.567	6.95
475.921	7.28
476.275	7.13
476.63	7.05
476.984	7.08
477.338	7.29
477.692	7.1
478.045	7.19
478.399	7.23
478.753	7.08
479.107	7.12
479.461	7.16
479.814	7.1
480.168	7.17
480.521	7.09
480.875	7.29
481.228	7.21
481.582	7.01
481.935	7.16
482.289	7.15
482.642	7.06
482.995	7.12
483.348	6.99
483.701	7.01
484.055	6.97
484.408	6.9
484.761	6.7
485.114	6.69
485.466	6.68
485.819	6.67
486.172	6.75
486.525	6.84
486.878	6.89
487.23	7
487.583	6.89
487.936	6.91
488.288	6.83
488.641	6.83
488.993	6.72
489.345	6.74
489.698	6.82
490.05	6.77
490.402	6.83
490.754	6.92
491.107	7.03
491.459	7.07
491.811	7.07
492.163	7.09
492.515	6.96
492.866	6.79
493.218	6.74
493.57	6.86
493.922	6.81
494.274	6.95
494.625	7.05
494.977	7.06
495.328	7.19
495.68	7.21
496.031	7.18
496.383	7
496.734	7.21
497.086	6.94
497.437	7.12
497.788	7.07
498.139	7.11
498.49	7.08
498.842	6.94
499.193	7.1
499.544	7.18
499.894	7.03
500.245	7.02
500.596	7.16
500.947	7.04
501.298	7.09
501.648	7.17
501.999	7.14
502.35	7.16
502.7	7.17
503.051	7.29
503.401	7.17
503.752	7.09
504.102	7.23
504.452	7.03
504.803	6.98
505.153	7.13
505.503	7.1
505.853	7.01
506.203	7.12
506.553	7.08
506.903	7.05
507.253	7.17
507.603	7.03
507.953	7.23
508.303	7.14
508.652	7.08
509.002	7.16
509.352	7.07
509.701	7.05
510.051	7.05
510.4	7.07
510.75	7.15
511.099	6.93
511.449	7.04
511.798	7.25
512.147	7.06
512.496	7.15
512.846	6.98
513.195	7.13
513.544	7.16
513.893	6.98
514.242	7.1
514.591	7.13
514.939	6.99
515.288	7.12
515.637	7.21
515.986	7.09
516.334	7.13
516.683	7.06
517.032	7.14
517.38	7.02
517.729	7.09
518.077	7.18
518.426	7.06
518.774	7.08
519.122	7.01
519.47	7
519.819	7.05
520.167	6.95
520.515	6.95
520.863	6.83
521.211	6.98
521.559	7
521.907	7.06
522.255	7.12
522.602	7.08
522.95	7.13
523.298	7.03
523.645	7.1
523.993	7.11
524.341	7.14
524.688	7.06
525.036	7.19
525.383	7.21
525.73	7.12
526.078	7.14
526.425	7.03
526.772	6.86
527.119	6.93
527.466	6.96
527.814	6.88
528.161	6.96
528.508	6.95
528.854	6.88
529.201	6.84
529.548	6.74
529.895	6.69
530.242	6.71
530.588	6.73
530.935	6.75
531.282	6.78
531.628	6.86
531.975	6.94
532.321	6.92
532.667	6.92
533.014	6.92
533.36	7.01
533.706	6.93
534.052	6.89
534.399	6.75
534.745	6.76
535.091	6.82
535.437	6.9
535.783	7.01
536.129	6.81
536.474	7.04
536.82	6.89
537.166	6.99
537.512	7.04
537.857	6.91
538.203	6.91
538.549	7
538.894	6.87
539.239	7.1
539.585	7.13
539.93	7.02
540.276	6.99
540.621	7.13
540.966	6.99
541.311	7.06
541.656	7.02
542.001	6.94
542.346	6.82
542.691	6.75
543.036	6.74
543.381	6.76
543.726	6.86
544.071	6.93
544.415	6.89
544.76	6.81
545.105	6.92
545.449	6.81
545.794	6.85
546.138	7.01
546.483	6.93
546.827	7.07
547.171	6.87
547.516	6.99
547.86	6.98
548.204	6.9
548.548	7.04
548.892	6.99
549.236	7.09
549.58	7.15
549.924	6.95
550.268	7.12
550.612	7.01
550.956	7.03
551.3	7.07
551.643	7.23
551.987	6.91
552.33	7.01
552.674	7.14
553.017	7.03
553.361	7.13
553.704	6.93
554.048	7.17
554.391	6.98
554.734	7.01
555.077	7.01
555.42	7.06
555.764	7.06
556.107	7.01
556.45	7.01
556.793	7.12
557.135	7.27
557.478	7.12
557.821	6.96
558.164	7.06
558.507	6.91
558.849	6.87
559.192	7.12
559.534	6.89
559.877	7.13
560.219	7.2
560.562	7.08
560.904	6.94
561.246	7.12
561.589	7.02
561.931	7.1
562.273	7.24
562.615	7.15
562.957	7.06
563.299	7.14
563.641	7.09
563.983	6.93
564.325	6.81
564.667	7.02
565.008	7.08
565.35	7.13
565.692	7.16
566.033	6.94
566.375	6.91
566.716	7.09
567.058	7.04
567.399	7
567.741	6.98
568.082	6.87
568.423	7.04
568.764	7.04
569.105	7.24
569.447	7.02
569.788	6.93
570.129	7.04
570.47	7.05
570.811	7.03
571.151	7.01
571.492	7.11
571.833	6.94
572.174	7.02
572.514	6.98
572.855	7.1
573.195	6.86
573.536	7.01
573.876	6.95
574.217	7.06
574.557	6.96
574.898	6.85
575.238	6.95
575.578	7.06
575.918	7.06
576.258	7.07
576.598	7.1
576.938	6.99
577.278	6.88
577.618	6.99
577.958	6.94
578.298	7.14
578.638	6.98
578.977	6.98
579.317	7.13
579.657	6.97
579.996	6.82
580.336	7.12
580.675	7.23
581.014	7.06
581.354	7.22
581.693	6.93
582.032	7.03
582.372	7.01
582.711	6.94
583.05	7.13
583.389	7.04
583.728	7.15
584.067	7.01
584.406	7.16
584.745	6.7
585.083	7.23
585.422	7.23
585.761	7.14
586.1	7.07
586.438	6.94
586.777	7.08
587.115	7.09
587.454	7.15
587.792	6.87
588.13	7.03
588.469	7.13
588.807	7.22
589.145	7.11
589.483	6.94
589.821	7.26
590.159	7.12
590.497	6.61
590.835	6.88
591.173	6.91
591.511	7.16
591.849	7.06
592.187	6.93
592.524	6.73
592.862	7.21
593.2	6.98
593.537	6.94
593.875	7.02
594.212	7.13
594.55	7.03
594.887	7.1
595.224	6.97
595.561	7.02
595.899	7.03
596.236	6.89
596.573	6.93
596.91	7.15
597.247	6.93
597.584	7.13
597.921	6.89
598.258	6.93
598.594	6.85
598.931	6.91
599.268	6.93
599.604	7.23
599.941	7.01
600.277	6.97
600.614	6.82
600.95	7.11
601.287	7.04
601.623	6.95
601.959	6.8
602.296	7.25
602.632	7.24
602.968	6.77
603.304	7.15
603.64	6.98
603.976	6.94
604.312	7.21
604.648	7.07
604.984	7.02
605.319	6.95
605.655	7
605.991	6.82
606.326	6.82
606.662	6.78
606.998	6.9
607.333	6.92
607.668	6.88
608.004	6.96
608.339	6.7
608.674	6.77
609.01	6.94
609.345	7.21
609.68	6.89
610.015	7.02
610.35	6.92
610.685	6.99
611.02	7.09
611.355	6.94
611.689	6.78
612.024	7.13
612.359	6.83
612.694	7.08
613.028	7.37
613.363	6.78
613.697	7.11
614.032	7.14
614.366	6.83
614.7	7.44
615.035	6.9
615.369	7.12
615.703	7.24
616.037	7.01
616.371	7.07
616.705	6.83
617.039	7.31
617.373	7.13
617.707	6.66
618.041	7.01
618.375	6.93
618.709	6.87
619.042	7.09
619.376	7.25
619.71	6.93
620.043	6.72
620.377	6.99
620.71	6.83
621.043	6.94
621.377	6.84
621.71	7.28
622.043	7.12
622.376	6.94
622.709	7.37
623.043	6.88
623.376	7.23
623.709	6.98
624.041	7.05
624.374	7.01
624.707	7.16
625.04	7.32
625.373	6.81
625.705	7.12
626.038	6.89
626.37	6.98
626.703	6.85
627.035	6.98
627.368	7.16
627.7	7.05
628.032	7.01
628.365	6.8
628.697	6.68
629.029	7.42
629.361	6.99
629.693	7.09
630.025	6.97
630.357	7.04
630.689	7.11
631.021	7.03
631.353	7.02
631.684	7.09
632.016	6.74
632.348	6.79
632.679	6.92
633.011	7.08
633.342	7.14
633.674	6.83
634.005	7.21
634.336	6.93
634.668	7.07
634.999	6.96
635.33	6.94
635.661	7.34
635.992	7.06
636.323	7.09
636.654	7.26
636.985	6.97
637.316	6.97
637.647	6.99
637.977	6.9
638.308	6.72
638.639	6.83
638.969	6.86
639.3	7.17
639.63	6.86
639.961	6.9
640.291	7.32
640.622	7.32
640.952	6.89
641.282	6.33
641.612	6.67
641.943	7.46
642.273	7.36
642.603	6.92
642.933	6.77
643.263	7.52
643.592	7.07
643.922	7.12
644.252	7.17
644.582	6.97
644.911	7.1
645.241	7.2
645.571	6.91
645.9	7.01
646.23	6.73
646.559	7.18
646.888	6.73
647.218	6.78
647.547	7.24
647.876	7.08
648.205	7.2
648.534	6.58
648.863	7.24
649.192	7.17
649.521	6.76
649.85	7.14
650.179	6.97
650.508	7.26
650.837	7.01
651.165	7.12
651.494	6.96
651.822	7.21
652.151	7.47
652.479	7.31
652.808	6.93
653.136	6.82
653.465	7.4
653.793	7.49
654.121	7.04
654.449	7.25
654.777	7.02
655.105	7.66
655.433	7.2
655.761	7.21
656.089	7.28
656.417	6.67
656.745	7.62
657.073	7.68
657.4	7.32
657.728	6.95
658.056	7.13
658.383	7.77
658.711	6.66
659.038	7.25
659.365	7.01
659.693	7.1
660.02	7.05
660.347	7.05
660.674	6.74
661.001	7.1
661.329	7.38
661.656	6.86
661.982	7.43
662.309	7.18
662.636	6.85
662.963	7.58
663.29	7.22
663.616	7.34
663.943	7.16
664.27	7.03
664.596	6.88
664.923	7.29
665.249	7.53
665.576	7.28
665.902	7.34
666.228	7.3
666.554	6.67
666.881	7.34
667.207	6.78
667.533	7.54
667.859	7.2
668.185	7.02
668.511	6.84
668.837	6.62
669.162	7.4
669.488	7.02
669.814	7.53
670.139	7.64
670.465	7.04
670.791	7.5
671.116	6.98
671.442	7.47
671.767	7.31
672.092	7.28
672.418	7.32
672.743	7.12
673.068	7.04
673.393	7.38
673.718	6.93
674.043	7.35
674.368	7.19
674.693	7.23
675.018	7.67
675.343	7.45
675.667	6.81
675.992	6.8
676.317	7.67
676.641	7.3
676.966	7.49
677.29	7.48
677.615	7.36
677.939	7.5
678.264	6.98
678.588	7.57
678.912	7.74
679.236	7.1
679.56	6.59
679.885	7.33
680.209	7.52
680.532	7.05
680.856	7.96
681.18	6.99
681.504	7.06
681.828	6.67
682.152	7.41
682.475	7.57
682.799	7.47
683.122	7.34
683.446	7
683.769	7.28
684.093	7.23
684.416	6.98
684.739	7.36
685.062	7.55
685.386	7.54
685.709	7.65
686.032	7.34
686.355	7.3
686.678	7.57
687.001	6.41
687.324	7.24
687.646	6.85
687.969	7.4
688.292	7.64
688.614	7.48
688.937	7.17
689.26	6.56
689.582	7.26
689.904	7.6
690.227	7.53
690.549	7.77
690.871	7.84
691.194	7.77
691.516	7.08
691.838	7.46
692.16	7.11
692.482	7.69
692.804	6.98
693.126	7.23
