Data from 97281_chest_Reflection__0__46.txt Node

Date: Fri Sep 23 20:04:16 CDT 2022
User: ToomeyLab
Spectrometer: FLMS14357
Trigger mode: 0
Integration Time (sec): 1.000000E-2
Scans to average: 100
Electric dark correction enabled: true
Nonlinearity correction enabled: false
Boxcar width: 0
XAxis mode: Wavelengths
Number of Pixels in Spectrum: 2048
>>>>>Begin Spectral Data<<<<<
189.047	19.81
189.435	19.81
189.823	19.81
190.211	152.4
190.599	51.77
190.987	460.62
191.375	551.68
191.763	77.85
192.151	-94.49
192.538	83.46
192.926	101.52
193.314	63.04
193.702	96.78
194.089	-60.73
194.477	65.35
194.864	202.62
195.252	1260.26
195.639	-208.96
196.027	-1.54
196.414	356.78
196.801	24.46
197.189	203.65
197.576	50.74
197.963	-67.59
198.351	43.03
198.738	-62.8
199.125	4.4
199.512	5.61
199.899	-1.09
200.286	-1.21
200.673	20.3
201.06	12.79
201.447	3.78
201.833	37.8
202.22	39.42
202.607	52.43
202.994	-24.09
203.38	-12.78
203.767	1.81
204.154	15.01
204.54	9.53
204.927	51.25
205.313	34.62
205.699	30.6
206.086	-6.36
206.472	25.14
206.858	26.99
207.245	-0.26
207.631	4.02
208.017	0.88
208.403	-12.28
208.789	38.93
209.175	19.68
209.561	6.74
209.947	-11.05
210.333	1.29
210.719	23.06
211.105	5.96
211.491	6.71
211.876	13.19
212.262	-13.9
212.648	12.03
213.034	-12.2
213.419	9.43
213.805	51.96
214.19	-1.04
214.576	13.3
214.961	29.49
215.346	-10.09
215.732	23.33
216.117	32.8
216.502	15.68
216.888	8.05
217.273	42.67
217.658	1.83
218.043	16.51
218.428	33.05
218.813	25.84
219.198	9.76
219.583	13.24
219.968	32.55
220.353	14.83
220.738	-5.17
221.122	-2.17
221.507	3.57
221.892	-1.21
222.276	-13.5
222.661	13.76
223.046	15.85
223.43	-4.45
223.815	16.22
224.199	8.23
224.583	10.62
224.968	-1.09
225.352	7.99
225.736	6.7
226.121	6.12
226.505	6.52
226.889	8.04
227.273	8.61
227.657	11.34
228.041	7.95
228.425	10.07
228.809	4.56
229.193	6.83
229.577	6.59
229.961	5.35
230.344	6.42
230.728	5.03
231.112	5.37
231.495	4.99
231.879	2.29
232.263	7.58
232.646	6.73
233.03	6.19
233.413	6.28
233.797	5.46
234.18	7.3
234.563	3.74
234.946	10.76
235.33	5.55
235.713	7.53
236.096	5.3
236.479	6.61
236.862	5.73
237.245	5.6
237.628	8.9
238.011	6.09
238.394	4.69
238.777	5.92
239.16	5.22
239.543	4.12
239.925	5.48
240.308	7.41
240.691	6.11
241.073	4.57
241.456	5.28
241.838	7.2
242.221	6.59
242.603	6.78
242.986	5.14
243.368	5.31
243.75	5.53
244.133	5.65
244.515	5.3
244.897	5.67
245.279	5.58
245.661	6.87
246.043	6.56
246.425	4.95
246.807	5.12
247.189	6.76
247.571	6.18
247.953	5.59
248.335	6.04
248.717	6.2
249.098	5.73
249.48	5.86
249.862	5.91
250.243	6.06
250.625	6.3
251.006	6.48
251.388	5.42
251.769	6.5
252.151	5.88
252.532	5.66
252.913	5.67
253.295	5.95
253.676	5.62
254.057	5.71
254.438	5.51
254.819	6.23
255.2	6.09
255.581	6.56
255.962	6.22
256.343	6.52
256.724	4.93
257.105	6.23
257.486	4.78
257.867	6.2
258.247	6.94
258.628	5.58
259.009	5.25
259.389	5.94
259.77	5.12
260.15	5.5
260.531	5.94
260.911	5.51
261.292	5.55
261.672	5.45
262.052	5.24
262.432	5.28
262.813	5.82
263.193	5.67
263.573	5.8
263.953	5.21
264.333	5.33
264.713	5.48
265.093	5.08
265.473	5.57
265.853	5.32
266.233	5.91
266.612	5.78
266.992	5.58
267.372	5.07
267.752	5.7
268.131	5.76
268.511	5.16
268.89	5.28
269.27	5.01
269.649	5.16
270.029	5.48
270.408	6.13
270.787	5.28
271.167	5.1
271.546	5.11
271.925	5.44
272.304	5.44
272.683	5.22
273.062	5.12
273.441	5.33
273.82	5.36
274.199	5.01
274.578	4.92
274.957	5.2
275.336	5.04
275.715	5.24
276.093	5.86
276.472	6.11
276.851	5.34
277.229	5.31
277.608	5.34
277.986	4.82
278.365	5.64
278.743	6.03
279.122	4.54
279.5	5.03
279.878	4.8
280.257	5.11
280.635	4.74
281.013	5.02
281.391	5.22
281.769	5.3
282.147	5.53
282.525	5.21
282.903	4.65
283.281	5.22
283.659	5.23
284.037	5.14
284.415	4.99
284.792	5.24
285.17	5.25
285.548	5.26
285.925	5.25
286.303	5.69
286.68	5.36
287.058	5.3
287.435	5.27
287.813	5.53
288.19	5.13
288.567	5.43
288.945	5.48
289.322	5.37
289.699	5.51
290.076	5.28
290.453	5.49
290.83	5.59
291.207	5.19
291.584	5.69
291.961	5.48
292.338	5.51
292.715	5.21
293.092	5.73
293.469	5.76
293.845	6.03
294.222	5.94
294.599	5.72
294.975	6.49
295.352	6.16
295.728	5.83
296.105	5.6
296.481	5.99
296.858	5.76
297.234	6.05
297.61	5.57
297.986	5.92
298.363	5.87
298.739	6.06
299.115	5.64
299.491	5.7
299.867	5.67
300.243	5.97
300.619	6.24
300.995	6.05
301.371	5.67
301.746	6.21
302.122	5.67
302.498	6.21
302.874	5.19
303.249	6.02
303.625	5.8
304	5.68
304.376	5.53
304.751	5.74
305.127	5.93
305.502	6.4
305.878	6.3
306.253	6.17
306.628	5.68
307.003	6.17
307.378	6
307.754	6.28
308.129	5.67
308.504	5.77
308.879	6.62
309.254	6.27
309.629	6.64
310.003	5.91
310.378	6.32
310.753	6.56
311.128	5.9
311.502	6.16
311.877	6.19
312.252	6.08
312.626	6.37
313.001	6.37
313.375	6.21
313.75	6.1
314.124	6.21
314.498	6.57
314.873	6.44
315.247	6.57
315.621	6.27
315.995	6.48
316.369	5.99
316.743	5.92
317.117	5.93
317.491	5.6
317.865	6.57
318.239	6.83
318.613	6.27
318.987	6.01
319.361	5.62
319.734	6.18
320.108	6.33
320.482	6.83
320.855	5.8
321.229	6.99
321.602	5.96
321.976	7.07
322.349	6.38
322.723	6.17
323.096	6.28
323.469	6.55
323.843	6.18
324.216	6.53
324.589	6.26
324.962	6.47
325.335	6.26
325.708	6.25
326.081	6.17
326.454	6.11
326.827	6.22
327.2	5.99
327.573	6.39
327.945	6.34
328.318	6.04
328.691	6.35
329.063	6.52
329.436	6.27
329.809	6.96
330.181	6.29
330.553	5.78
330.926	6.56
331.298	6.4
331.671	6.43
332.043	6.46
332.415	6.47
332.787	6.54
333.159	6.71
333.532	5.79
333.904	5.88
334.276	6.34
334.648	6.63
335.02	6.33
335.391	6.87
335.763	6.09
336.135	6.22
336.507	6.58
336.879	6.32
337.25	6.46
337.622	5.97
337.993	6.47
338.365	6.78
338.736	6.32
339.108	6.99
339.479	6.02
339.851	6.76
340.222	6.92
340.593	6
340.964	6.44
341.336	6.45
341.707	6.74
342.078	6.15
342.449	6.29
342.82	6.58
343.191	6.36
343.562	6.08
343.933	6.76
344.303	6.33
344.674	6.69
345.045	6.49
345.416	6.42
345.786	7.06
346.157	6.17
346.527	6.67
346.898	6.88
347.268	6.14
347.639	6.38
348.009	6.31
348.38	6.24
348.75	6.81
349.12	6.24
349.49	6.5
349.861	6.46
350.231	6.38
350.601	6.33
350.971	6.32
351.341	6.35
351.711	6.54
352.081	6.27
352.45	6.17
352.82	6.18
353.19	6.76
353.56	6.3
353.929	6.36
354.299	6.83
354.669	6.82
355.038	6.63
355.408	5.97
355.777	6.39
356.147	6.38
356.516	6.55
356.885	6.52
357.254	6.19
357.624	6.39
357.993	6.81
358.362	6.47
358.731	6.3
359.1	6.61
359.469	6.16
359.838	6.35
360.207	6.64
360.576	6.52
360.945	6.56
361.314	6.27
361.682	6.54
362.051	6.69
362.42	6.43
362.788	6.2
363.157	6.93
363.525	6.93
363.894	6.72
364.262	6.27
364.631	6.65
364.999	6.52
365.367	6.49
365.735	6.78
366.104	6.79
366.472	6.71
366.84	6.56
367.208	6.68
367.576	6.91
367.944	6.59
368.312	7
368.68	6.71
369.048	6.7
369.416	6.87
369.783	6.53
370.151	6.74
370.519	6.5
370.886	6.68
371.254	6.91
371.621	6.71
371.989	6.57
372.356	6.94
372.724	6.78
373.091	6.83
373.458	6.58
373.826	6.68
374.193	7.08
374.56	6.74
374.927	6.84
375.294	6.95
375.661	6.95
376.028	6.68
376.395	7
376.762	6.86
377.129	6.62
377.496	6.8
377.863	7.03
378.229	6.88
378.596	6.7
378.963	7.14
379.329	7.05
379.696	6.76
380.062	6.63
380.429	6.78
380.795	6.75
381.161	6.81
381.528	6.97
381.894	6.74
382.26	6.59
382.626	6.79
382.993	7.02
383.359	6.78
383.725	6.93
384.091	6.8
384.457	7.16
384.823	6.74
385.188	7.18
385.554	6.93
385.92	6.97
386.286	7.14
386.651	6.96
387.017	7.37
387.383	7.1
387.748	6.98
388.114	6.91
388.479	6.88
388.845	6.9
389.21	6.83
389.575	6.68
389.94	6.52
390.306	6.91
390.671	6.74
391.036	7
391.401	7.06
391.766	7.19
392.131	7.02
392.496	7.08
392.861	7.02
393.226	6.91
393.591	6.96
393.956	6.87
394.32	6.97
394.685	6.96
395.05	6.97
395.414	6.93
395.779	6.87
396.143	7.07
396.508	6.98
396.872	6.89
397.236	7.09
397.601	7.16
397.965	7.3
398.329	7.14
398.694	7.06
399.058	7.3
399.422	7.21
399.786	7.32
400.15	7.11
400.514	7.17
400.878	7.16
401.242	6.94
401.605	7.34
401.969	7.33
402.333	7.17
402.697	6.93
403.06	7.4
403.424	7.01
403.787	6.93
404.151	7.14
404.514	7.12
404.878	7.23
405.241	7.16
405.604	7.11
405.968	6.99
406.331	7.15
406.694	7.19
407.057	7.09
407.42	7.26
407.783	7.11
408.146	7.11
408.509	7.2
408.872	7.08
409.235	7.19
409.598	7.46
409.961	7.33
410.323	7.34
410.686	7.49
411.049	7.19
411.411	7.37
411.774	7.12
412.136	7.23
412.499	7.1
412.861	7.16
413.223	7.19
413.586	7.32
413.948	7.49
414.31	7.22
414.672	7.31
415.035	7.34
415.397	7.59
415.759	7.34
416.121	7.44
416.483	7.34
416.845	7.15
417.206	7.3
417.568	7.31
417.93	7.15
418.292	7.31
418.653	7.44
419.015	7.39
419.377	7.24
419.738	7.28
420.1	7.27
420.461	7.28
420.822	7.47
421.184	7.31
421.545	7.34
421.906	7.25
422.267	7.28
422.629	7.2
422.99	7.33
423.351	7.19
423.712	7.19
424.073	7.19
424.434	7.26
424.795	7.42
425.155	7.38
425.516	7.36
425.877	7.24
426.238	7.29
426.598	7.31
426.959	7.25
427.32	7.39
427.68	7.35
428.041	7.38
428.401	7.49
428.761	7.4
429.122	7.36
429.482	7.47
429.842	7.47
430.202	7.56
430.563	7.37
430.923	7.54
431.283	7.65
431.643	7.66
432.003	7.52
432.363	7.59
432.722	7.69
433.082	7.49
433.442	7.55
433.802	7.59
434.161	7.65
434.521	7.62
434.881	7.53
435.24	7.46
435.6	7.44
435.959	7.46
436.319	7.5
436.678	7.66
437.037	7.72
437.396	7.74
437.756	7.71
438.115	7.51
438.474	7.52
438.833	7.78
439.192	7.87
439.551	7.67
439.91	7.73
440.269	7.69
440.628	7.6
440.987	7.63
441.345	7.57
441.704	7.68
442.063	7.73
442.421	7.67
442.78	7.72
443.138	7.54
443.497	7.6
443.855	7.5
444.214	7.59
444.572	7.57
444.93	7.67
445.288	7.76
445.647	7.77
446.005	7.73
446.363	7.86
446.721	7.87
447.079	7.86
447.437	7.75
447.795	7.73
448.153	7.61
448.51	7.7
448.868	7.68
449.226	7.68
449.584	7.61
449.941	7.69
450.299	7.85
450.656	7.67
451.014	7.77
451.371	7.58
451.729	7.82
452.086	7.92
452.443	7.81
452.801	7.83
453.158	7.89
453.515	7.86
453.872	7.82
454.229	8.01
454.586	7.95
454.943	7.99
455.3	7.99
455.657	7.91
456.014	7.96
456.371	7.92
456.727	8.11
457.084	8
457.441	8.02
457.797	7.77
458.154	7.94
458.51	7.87
458.867	8.05
459.223	8
459.58	7.95
459.936	8.11
460.292	8.08
460.648	8.12
461.005	8
461.361	8.01
461.717	8.02
462.073	7.95
462.429	7.86
462.785	7.92
463.141	7.92
463.496	8.09
463.852	7.94
464.208	8.13
464.564	8.12
464.919	8.08
465.275	8.32
465.631	8.02
465.986	8.16
466.342	8.2
466.697	8.26
467.052	8.32
467.408	8.15
467.763	8.15
468.118	8.32
468.473	8.21
468.829	8.23
469.184	8.35
469.539	8.13
469.894	8.09
470.249	8.1
470.603	8.35
470.958	8.3
471.313	8.18
471.668	8.34
472.023	8.24
472.377	8.2
472.732	8.33
473.086	8.17
473.441	8.29
473.795	8.48
474.15	8.33
474.504	8.41
474.859	8.49
475.213	8.57
475.567	8.2
475.921	8.35
476.275	8.29
476.63	8.37
476.984	8.54
477.338	8.41
477.692	8.35
478.045	8.15
478.399	8.36
478.753	8.5
479.107	8.41
479.461	8.4
479.814	8.25
480.168	8.4
480.521	8.45
480.875	8.38
481.228	8.64
481.582	8.47
481.935	8.51
482.289	8.44
482.642	8.33
482.995	8.62
483.348	8.39
483.701	8.35
484.055	8.45
484.408	8.37
484.761	8.4
485.114	8.22
485.466	8.26
485.819	8.2
486.172	8.07
486.525	8.03
486.878	7.97
487.23	8.08
487.583	8.16
487.936	8.27
488.288	8.32
488.641	8.43
488.993	8.38
489.345	8.34
489.698	8.3
490.05	8.29
490.402	8.19
490.754	8.24
491.107	8.27
491.459	8.26
491.811	8.35
492.163	8.55
492.515	8.57
492.866	8.56
493.218	8.52
493.57	8.48
493.922	8.42
494.274	8.31
494.625	8.33
494.977	8.42
495.328	8.56
495.68	8.6
496.031	8.6
496.383	8.71
496.734	8.77
497.086	8.89
497.437	8.91
497.788	8.85
498.139	8.88
498.49	8.78
498.842	8.78
499.193	8.78
499.544	8.62
499.894	8.67
500.245	8.84
500.596	8.78
500.947	8.72
501.298	8.84
501.648	8.98
501.999	9.01
502.35	8.95
502.7	8.92
503.051	8.89
503.401	9.02
503.752	8.92
504.102	9.06
504.452	8.94
504.803	8.96
505.153	9.04
505.503	8.98
505.853	9.17
506.203	9.08
506.553	9.07
506.903	9.02
507.253	9.11
507.603	9.17
507.953	9.11
508.303	9.22
508.652	9.05
509.002	9.25
509.352	9.17
509.701	9.18
510.051	9.25
510.4	9.27
510.75	9.13
511.099	9.18
511.449	9.1
511.798	9.17
512.147	9.21
512.496	9.11
512.846	9.19
513.195	9.28
513.544	9.38
513.893	9.28
514.242	9.34
514.591	9.18
514.939	9.29
515.288	9.35
515.637	9.31
515.986	9.29
516.334	9.27
516.683	9.42
517.032	9.38
517.38	9.44
517.729	9.36
518.077	9.37
518.426	9.45
518.774	9.41
519.122	9.43
519.47	9.33
519.819	9.44
520.167	9.42
520.515	9.44
520.863	9.42
521.211	9.36
521.559	9.35
521.907	9.41
522.255	9.43
522.602	9.39
522.95	9.54
523.298	9.57
523.645	9.7
523.993	9.5
524.341	9.68
524.688	9.59
525.036	9.63
525.383	9.64
525.73	9.62
526.078	9.66
526.425	9.67
526.772	9.71
527.119	9.67
527.466	9.64
527.814	9.6
528.161	9.6
528.508	9.62
528.854	9.58
529.201	9.6
529.548	9.63
529.895	9.64
530.242	9.54
530.588	9.57
530.935	9.49
531.282	9.35
531.628	9.31
531.975	9.41
532.321	9.59
532.667	9.58
533.014	9.57
533.36	9.81
533.706	9.78
534.052	9.79
534.399	9.83
534.745	9.87
535.091	9.84
535.437	9.83
535.783	9.73
536.129	9.76
536.474	9.77
536.82	9.86
537.166	9.92
537.512	9.93
537.857	10.06
538.203	10.05
538.549	10.06
538.894	10
539.239	9.98
539.585	9.95
539.93	9.98
540.276	10.13
540.621	10.08
540.966	10.24
541.311	10.26
541.656	10.19
542.001	10.41
542.346	10.33
542.691	10.29
543.036	10.2
543.381	10.15
543.726	10.07
544.071	10.02
544.415	10.09
544.76	9.97
545.105	10.25
545.449	10.2
545.794	10.24
546.138	10.27
546.483	10.41
546.827	10.4
547.171	10.51
547.516	10.57
547.86	10.5
548.204	10.39
548.548	10.39
548.892	10.54
549.236	10.63
549.58	10.57
549.924	10.68
550.268	10.77
550.612	10.57
550.956	10.71
551.3	10.7
551.643	10.82
551.987	10.77
552.33	10.76
552.674	10.96
553.017	11.05
553.361	10.9
553.704	10.7
554.048	10.91
554.391	10.97
554.734	10.97
555.077	10.9
555.42	10.89
555.764	10.98
556.107	10.9
556.45	11.04
556.793	10.99
557.135	11.13
557.478	11.23
557.821	11.19
558.164	11.14
558.507	11.16
558.849	11.24
559.192	11.24
559.534	11.37
559.877	11.36
560.219	11.38
560.562	11.45
560.904	11.39
561.246	11.21
561.589	11.27
561.931	11.48
562.273	11.51
562.615	11.52
562.957	11.46
563.299	11.33
563.641	11.34
563.983	11.27
564.325	11.45
564.667	11.56
565.008	11.65
565.35	11.6
565.692	11.59
566.033	11.52
566.375	11.82
566.716	11.66
567.058	11.73
567.399	11.42
567.741	11.61
568.082	11.63
568.423	11.64
568.764	11.69
569.105	11.61
569.447	11.54
569.788	11.64
570.129	11.57
570.47	11.85
570.811	11.91
571.151	12
571.492	11.95
571.833	11.8
572.174	11.89
572.514	11.98
572.855	11.96
573.195	11.92
573.536	12.05
573.876	12.03
574.217	11.88
574.557	12.02
574.898	11.91
575.238	11.93
575.578	11.92
575.918	12.03
576.258	12.06
576.598	12.2
576.938	12.27
577.278	12.26
577.618	12.15
577.958	12.23
578.298	12.27
578.638	12.09
578.977	12.16
579.317	12.09
579.657	12.37
579.996	12.21
580.336	12.26
580.675	12.45
581.014	12.37
581.354	12.49
581.693	12.53
582.032	12.64
582.372	12.68
582.711	12.67
583.05	12.59
583.389	12.61
583.728	12.82
584.067	12.72
584.406	12.53
584.745	12.5
585.083	12.6
585.422	12.86
585.761	12.83
586.1	12.71
586.438	12.84
586.777	12.8
587.115	12.8
587.454	12.83
587.792	12.91
588.13	12.88
588.469	12.81
588.807	12.81
589.145	12.92
589.483	12.89
589.821	13.18
590.159	13.1
590.497	12.99
590.835	12.91
591.173	13.06
591.511	12.91
591.849	12.87
592.187	13.02
592.524	13.32
592.862	13.3
593.2	13.3
593.537	13.3
593.875	13.1
594.212	13.54
594.55	13.12
594.887	13.28
595.224	13.26
595.561	13.08
595.899	13.19
596.236	13.46
596.573	13.43
596.91	13.32
597.247	13.45
597.584	13.32
597.921	13.31
598.258	13.11
598.594	13.27
598.931	13.31
599.268	13.42
599.604	13.29
599.941	13.46
600.277	13.38
600.614	13.41
600.95	13.3
601.287	13.67
601.623	13.58
601.959	13.66
602.296	13.5
602.632	13.65
602.968	13.47
603.304	13.79
603.64	13.81
603.976	13.83
604.312	13.73
604.648	13.89
604.984	13.7
605.319	13.87
605.655	13.88
605.991	13.66
606.326	13.63
606.662	13.76
606.998	13.91
607.333	13.8
607.668	13.6
608.004	13.83
608.339	13.79
608.674	13.96
609.01	14.05
609.345	14.07
609.68	14.1
610.015	14.38
610.35	14.12
610.685	13.89
611.02	14.17
611.355	14.13
611.689	14.23
612.024	13.98
612.359	14.02
612.694	14.37
613.028	14.16
613.363	14.4
613.697	14.22
614.032	14.19
614.366	14.45
614.7	14.08
615.035	14.51
615.369	14.44
615.703	14.46
616.037	14.64
616.371	14.41
616.705	14.77
617.039	14.59
617.373	14.81
617.707	14.74
618.041	14.65
618.375	14.81
618.709	14.34
619.042	14.3
619.376	15.23
619.71	14.83
620.043	14.63
620.377	14.75
620.71	14.7
621.043	14.89
621.377	14.39
621.71	14.81
622.043	14.8
622.376	14.75
622.709	14.62
623.043	14.65
623.376	15.23
623.709	15.1
624.041	15.04
624.374	14.67
624.707	15.09
625.04	15.41
625.373	15.36
625.705	15.14
626.038	14.89
626.37	14.74
626.703	14.88
627.035	15
627.368	15.28
627.7	15.08
628.032	14.96
628.365	15.11
628.697	15.23
629.029	15.49
629.361	15.58
629.693	15.13
630.025	15.33
630.357	15.6
630.689	15.48
631.021	15.46
631.353	15.58
631.684	15.32
632.016	15.59
632.348	15.16
632.679	15.57
633.011	15.55
633.342	15.59
633.674	15.85
634.005	15.37
634.336	15.67
634.668	15.59
634.999	15.49
635.33	15.73
635.661	15.64
635.992	16.23
636.323	15.83
636.654	15.88
636.985	15.86
637.316	15.61
637.647	15.58
637.977	15.56
638.308	15.87
638.639	15.44
638.969	15.87
639.3	15.87
639.63	15.63
639.961	15.95
640.291	15.88
640.622	15.75
640.952	15.81
641.282	16.29
641.612	16.05
641.943	15.96
642.273	16.33
642.603	16.39
642.933	16.39
643.263	16.16
643.592	16.21
643.922	16.28
644.252	16.54
644.582	16.33
644.911	16.69
645.241	16.32
645.571	16.57
645.9	16.26
646.23	16.68
646.559	16.3
646.888	16.54
647.218	16.7
647.547	16.31
647.876	16.08
648.205	16.04
648.534	16.14
648.863	16.51
649.192	16.61
649.521	16.4
649.85	16.26
650.179	16.33
650.508	16.4
650.837	16.73
651.165	16.61
651.494	16.74
651.822	16.35
652.151	16.57
652.479	16.55
652.808	16.43
653.136	16.44
653.465	16.51
653.793	16.71
654.121	16.13
654.449	16.69
654.777	16.68
655.105	17.05
655.433	16.7
655.761	17
656.089	17.06
656.417	16.71
656.745	16.96
657.073	16.38
657.4	17.03
657.728	17.18
658.056	17.09
658.383	17.24
658.711	17.04
659.038	16.9
659.365	17.11
659.693	17.41
660.02	17.18
660.347	16.98
660.674	17.09
661.001	17.44
661.329	16.95
661.656	17.47
661.982	17.41
662.309	17.18
662.636	17.23
662.963	17.55
663.29	17.57
663.616	17.38
663.943	17.14
664.27	17.1
664.596	17.35
664.923	17.57
665.249	17.91
665.576	17.42
665.902	17.37
666.228	18.28
666.554	17.55
666.881	17.55
667.207	17.31
667.533	17.37
667.859	17.47
668.185	17.38
668.511	17.28
668.837	17.52
669.162	17.89
669.488	17.39
669.814	18.16
670.139	17.74
670.465	17.63
670.791	18.05
671.116	17.76
671.442	17.7
671.767	17.49
672.092	17.18
672.418	18.23
672.743	18.03
673.068	17.64
673.393	17.64
673.718	17.61
674.043	18
674.368	18.11
674.693	17.65
675.018	18.11
675.343	18.43
675.667	18.44
675.992	17.71
676.317	18.72
676.641	17.84
676.966	18.62
677.29	18.06
677.615	18.43
677.939	17.95
678.264	18
678.588	17.83
678.912	18.15
679.236	18.15
679.56	18.4
679.885	18.8
680.209	18.57
680.532	18.27
680.856	18.72
681.18	18.75
681.504	18.68
681.828	18.56
682.152	18.88
682.475	18.79
682.799	18.35
683.122	18.03
