Data from 97281_crown_Reflection__0__56.txt Node

Date: Fri Sep 23 20:07:46 CDT 2022
User: ToomeyLab
Spectrometer: FLMS14357
Trigger mode: 0
Integration Time (sec): 1.000000E-2
Scans to average: 100
Electric dark correction enabled: true
Nonlinearity correction enabled: false
Boxcar width: 0
XAxis mode: Wavelengths
Number of Pixels in Spectrum: 2048
>>>>>Begin Spectral Data<<<<<
189.047	140.39
189.435	140.39
189.823	140.39
190.211	9.2
190.599	34.02
190.987	-21.35
191.375	90.38
191.763	92.5
192.151	-2.86
192.538	216.93
192.926	67.41
193.314	151.2
193.702	59.55
194.089	-159.38
194.477	77.07
194.864	-163
195.252	368.56
195.639	-68.42
196.027	75.56
196.414	65.63
196.801	18.82
197.189	185.87
197.576	-113.91
197.963	-52.09
198.351	16.32
198.738	11
199.125	-7.35
199.512	12.55
199.899	39.74
200.286	21.59
200.673	25.54
201.06	-23.85
201.447	4.32
201.833	18.08
202.22	-43.03
202.607	-25.12
202.994	-12.88
203.38	-6.77
203.767	-67.5
204.154	13.45
204.54	15.91
204.927	31.34
205.313	40.67
205.699	4.04
206.086	-13.83
206.472	17.18
206.858	0.71
207.245	-2.33
207.631	7.84
208.017	-11.17
208.403	16.95
208.789	10.55
209.175	26.85
209.561	9.9
209.947	-23.46
210.333	-30.99
210.719	-6.26
211.105	9.53
211.491	5.82
211.876	9.35
212.262	23.73
212.648	-21.12
213.034	-67.51
213.419	-41.38
213.805	55.7
214.19	-5.38
214.576	6.68
214.961	8.99
215.346	-20.93
215.732	0.4
216.117	36.75
216.502	4.26
216.888	-7.4
217.273	5.76
217.658	-4.87
218.043	11.45
218.428	-5.57
218.813	-6.32
219.198	0.36
219.583	0.78
219.968	26.47
220.353	-20.29
220.738	-6.43
221.122	6.88
221.507	-13.97
221.892	3.47
222.276	-3.93
222.661	-16.47
223.046	4.3
223.43	-24.25
223.815	5.99
224.199	5.68
224.583	6.65
224.968	-0.2
225.352	2.25
225.736	-6.85
226.121	2.85
226.505	1.86
226.889	0.12
227.273	0.5
227.657	-7.18
228.041	1.78
228.425	3.94
228.809	0.51
229.193	4.23
229.577	2.31
229.961	3.05
230.344	2.67
230.728	2.48
231.112	2.34
231.495	2.25
231.879	0.71
232.263	3.06
232.646	3.34
233.03	1.78
233.413	3.5
233.797	3.16
234.18	3.5
234.563	-0.04
234.946	1.84
235.33	0.72
235.713	2.24
236.096	0.05
236.479	1.18
236.862	2.4
237.245	3.25
237.628	1.23
238.011	4.4
238.394	2.49
238.777	3.88
239.16	2.63
239.543	3.02
239.925	2.7
240.308	2.23
240.691	2.29
241.073	0.12
241.456	2.28
241.838	4.02
242.221	1.2
242.603	3.89
242.986	1.17
243.368	2.15
243.75	2.41
244.133	2.65
244.515	2.3
244.897	2.98
245.279	2.91
245.661	3.14
246.043	3.01
246.425	1.26
246.807	1.61
247.189	3.43
247.571	2.4
247.953	2.34
248.335	2.85
248.717	2.33
249.098	2.68
249.48	2.31
249.862	2.54
250.243	2.8
250.625	2.51
251.006	3.3
251.388	2.31
251.769	2.84
252.151	1.43
252.532	2.45
252.913	2.88
253.295	3.24
253.676	2.57
254.057	2.02
254.438	2.84
254.819	2.63
255.2	2.94
255.581	2.04
255.962	1.89
256.343	3.43
256.724	1.9
257.105	2.64
257.486	1.52
257.867	1.86
258.247	2.78
258.628	2.35
259.009	1.6
259.389	1.86
259.77	1.77
260.15	2.29
260.531	2.05
260.911	2.39
261.292	2.48
261.672	2.32
262.052	2.1
262.432	2.3
262.813	2.46
263.193	2.02
263.573	2.78
263.953	2
264.333	2.26
264.713	2.61
265.093	2.58
265.473	2.49
265.853	1.6
266.233	2.43
266.612	2.11
266.992	3.56
267.372	2.31
267.752	2.48
268.131	2.67
268.511	2.1
268.89	2.13
269.27	2.08
269.649	2.08
270.029	2.32
270.408	2.69
270.787	1.64
271.167	2.24
271.546	1.8
271.925	2.24
272.304	2.29
272.683	2.56
273.062	2.3
273.441	2.7
273.82	2.45
274.199	1.96
274.578	2.28
274.957	2.15
275.336	2.3
275.715	2.24
276.093	2.48
276.472	3.18
276.851	2.03
277.229	2.36
277.608	2.96
277.986	2.64
278.365	2.5
278.743	2.52
279.122	1.64
279.5	2.05
279.878	2.28
280.257	2.03
280.635	2.28
281.013	2.75
281.391	1.95
281.769	2.08
282.147	2.08
282.525	2.25
282.903	2.28
283.281	2.2
283.659	2.06
284.037	2.55
284.415	2.12
284.792	2.31
285.17	2
285.548	2.4
285.925	2.51
286.303	3.09
286.68	2.39
287.058	2.48
287.435	1.98
287.813	2.74
288.19	2.42
288.567	2.43
288.945	2.27
289.322	2.44
289.699	2.87
290.076	2.71
290.453	2.15
290.83	2.87
291.207	2.3
291.584	2.38
291.961	2.64
292.338	2.82
292.715	2.1
293.092	2.45
293.469	2.48
293.845	2.83
294.222	2.43
294.599	2.2
294.975	2.87
295.352	2.27
295.728	2.49
296.105	2.45
296.481	2.32
296.858	2.8
297.234	2.4
297.61	1.99
297.986	2.39
298.363	2.31
298.739	2.62
299.115	2.46
299.491	2.5
299.867	2.29
300.243	2.6
300.619	2.73
300.995	2.55
301.371	2.34
301.746	2.95
302.122	2.1
302.498	2.69
302.874	2.11
303.249	2.57
303.625	2.27
304	2.62
304.376	2.62
304.751	2.02
305.127	2.2
305.502	2.66
305.878	2.17
306.253	2.3
306.628	2.1
307.003	2.19
307.378	2.53
307.754	3.07
308.129	2.71
308.504	2.6
308.879	2.45
309.254	2.52
309.629	2.48
310.003	2.99
310.378	2.44
310.753	2.59
311.128	2.28
311.502	2.46
311.877	2.74
312.252	2.46
312.626	2.33
313.001	2.49
313.375	2.93
313.75	2.76
314.124	2.24
314.498	2.62
314.873	2.5
315.247	2.76
315.621	2.61
315.995	2.66
316.369	2.88
316.743	2.18
317.117	1.37
317.491	1.86
317.865	2.7
318.239	3.09
318.613	2.7
318.987	1.82
319.361	2.31
319.734	1.95
320.108	2.16
320.482	2.05
320.855	2
321.229	2.57
321.602	2.52
321.976	3.23
322.349	2.53
322.723	2.59
323.096	2.66
323.469	1.79
323.843	2.5
324.216	2.68
324.589	2.92
324.962	2.17
325.335	2.39
325.708	2.19
326.081	2.18
326.454	2.65
326.827	2.64
327.2	2.24
327.573	2.68
327.945	3.05
328.318	1.92
328.691	2.39
329.063	2.89
329.436	2.8
329.809	3.35
330.181	2.15
330.553	2.16
330.926	2.47
331.298	2.55
331.671	2.92
332.043	2.42
332.415	2.3
332.787	2.24
333.159	2.78
333.532	2.46
333.904	2.12
334.276	2.14
334.648	2.12
335.02	2.18
335.391	2.84
335.763	2.45
336.135	2.81
336.507	2.97
336.879	2.25
337.25	2.79
337.622	2.73
337.993	2.8
338.365	2.46
338.736	2.7
339.108	2.74
339.479	2.53
339.851	2.98
340.222	3.03
340.593	2.45
340.964	2.56
341.336	2.78
341.707	3.13
342.078	2.38
342.449	2.49
342.82	2.75
343.191	2.47
343.562	2.42
343.933	3.17
344.303	2.61
344.674	2.8
345.045	2.74
345.416	2.71
345.786	2.88
346.157	2.43
346.527	2.45
346.898	3
347.268	2.66
347.639	2.64
348.009	2.71
348.38	2.71
348.75	2.79
349.12	2.84
349.49	2.75
349.861	2.46
350.231	2.29
350.601	2.56
350.971	2.06
351.341	2.56
351.711	2.58
352.081	2.44
352.45	2.4
352.82	2.71
353.19	2.99
353.56	2.77
353.929	2.51
354.299	2.97
354.669	2.42
355.038	2.62
355.408	2.52
355.777	2.52
356.147	2.57
356.516	2.65
356.885	2.71
357.254	2.44
357.624	2.42
357.993	2.67
358.362	2.57
358.731	2.66
359.1	2.68
359.469	2.54
359.838	2.5
360.207	2.82
360.576	2.62
360.945	2.66
361.314	2.44
361.682	2.56
362.051	2.66
362.42	2.8
362.788	2.7
363.157	2.66
363.525	2.63
363.894	2.45
364.262	2.48
364.631	2.68
364.999	2.59
365.367	2.44
365.735	2.71
366.104	2.68
366.472	2.85
366.84	2.63
367.208	2.68
367.576	2.66
367.944	2.7
368.312	2.71
368.68	2.85
369.048	2.49
369.416	2.8
369.783	2.58
370.151	2.96
370.519	2.51
370.886	2.58
371.254	2.65
371.621	2.97
371.989	2.69
372.356	3.05
372.724	2.41
373.091	2.83
373.458	2.69
373.826	2.5
374.193	2.77
374.56	2.47
374.927	3.02
375.294	2.83
375.661	2.58
376.028	2.75
376.395	2.78
376.762	2.68
377.129	2.74
377.496	2.84
377.863	2.9
378.229	2.53
378.596	2.6
378.963	2.97
379.329	2.81
379.696	2.36
380.062	2.66
380.429	2.6
380.795	2.57
381.161	2.58
381.528	2.71
381.894	2.6
382.26	2.36
382.626	2.66
382.993	3.07
383.359	2.84
383.725	2.9
384.091	2.95
384.457	2.67
384.823	2.86
385.188	2.81
385.554	2.76
385.92	3
386.286	2.86
386.651	2.86
387.017	2.73
387.383	2.72
387.748	2.82
388.114	2.83
388.479	2.87
388.845	2.7
389.21	2.86
389.575	2.67
389.94	2.4
390.306	2.65
390.671	2.67
391.036	2.5
391.401	2.93
391.766	2.6
392.131	2.86
392.496	2.78
392.861	2.9
393.226	2.58
393.591	2.75
393.956	2.88
394.32	2.85
394.685	2.66
395.05	2.73
395.414	2.67
395.779	2.58
396.143	2.72
396.508	2.85
396.872	2.79
397.236	2.8
397.601	2.62
397.965	3
398.329	2.85
398.694	2.71
399.058	2.89
399.422	3.08
399.786	3.08
400.15	2.68
400.514	2.62
400.878	2.89
401.242	2.85
401.605	3.08
401.969	3
402.333	2.65
402.697	2.56
403.06	2.8
403.424	2.8
403.787	2.77
404.151	2.64
404.514	2.55
404.878	2.65
405.241	2.83
405.604	2.71
405.968	2.76
406.331	2.85
406.694	2.97
407.057	2.75
407.42	2.77
407.783	2.74
408.146	2.84
408.509	2.86
408.872	2.67
409.235	2.91
409.598	2.94
409.961	3.09
410.323	2.67
410.686	2.75
411.049	2.86
411.411	2.76
411.774	2.71
412.136	2.81
412.499	2.53
412.861	2.73
413.223	2.82
413.586	2.66
413.948	2.61
414.31	2.71
414.672	2.72
415.035	2.69
415.397	3.05
415.759	2.79
416.121	3.14
416.483	2.8
416.845	2.57
417.206	2.68
417.568	2.86
417.93	2.81
418.292	2.88
418.653	2.84
419.015	2.74
419.377	2.76
419.738	2.76
420.1	2.69
420.461	2.84
420.822	2.8
421.184	2.8
421.545	2.79
421.906	2.88
422.267	2.66
422.629	2.74
422.99	2.71
423.351	2.71
423.712	2.76
424.073	2.7
424.434	2.65
424.795	2.76
425.155	2.78
425.516	2.82
425.877	2.75
426.238	2.82
426.598	2.73
426.959	2.81
427.32	2.79
427.68	2.8
428.041	2.78
428.401	2.84
428.761	2.81
429.122	2.84
429.482	2.75
429.842	3.05
430.202	2.86
430.563	2.79
430.923	2.99
431.283	2.95
431.643	2.87
432.003	2.77
432.363	3.12
432.722	2.85
433.082	2.62
433.442	2.74
433.802	2.92
434.161	2.86
434.521	2.96
434.881	2.69
435.24	2.8
435.6	2.73
435.959	2.79
436.319	2.89
436.678	2.86
437.037	3.04
437.396	3
437.756	2.87
438.115	2.8
438.474	2.66
438.833	2.98
439.192	2.93
439.551	2.75
439.91	2.8
440.269	2.88
440.628	2.84
440.987	2.84
441.345	2.88
441.704	2.78
442.063	2.98
442.421	2.69
442.78	2.8
443.138	2.61
443.497	2.81
443.855	2.75
444.214	2.91
444.572	2.73
444.93	2.77
445.288	2.91
445.647	2.93
446.005	2.88
446.363	2.93
446.721	2.74
447.079	2.82
447.437	2.84
447.795	2.71
448.153	2.71
448.51	2.79
448.868	2.85
449.226	2.87
449.584	2.86
449.941	2.89
450.299	2.86
450.656	2.9
451.014	2.93
451.371	2.58
451.729	2.84
452.086	2.86
452.443	2.83
452.801	2.93
453.158	2.88
453.515	2.84
453.872	2.74
454.229	2.96
454.586	2.81
454.943	2.95
455.3	2.86
455.657	2.85
456.014	2.89
456.371	2.76
456.727	2.97
457.084	2.85
457.441	3.08
457.797	2.76
458.154	2.87
458.51	2.78
458.867	2.96
459.223	2.9
459.58	2.89
459.936	2.91
460.292	2.71
460.648	2.88
461.005	2.95
461.361	2.87
461.717	2.89
462.073	2.82
462.429	2.79
462.785	2.91
463.141	2.83
463.496	2.89
463.852	2.99
464.208	3.01
464.564	2.92
464.919	2.84
465.275	2.9
465.631	2.77
465.986	2.75
466.342	2.72
466.697	2.82
467.052	2.8
467.408	2.92
467.763	2.86
468.118	2.87
468.473	2.88
468.829	2.9
469.184	3
469.539	2.78
469.894	2.85
470.249	2.85
470.603	2.97
470.958	2.9
471.313	2.92
471.668	2.96
472.023	2.79
472.377	2.71
472.732	2.93
473.086	2.84
473.441	3.1
473.795	2.96
474.15	2.99
474.504	3.01
474.859	2.89
475.213	3.11
475.567	2.83
475.921	2.98
476.275	2.7
476.63	2.89
476.984	3.01
477.338	2.82
477.692	2.89
478.045	2.71
478.399	2.86
478.753	2.97
479.107	2.87
479.461	2.89
479.814	2.84
480.168	2.79
480.521	2.83
480.875	2.93
481.228	3.02
481.582	2.87
481.935	2.98
482.289	3
482.642	2.78
482.995	3.06
483.348	2.87
483.701	2.89
484.055	2.8
484.408	2.76
484.761	2.79
485.114	2.68
485.466	2.68
485.819	2.67
486.172	2.73
486.525	2.79
486.878	2.76
487.23	2.82
487.583	2.85
487.936	2.96
488.288	2.8
488.641	2.83
488.993	2.77
489.345	2.77
489.698	2.73
490.05	2.78
490.402	2.73
490.754	2.81
491.107	2.85
491.459	2.8
491.811	2.78
492.163	2.87
492.515	2.89
492.866	2.8
493.218	2.72
493.57	2.75
493.922	2.78
494.274	2.83
494.625	2.84
494.977	2.84
495.328	2.95
495.68	2.93
496.031	2.86
496.383	3.04
496.734	2.92
497.086	3
497.437	2.95
497.788	3
498.139	2.99
498.49	2.91
498.842	2.87
499.193	2.94
499.544	2.91
499.894	2.92
500.245	2.89
500.596	2.98
500.947	2.84
501.298	2.86
501.648	3.1
501.999	3.01
502.35	3.04
502.7	2.95
503.051	2.94
503.401	2.98
503.752	2.92
504.102	3.07
504.452	2.87
504.803	2.87
505.153	2.96
505.503	2.88
505.853	3.02
506.203	2.92
506.553	2.98
506.903	2.96
507.253	2.96
507.603	3.03
507.953	3.04
508.303	3.05
508.652	2.82
509.002	3.06
509.352	3.08
509.701	2.94
510.051	3.01
510.4	3.01
510.75	2.93
511.099	3
511.449	2.96
511.798	3.02
512.147	2.95
512.496	2.95
512.846	2.87
513.195	2.87
513.544	3.12
513.893	2.95
514.242	2.94
514.591	2.93
514.939	3
515.288	3.03
515.637	2.94
515.986	2.95
516.334	2.86
516.683	2.96
517.032	2.9
517.38	3.05
517.729	2.97
518.077	2.88
518.426	3.05
518.774	2.95
519.122	2.86
519.47	2.79
519.819	2.9
520.167	2.87
520.515	2.85
520.863	2.95
521.211	2.85
521.559	2.87
521.907	2.91
522.255	3.02
522.602	3.04
522.95	2.97
523.298	2.97
523.645	3.02
523.993	2.88
524.341	3.02
524.688	2.96
525.036	3.01
525.383	2.91
525.73	2.99
526.078	3.04
526.425	2.94
526.772	2.99
527.119	2.87
527.466	2.88
527.814	2.92
528.161	2.95
528.508	2.96
528.854	2.94
529.201	2.82
529.548	2.97
529.895	2.81
530.242	2.77
530.588	2.76
530.935	2.82
531.282	2.83
531.628	2.87
531.975	2.9
532.321	2.87
532.667	2.89
533.014	2.94
533.36	2.94
533.706	2.9
534.052	2.88
534.399	2.96
534.745	2.95
535.091	2.86
535.437	2.88
535.783	2.94
536.129	2.94
536.474	2.86
536.82	2.94
537.166	2.98
537.512	2.89
537.857	2.93
538.203	2.91
538.549	2.94
538.894	2.93
539.239	3.01
539.585	2.99
539.93	2.95
540.276	3.09
540.621	3.03
540.966	3.12
541.311	3.06
541.656	2.91
542.001	3
542.346	2.98
542.691	2.96
543.036	2.87
543.381	2.9
543.726	2.88
544.071	2.89
544.415	2.96
544.76	2.93
545.105	2.92
545.449	2.96
545.794	2.99
546.138	3.07
546.483	3.03
546.827	3.05
547.171	3
547.516	3
547.86	2.94
548.204	3.06
548.548	2.96
548.892	2.96
549.236	3.09
549.58	3.03
549.924	3.29
550.268	3.17
550.612	3.01
550.956	3.14
551.3	2.93
551.643	3.01
551.987	3.18
552.33	3.02
552.674	3.07
553.017	3.15
553.361	3.07
553.704	2.96
554.048	3.15
554.391	3.08
554.734	3.11
555.077	2.91
555.42	2.95
555.764	3.05
556.107	3.02
556.45	3.18
556.793	2.93
557.135	3.17
557.478	3.08
557.821	3.06
558.164	3.04
558.507	2.86
558.849	3.2
559.192	3.29
559.534	3.2
559.877	3.21
560.219	3.07
560.562	3.36
560.904	3.22
561.246	3.07
561.589	3.09
561.931	3.15
562.273	3.25
562.615	3.13
562.957	3.14
563.299	3.07
563.641	3.19
563.983	3.08
564.325	3.06
564.667	3.06
565.008	3.13
565.35	3.1
565.692	3.17
566.033	2.97
566.375	3.33
566.716	3.14
567.058	3.04
567.399	2.92
567.741	3.02
568.082	3.14
568.423	3.02
568.764	3.03
569.105	3.09
569.447	3.05
569.788	3.2
570.129	3.09
570.47	3.16
570.811	3.08
571.151	3.38
571.492	3.02
571.833	3.1
572.174	2.99
572.514	3.11
572.855	3.09
573.195	3.18
573.536	3.24
573.876	2.98
574.217	3.08
574.557	3.19
574.898	3.17
575.238	3.1
575.578	3.12
575.918	2.97
576.258	3.12
576.598	3.07
576.938	3.2
577.278	3.28
577.618	3.05
577.958	3.21
578.298	3.2
578.638	3.23
578.977	3.22
579.317	3.09
579.657	3.15
579.996	3.13
580.336	3.32
580.675	3.12
581.014	3.25
581.354	3.34
581.693	3.23
582.032	3.28
582.372	3.35
582.711	3.2
583.05	3.1
583.389	3.11
583.728	3.22
584.067	3.14
584.406	3.22
584.745	3.08
585.083	3.11
585.422	3.15
585.761	3.06
586.1	3.19
586.438	3.26
586.777	3.03
587.115	3
587.454	3.2
587.792	3.38
588.13	3.31
588.469	3.03
588.807	3.04
589.145	3.22
589.483	3.34
589.821	3.13
590.159	3.27
590.497	3.08
590.835	3.04
591.173	3.34
591.511	3.09
591.849	3.12
592.187	3.1
592.524	3.43
592.862	3.49
593.2	3.35
593.537	3.12
593.875	3.17
594.212	3.38
594.55	3.28
594.887	3.26
595.224	3.16
595.561	3.07
595.899	3.15
596.236	3.01
596.573	3.12
596.91	3.1
597.247	3.35
597.584	3.32
597.921	3.24
598.258	3.02
598.594	3.16
598.931	3.16
599.268	3.29
599.604	3.09
599.941	3.27
600.277	3.22
600.614	3.18
600.95	3.15
601.287	3.15
601.623	3.09
601.959	3.05
602.296	3.12
602.632	3.21
602.968	2.86
603.304	2.89
603.64	3.22
603.976	3.35
604.312	3.2
604.648	3.25
604.984	3.11
605.319	3.21
605.655	3.25
605.991	3.11
606.326	3.07
606.662	3.26
606.998	3.32
607.333	3.14
607.668	3.09
608.004	3.21
608.339	3.27
608.674	3.41
609.01	3.26
609.345	3.09
609.68	3.19
610.015	3.16
610.35	3.27
610.685	2.93
611.02	3.1
611.355	3.25
611.689	3.26
612.024	3.14
612.359	3.3
612.694	3.27
613.028	3.35
613.363	3.37
613.697	3.21
614.032	3.1
614.366	3.31
614.7	3.17
615.035	3.44
615.369	3.49
615.703	3.4
616.037	3.27
616.371	3.43
616.705	3.19
617.039	3.17
617.373	3.45
617.707	3.58
618.041	3.34
618.375	3.65
618.709	3.24
619.042	2.91
619.376	3.41
619.71	3.3
620.043	3.04
620.377	3.35
620.71	3.4
621.043	3.36
621.377	2.75
621.71	3.23
622.043	3.46
622.376	3.11
622.709	3.33
623.043	3.09
623.376	3.37
623.709	3.44
624.041	3.53
624.374	3.18
624.707	3.44
625.04	3.62
625.373	3.33
625.705	3.53
626.038	3.11
626.37	3.28
626.703	3.12
627.035	3.19
627.368	3.13
627.7	3.22
628.032	3.2
628.365	3.34
628.697	3.07
629.029	3.39
629.361	3.42
629.693	3.33
630.025	3.28
630.357	3.35
630.689	3.48
631.021	3.3
631.353	3.67
631.684	3.29
632.016	3.43
632.348	3.18
632.679	3.62
633.011	3.44
633.342	3.45
633.674	3.86
634.005	2.98
634.336	3.58
634.668	3.46
634.999	3.38
635.33	3.41
635.661	3.55
635.992	3.66
636.323	3.67
636.654	3.48
636.985	3.51
637.316	3.36
637.647	3.47
637.977	3.37
638.308	3.46
638.639	3.27
638.969	3.72
639.3	3.11
639.63	3.17
639.961	3.5
640.291	3.42
640.622	3.48
640.952	2.98
641.282	3.47
641.612	3.43
641.943	3.3
642.273	3.5
642.603	3.77
642.933	3.68
643.263	3.52
643.592	3.17
643.922	3.31
644.252	3.7
644.582	3.83
644.911	3.22
645.241	3.53
645.571	3.9
645.9	3.64
646.23	3.83
646.559	3.47
646.888	3.75
647.218	3.5
647.547	3.4
647.876	3.15
648.205	3.51
648.534	3.76
648.863	3.27
649.192	3.79
649.521	3.17
649.85	3.62
650.179	3.17
650.508	3.78
650.837	3.74
651.165	3.63
651.494	3.45
651.822	3.41
652.151	3.37
652.479	3.27
652.808	3.88
653.136	3.03
653.465	3.17
653.793	3.39
654.121	3.2
654.449	3.22
654.777	3.39
655.105	3.6
655.433	3.58
655.761	3.58
656.089	3.59
656.417	3.22
656.745	3.48
657.073	3.06
657.4	3.85
657.728	3.4
658.056	3.52
658.383	3.67
658.711	3.42
659.038	3.76
659.365	3.12
659.693	3.51
660.02	3.8
660.347	3.3
660.674	3.34
661.001	3.74
661.329	3.59
661.656	4.13
661.982	3.77
662.309	3.46
662.636	3.48
662.963	3.43
663.29	3.81
663.616	3.42
663.943	3.28
664.27	3.5
664.596	3.39
664.923	3.78
665.249	3.96
665.576	3.91
665.902	3.44
666.228	3.96
666.554	3.55
666.881	3.41
667.207	3.58
667.533	3.78
667.859	3.09
668.185	3.83
668.511	3.26
668.837	3.8
669.162	3.52
669.488	3.49
669.814	4.04
670.139	3.29
670.465	3.44
670.791	3.93
671.116	3.58
671.442	3.48
671.767	3.07
672.092	3.45
672.418	3.92
672.743	3.5
673.068	3.57
673.393	3.3
673.718	3.31
674.043	4.11
674.368	3.8
674.693	3.22
675.018	3.54
675.343	4.02
675.667	4.01
675.992	3.63
676.317	3.61
676.641	3.62
676.966	4.47
677.29	3.2
677.615	4.08
677.939	3.35
678.264	3.25
678.588	2.95
678.912	3.86
679.236	3.33
679.56	2.72
679.885	3.88
680.209	3.91
680.532	3.54
680.856	3.92
681.18	3.89
681.504	3.74
681.828	4.14
682.152	3.92
682.475	3.4
682.799	3.74
683.122	3.5
683.446	3.99
683.769	3.39
684.093	3.76
684.416	3.77
684.739	4.28
685.062	3.88
685.386	3.68
685.709	3.3
686.032	3.71
686.355	3.7
686.678	3.62
687.001	4
687.324	4.09
687.646	4.45
687.969	3.77
688.292	3.27
688.614	3.61
688.937	3.91
689.26	3.81
689.582	3.21
689.904	3.57
690.227	3.81
690.549	3.62
690.871	4.68
691.194	3.34
691.516	3.84
691.838	3.8
692.16	3.57
692.482	4.19
692.804	3.75
693.126	4.48
693.448	3.64
693.769	4.58
694.091	3.39
