Data from 97281_forehead_Reflection__0__51.txt Node

Date: Fri Sep 23 20:06:27 CDT 2022
User: ToomeyLab
Spectrometer: FLMS14357
Trigger mode: 0
Integration Time (sec): 1.000000E-2
Scans to average: 100
Electric dark correction enabled: true
Nonlinearity correction enabled: false
Boxcar width: 0
XAxis mode: Wavelengths
Number of Pixels in Spectrum: 2048
>>>>>Begin Spectral Data<<<<<
189.047	72.02
189.435	72.02
189.823	72.02
190.211	30.9
190.599	45.8
190.987	295.47
191.375	-455.93
191.763	30.6
192.151	57.54
192.538	78.94
192.926	190.95
193.314	178.36
193.702	50.65
194.089	22.64
194.477	185.72
194.864	145.03
195.252	-135.95
195.639	9.91
196.027	146.91
196.414	210.65
196.801	56.74
197.189	81.79
197.576	132.21
197.963	85.92
198.351	64
198.738	-17.42
199.125	19.8
199.512	26.82
199.899	-36.07
200.286	44.32
200.673	16.25
201.06	34.62
201.447	32.07
201.833	46.31
202.22	49.55
202.607	33.85
202.994	51.58
203.38	12.83
203.767	-25.52
204.154	31.86
204.54	-1.79
204.927	46.13
205.313	55.8
205.699	-14.07
206.086	13.35
206.472	35.58
206.858	36.71
207.245	24.65
207.631	1.32
208.017	10.58
208.403	4.74
208.789	-5.93
209.175	35.55
209.561	23.44
209.947	21.32
210.333	48.74
210.719	9.81
211.105	14.37
211.491	17.02
211.876	40.66
212.262	3.65
212.648	2.35
213.034	-43.43
213.419	-26.33
213.805	42.57
214.19	35.12
214.576	-1.32
214.961	12.87
215.346	10.65
215.732	20.43
216.117	5.57
216.502	12.87
216.888	16.07
217.273	9.32
217.658	-14.69
218.043	34.84
218.428	-2.38
218.813	29.2
219.198	17.21
219.583	15.23
219.968	20.07
220.353	20.6
220.738	21.91
221.122	15.7
221.507	26.64
221.892	6.76
222.276	2.4
222.661	17.66
223.046	8.96
223.43	0.6
223.815	4.84
224.199	-4.6
224.583	21.26
224.968	-3.11
225.352	7.35
225.736	10.63
226.121	13.51
226.505	12.8
226.889	3.87
227.273	4.7
227.657	-3.78
228.041	12.1
228.425	10.89
228.809	7.84
229.193	5.29
229.577	4.46
229.961	3.48
230.344	3.44
230.728	2.75
231.112	2.55
231.495	2.45
231.879	0.29
232.263	5.01
232.646	4.62
233.03	4.22
233.413	4.38
233.797	2.19
234.18	6.97
234.563	0.38
234.946	6.97
235.33	2.76
235.713	5.12
236.096	0.33
236.479	3.15
236.862	3.95
237.245	5.48
237.628	5.49
238.011	4.29
238.394	3.63
238.777	3.22
239.16	4.22
239.543	3.75
239.925	3.15
240.308	4.18
240.691	3.9
241.073	3.16
241.456	3.05
241.838	4.65
242.221	4.39
242.603	4.79
242.986	3.44
243.368	3.47
243.75	4.21
244.133	3.94
244.515	3.56
244.897	3.86
245.279	4.06
245.661	4.36
246.043	5.49
246.425	3.73
246.807	3.79
247.189	3.95
247.571	4.12
247.953	3.91
248.335	3.82
248.717	3.78
249.098	3.66
249.48	3.79
249.862	4.11
250.243	4.21
250.625	4.43
251.006	4.36
251.388	4.52
251.769	3.6
252.151	2.35
252.532	4.97
252.913	5.05
253.295	4.16
253.676	3.84
254.057	3.61
254.438	3.86
254.819	5.13
255.2	4.62
255.581	5.03
255.962	2.89
256.343	4.38
256.724	3.67
257.105	4.4
257.486	4.45
257.867	4.41
258.247	5.02
258.628	4.34
259.009	3.5
259.389	3.91
259.77	3.68
260.15	3.57
260.531	3.82
260.911	3.84
261.292	3.75
261.672	3.57
262.052	3.75
262.432	3.72
262.813	3.71
263.193	4.32
263.573	4.44
263.953	3.34
264.333	3.75
264.713	4.26
265.093	4.2
265.473	3.98
265.853	3.47
266.233	3.79
266.612	3.77
266.992	4.38
267.372	4.05
267.752	4.34
268.131	4.67
268.511	3.71
268.89	3.83
269.27	3.79
269.649	3.26
270.029	3.77
270.408	3.92
270.787	3.72
271.167	3.61
271.546	3.9
271.925	3.64
272.304	3.78
272.683	4.06
273.062	3.69
273.441	3.47
273.82	3.66
274.199	4.01
274.578	3.72
274.957	3.89
275.336	3.81
275.715	3.64
276.093	4.64
276.472	4.9
276.851	4.22
277.229	3.45
277.608	3.4
277.986	3.66
278.365	3.91
278.743	4.18
279.122	3.18
279.5	3.56
279.878	3.56
280.257	4
280.635	3.59
281.013	3.45
281.391	3.36
281.769	3.54
282.147	3.42
282.525	3.68
282.903	3.28
283.281	3.95
283.659	3.95
284.037	3.81
284.415	3.56
284.792	3.69
285.17	4.22
285.548	3.76
285.925	4.04
286.303	4.43
286.68	3.91
287.058	3.59
287.435	3.72
287.813	4.28
288.19	3.85
288.567	4.25
288.945	3.84
289.322	4
289.699	4.21
290.076	3.67
290.453	3.88
290.83	4.47
291.207	4.14
291.584	4.03
291.961	3.99
292.338	3.82
292.715	3.91
293.092	3.89
293.469	4.28
293.845	4.56
294.222	4.51
294.599	4.49
294.975	4.4
295.352	4.96
295.728	4.35
296.105	4.47
296.481	4.53
296.858	4.31
297.234	4.54
297.61	4.41
297.986	4.86
298.363	4.71
298.739	4.93
299.115	4.65
299.491	4.49
299.867	4.74
300.243	4.89
300.619	4.99
300.995	4.88
301.371	4.89
301.746	5.53
302.122	4.59
302.498	5.67
302.874	4.57
303.249	5.16
303.625	4.9
304	4.8
304.376	5.2
304.751	5.1
305.127	5.15
305.502	5.82
305.878	5.37
306.253	5.55
306.628	5.37
307.003	4.96
307.378	5.56
307.754	5.93
308.129	5.8
308.504	6.05
308.879	5.75
309.254	5.38
309.629	5.65
310.003	6.14
310.378	5.98
310.753	5.89
311.128	5.58
311.502	5.56
311.877	5.68
312.252	5.74
312.626	5.64
313.001	5.95
313.375	5.96
313.75	6.06
314.124	6.01
314.498	6.27
314.873	6.4
315.247	6.66
315.621	6.45
315.995	6.37
316.369	6.23
316.743	6.41
317.117	5.8
317.491	6.33
317.865	6.86
318.239	6.73
318.613	6.46
318.987	5.95
319.361	6.63
319.734	6.5
320.108	6.43
320.482	6.52
320.855	6.35
321.229	6.87
321.602	6.67
321.976	7.65
322.349	6.9
322.723	7.38
323.096	7.15
323.469	6.8
323.843	6.61
324.216	7.54
324.589	7.44
324.962	6.71
325.335	6.5
325.708	7.11
326.081	7.22
326.454	7.19
326.827	7.09
327.2	7.03
327.573	7.5
327.945	7.38
328.318	6.99
328.691	7.32
329.063	7.59
329.436	7.51
329.809	8.21
330.181	7.69
330.553	6.84
330.926	7.24
331.298	7.69
331.671	8.14
332.043	8.03
332.415	7.3
332.787	7.85
333.159	7.65
333.532	7.59
333.904	7.35
334.276	7.29
334.648	7.85
335.02	7.87
335.391	7.8
335.763	7.63
336.135	8.11
336.507	8.06
336.879	7.81
337.25	8.48
337.622	7.94
337.993	7.93
338.365	7.84
338.736	8.31
339.108	8.51
339.479	8.04
339.851	8.74
340.222	8.35
340.593	7.78
340.964	8.05
341.336	8.06
341.707	8.8
342.078	8
342.449	7.93
342.82	8.3
343.191	8.24
343.562	8.15
343.933	8.9
344.303	8.63
344.674	8.82
345.045	8.64
345.416	8.52
345.786	9.23
346.157	8.29
346.527	8.7
346.898	8.85
347.268	8.55
347.639	8.52
348.009	8.58
348.38	8.33
348.75	8.76
349.12	8.61
349.49	8.68
349.861	8.87
350.231	8.64
350.601	8.77
350.971	8.88
351.341	8.86
351.711	8.97
352.081	8.83
352.45	8.5
352.82	8.85
353.19	9.45
353.56	9.71
353.929	9.12
354.299	9.01
354.669	9.21
355.038	9.63
355.408	9.32
355.777	9.26
356.147	9.43
356.516	9.17
356.885	9.36
357.254	9.09
357.624	9.43
357.993	9.45
358.362	9.25
358.731	9.16
359.1	9.71
359.469	9.27
359.838	9.32
360.207	9.62
360.576	9.8
360.945	9.68
361.314	9.63
361.682	9.56
362.051	9.58
362.42	9.91
362.788	9.66
363.157	9.8
363.525	9.64
363.894	9.8
364.262	9.63
364.631	9.96
364.999	9.95
365.367	9.72
365.735	10.1
366.104	10.08
366.472	10.12
366.84	10.34
367.208	10.37
367.576	9.96
367.944	10.04
368.312	10.27
368.68	10.19
369.048	10.25
369.416	10.21
369.783	10.2
370.151	10.58
370.519	10.54
370.886	10.45
371.254	10.52
371.621	10.37
371.989	10.38
372.356	10.7
372.724	10.26
373.091	10.47
373.458	10.83
373.826	10.61
374.193	10.75
374.56	10.42
374.927	10.61
375.294	10.83
375.661	10.66
376.028	10.79
376.395	10.55
376.762	10.49
377.129	10.87
377.496	10.72
377.863	10.75
378.229	10.92
378.596	10.88
378.963	11.01
379.329	11.27
379.696	10.92
380.062	10.91
380.429	11.1
380.795	11.1
381.161	11.3
381.528	11.53
381.894	11.2
382.26	11.1
382.626	11.41
382.993	11.43
383.359	11.24
383.725	11.52
384.091	11.32
384.457	11.63
384.823	11.25
385.188	11.8
385.554	11.68
385.92	11.64
386.286	11.41
386.651	11.69
387.017	11.8
387.383	11.75
387.748	12.11
388.114	11.94
388.479	11.78
388.845	11.93
389.21	11.75
389.575	11.74
389.94	11.78
390.306	11.73
390.671	11.83
391.036	12.04
391.401	12.11
391.766	12.17
392.131	12.03
392.496	12.03
392.861	12.15
393.226	12
393.591	11.86
393.956	12.23
394.32	12.34
394.685	12.23
395.05	12.39
395.414	12.22
395.779	11.97
396.143	12.18
396.508	12.38
396.872	12.39
397.236	12.57
397.601	12.55
397.965	12.64
398.329	12.59
398.694	12.61
399.058	12.67
399.422	12.87
399.786	12.86
400.15	12.55
400.514	12.56
400.878	12.82
401.242	12.69
401.605	12.96
401.969	12.91
402.333	12.63
402.697	12.45
403.06	12.86
403.424	12.87
403.787	12.85
404.151	13.17
404.514	12.87
404.878	12.96
405.241	13.08
405.604	12.61
405.968	12.94
406.331	12.91
406.694	13.13
407.057	13.04
407.42	13.03
407.783	12.98
408.146	13.19
408.509	13.16
408.872	13.21
409.235	13.24
409.598	13.29
409.961	13.34
410.323	13.39
410.686	13.21
411.049	13.16
411.411	13.3
411.774	13.37
412.136	13.52
412.499	13.41
412.861	13.22
413.223	13.48
413.586	13.47
413.948	13.51
414.31	13.51
414.672	13.74
415.035	13.57
415.397	13.67
415.759	13.74
416.121	13.95
416.483	13.77
416.845	13.49
417.206	13.76
417.568	13.85
417.93	13.65
418.292	13.79
418.653	13.68
419.015	13.76
419.377	13.71
419.738	13.77
420.1	13.73
420.461	13.62
420.822	13.82
421.184	13.65
421.545	13.72
421.906	13.87
422.267	13.86
422.629	13.62
422.99	13.77
423.351	13.88
423.712	13.79
424.073	13.9
424.434	13.99
424.795	14.07
425.155	14.03
425.516	14.02
425.877	14.03
426.238	14.05
426.598	14.09
426.959	14.17
427.32	14.27
427.68	14.26
428.041	14.33
428.401	14.44
428.761	14.56
429.122	14.62
429.482	14.65
429.842	14.82
430.202	14.73
430.563	14.8
430.923	14.95
431.283	14.89
431.643	14.59
432.003	14.98
432.363	15.02
432.722	15
433.082	14.88
433.442	14.93
433.802	15.07
434.161	14.95
434.521	15.04
434.881	15
435.24	14.91
435.6	15.09
435.959	15.03
436.319	15.14
436.678	15.13
437.037	15.36
437.396	15.34
437.756	15.29
438.115	15.08
438.474	15.22
438.833	15.44
439.192	15.48
439.551	15.42
439.91	15.44
440.269	15.56
440.628	15.57
440.987	15.3
441.345	15.43
441.704	15.47
442.063	15.52
442.421	15.33
442.78	15.33
443.138	15.44
443.497	15.54
443.855	15.8
444.214	15.75
444.572	15.75
444.93	15.94
445.288	15.91
445.647	15.89
446.005	16.01
446.363	15.93
446.721	15.79
447.079	15.9
447.437	15.95
447.795	15.87
448.153	15.77
448.51	15.76
448.868	15.75
449.226	15.93
449.584	15.93
449.941	16.13
450.299	16.06
450.656	16.35
451.014	16.37
451.371	16.07
451.729	16.42
452.086	16.51
452.443	16.58
452.801	16.51
453.158	16.57
453.515	16.59
453.872	16.58
454.229	16.73
454.586	16.51
454.943	16.68
455.3	16.72
455.657	16.81
456.014	16.79
456.371	16.78
456.727	16.93
457.084	16.79
457.441	17.1
457.797	16.7
458.154	16.99
458.51	16.94
458.867	17.23
459.223	17.19
459.58	17.03
459.936	17.09
460.292	17
460.648	16.84
461.005	16.98
461.361	16.82
461.717	16.92
462.073	16.91
462.429	17.02
462.785	17.23
463.141	17.2
463.496	17.41
463.852	17.31
464.208	17.43
464.564	17.47
464.919	17.67
465.275	17.59
465.631	17.55
465.986	17.63
466.342	17.59
466.697	17.68
467.052	17.77
467.408	17.69
467.763	17.8
468.118	17.83
468.473	17.67
468.829	17.71
469.184	18
469.539	17.9
469.894	17.94
470.249	17.94
470.603	18.19
470.958	18.09
471.313	18.14
471.668	18.21
472.023	18.15
472.377	18.22
472.732	18.19
473.086	18.19
473.441	18.34
473.795	18.4
474.15	18.53
474.504	18.34
474.859	18.33
475.213	18.63
475.567	18.32
475.921	18.44
476.275	18.51
476.63	18.66
476.984	18.82
477.338	18.69
477.692	18.55
478.045	18.66
478.399	18.55
478.753	18.74
479.107	18.7
479.461	18.55
479.814	18.67
480.168	18.65
480.521	18.81
480.875	18.65
481.228	18.97
481.582	18.82
481.935	18.86
482.289	18.87
482.642	18.7
482.995	18.91
483.348	18.69
483.701	18.65
484.055	18.78
484.408	18.48
484.761	18.35
485.114	18.04
485.466	17.93
485.819	17.94
486.172	18.11
486.525	18.39
486.878	18.56
487.23	18.54
487.583	18.73
487.936	18.81
488.288	18.68
488.641	18.53
488.993	18.46
489.345	18.44
489.698	18.47
490.05	18.58
490.402	18.71
490.754	18.94
491.107	19.04
491.459	19.16
491.811	19.29
492.163	19.4
492.515	19.18
492.866	19.01
493.218	18.73
493.57	18.72
493.922	18.93
494.274	19.24
494.625	19.29
494.977	19.55
495.328	19.73
495.68	19.84
496.031	19.74
496.383	19.99
496.734	20.08
497.086	20.14
497.437	20.24
497.788	20.01
498.139	20.06
498.49	19.93
498.842	19.93
499.193	19.94
499.544	20
499.894	20.15
500.245	20.13
500.596	20.29
500.947	20.06
501.298	20.34
501.648	20.56
501.999	20.5
502.35	20.67
502.7	20.4
503.051	20.66
503.401	20.63
503.752	20.62
504.102	20.73
504.452	20.65
504.803	20.83
505.153	21.03
505.503	20.76
505.853	20.95
506.203	20.77
506.553	20.95
506.903	20.94
507.253	20.97
507.603	20.9
507.953	21.09
508.303	21.16
508.652	20.93
509.002	21.06
509.352	21.22
509.701	20.8
510.051	21.03
510.4	20.97
510.75	20.97
511.099	21.06
511.449	21.04
511.798	21.15
512.147	21.26
512.496	21.08
512.846	21.41
513.195	21.11
513.544	21.4
513.893	21.23
514.242	21.34
514.591	21.29
514.939	21.32
515.288	21.56
515.637	21.64
515.986	21.64
516.334	21.29
516.683	21.6
517.032	21.76
517.38	21.73
517.729	21.78
518.077	21.87
518.426	21.74
518.774	21.75
519.122	21.57
519.47	21.56
519.819	21.6
520.167	21.42
520.515	21.38
520.863	21.55
521.211	21.6
521.559	21.78
521.907	21.8
522.255	21.86
522.602	21.81
522.95	22.03
523.298	22.02
523.645	22.17
523.993	22.12
524.341	22.22
524.688	22.32
525.036	22.32
525.383	22.14
525.73	22.26
526.078	22.37
526.425	22.34
526.772	22.02
527.119	22
527.466	21.79
527.814	21.78
528.161	21.94
528.508	22.08
528.854	22.12
529.201	21.9
529.548	21.93
529.895	21.65
530.242	21.45
530.588	21.49
530.935	21.83
531.282	22.02
531.628	22.04
531.975	22.05
532.321	22.31
532.667	22.47
533.014	22.44
533.36	22.48
533.706	22.49
534.052	22.46
534.399	22.31
534.745	22.23
535.091	22.09
535.437	22.22
535.783	22.4
536.129	22.5
536.474	22.76
536.82	22.85
537.166	22.9
537.512	22.85
537.857	22.82
538.203	22.69
538.549	22.6
538.894	22.79
539.239	22.96
539.585	23.11
539.93	23.16
540.276	23.34
540.621	23.29
540.966	23.32
541.311	23.41
541.656	23.21
542.001	23.27
542.346	23.04
542.691	22.81
543.036	22.59
543.381	22.73
543.726	22.88
544.071	22.97
544.415	23.2
544.76	23.14
545.105	23.21
545.449	23.36
545.794	23.56
546.138	23.51
546.483	23.7
546.827	23.72
547.171	23.89
547.516	23.68
547.86	23.69
548.204	23.71
548.548	23.63
548.892	23.76
549.236	24
549.58	23.94
549.924	24.21
550.268	24.32
550.612	24.27
550.956	24.4
551.3	24.6
551.643	24.36
551.987	24.5
552.33	24.55
552.674	24.54
553.017	24.68
553.361	24.47
553.704	24.55
554.048	24.8
554.391	24.58
554.734	24.58
555.077	24.57
555.42	24.71
555.764	24.63
556.107	25.05
556.45	25
556.793	24.92
557.135	25.22
557.478	25.11
557.821	25.17
558.164	24.94
558.507	25.11
558.849	25.23
559.192	25.17
559.534	25.25
559.877	25.44
560.219	25.48
560.562	25.38
560.904	25.45
561.246	25.29
561.589	25.25
561.931	25.25
562.273	25.43
562.615	25.64
562.957	25.58
563.299	25.45
563.641	25.56
563.983	25.51
564.325	25.51
564.667	25.66
565.008	25.53
565.35	25.83
565.692	25.74
566.033	25.88
566.375	25.65
566.716	25.59
567.058	25.73
567.399	25.64
567.741	25.69
568.082	25.63
568.423	25.5
568.764	25.69
569.105	25.75
569.447	25.84
569.788	25.97
570.129	25.99
570.47	25.94
570.811	26.15
571.151	26.16
571.492	25.86
571.833	26.04
572.174	26.06
572.514	26.12
572.855	25.94
573.195	26.15
573.536	25.97
573.876	25.99
574.217	26.2
574.557	26.12
574.898	26.19
575.238	26.34
575.578	26.32
575.918	26.23
576.258	26.16
576.598	26.37
576.938	26.34
577.278	26.24
577.618	26.26
577.958	26.59
578.298	26.69
578.638	26.56
578.977	26.71
579.317	26.78
579.657	26.92
579.996	26.55
580.336	26.87
580.675	26.91
581.014	26.99
581.354	27.26
581.693	26.97
582.032	27.03
582.372	27.18
582.711	27.14
583.05	27.31
583.389	27.05
583.728	27.32
584.067	27.13
584.406	27.24
584.745	27.36
585.083	27.2
585.422	27.29
585.761	27.25
586.1	27.34
586.438	27.15
586.777	27.42
587.115	27.64
587.454	27.59
587.792	27.61
588.13	27.63
588.469	27.36
588.807	27.36
589.145	27.95
589.483	27.43
589.821	27.77
590.159	27.91
590.497	27.51
590.835	27.75
591.173	27.8
591.511	27.77
591.849	27.74
592.187	27.8
592.524	28.1
592.862	27.89
593.2	27.95
593.537	27.96
593.875	27.75
594.212	28.18
594.55	28.15
594.887	28.01
595.224	27.98
595.561	28.06
595.899	27.81
596.236	27.92
596.573	28.07
596.91	28.1
597.247	28.07
597.584	28.1
597.921	28.06
598.258	27.7
598.594	28.17
598.931	27.75
599.268	27.83
599.604	28.07
599.941	28.44
600.277	28.12
600.614	28.2
600.95	28.4
601.287	28.6
601.623	28.5
601.959	28.47
602.296	28.72
602.632	28.56
602.968	28.41
603.304	28.51
603.64	28.79
603.976	28.54
604.312	28.87
604.648	28.85
604.984	28.6
605.319	28.69
605.655	28.49
605.991	28.43
606.326	28.62
606.662	28.43
606.998	28.48
607.333	28.64
607.668	28.62
608.004	28.68
608.339	28.8
608.674	28.88
609.01	29.06
609.345	29.09
609.68	28.9
610.015	29.39
610.35	28.98
610.685	28.87
611.02	28.55
611.355	28.9
611.689	28.99
612.024	28.88
612.359	28.79
612.694	29.44
613.028	29.33
613.363	29.34
613.697	29.29
614.032	29.13
614.366	29.38
614.7	29.5
615.035	29.64
615.369	29.76
615.703	29.49
616.037	29.62
616.371	29.56
616.705	29.66
617.039	29.97
617.373	29.88
617.707	29.74
618.041	30.03
618.375	29.94
618.709	29.75
619.042	29.72
619.376	30.26
619.71	29.72
620.043	29.72
620.377	29.92
620.71	29.56
621.043	30.16
621.377	29.57
621.71	30.15
622.043	29.81
622.376	29.78
622.709	30.33
623.043	30.09
623.376	30.37
623.709	30.39
624.041	30.27
624.374	30.04
624.707	30.39
625.04	30.68
625.373	30.33
625.705	30.34
626.038	29.99
626.37	30.29
626.703	30.5
627.035	30.53
627.368	30.18
627.7	30.25
628.032	30.11
628.365	30.55
628.697	30.34
629.029	30.22
629.361	30.55
629.693	30.38
630.025	30.59
630.357	30.57
630.689	30.72
631.021	30.59
631.353	30.9
631.684	30.68
632.016	30.6
632.348	30.5
632.679	30.68
633.011	30.69
633.342	30.95
633.674	30.87
634.005	30.96
634.336	30.97
634.668	30.87
634.999	30.74
635.33	30.8
635.661	30.89
635.992	31.2
636.323	31.01
636.654	31.17
636.985	31.19
637.316	31.26
637.647	31.19
637.977	31.06
638.308	30.81
638.639	30.97
638.969	31.19
639.3	31.17
639.63	30.7
639.961	31.29
640.291	31.18
640.622	31.21
640.952	31.62
641.282	31.35
641.612	31.39
641.943	31.64
642.273	31.87
642.603	31.73
642.933	32.12
643.263	31.13
643.592	31.89
643.922	31.62
644.252	32.19
644.582	31.59
644.911	31.84
645.241	31.72
645.571	31.94
645.9	32.09
646.23	32.17
646.559	31.98
646.888	32.23
647.218	31.64
647.547	32.17
647.876	31.83
648.205	32.09
648.534	32.1
648.863	31.63
649.192	32.17
649.521	31.64
649.85	32.02
650.179	31.9
650.508	32.2
650.837	32.83
651.165	31.98
651.494	32.1
651.822	32.24
652.151	32.14
652.479	32.43
652.808	32.34
653.136	32.05
653.465	32.18
653.793	32.52
654.121	31.98
654.449	32.64
654.777	32.62
655.105	32.63
655.433	32.49
655.761	32.54
656.089	32.25
656.417	32.79
656.745	32.37
657.073	32.12
657.4	32.74
657.728	32.45
658.056	32.7
658.383	32.75
658.711	32.41
659.038	32.75
659.365	32.75
659.693	33.31
660.02	33.27
660.347	32.5
660.674	32.61
661.001	32.76
661.329	32.62
661.656	32.4
661.982	32.87
662.309	32.95
662.636	33.33
662.963	33.04
663.29	33.22
663.616	32.59
663.943	33.12
664.27	33.06
664.596	32.86
664.923	33.51
665.249	33.36
665.576	33.46
665.902	32.55
666.228	33.38
666.554	33.33
666.881	32.76
667.207	33.2
667.533	33.4
667.859	33.35
668.185	33.41
668.511	33.01
668.837	33.87
669.162	33.6
669.488	33.02
669.814	33.24
670.139	33.59
670.465	33.29
670.791	33.32
671.116	33.6
671.442	34.05
671.767	33.2
672.092	33.58
672.418	33.72
