Data from 97281_crown_Reflection__2__58.txt Node

Date: Fri Sep 23 20:08:38 CDT 2022
User: ToomeyLab
Spectrometer: FLMS14357
Trigger mode: 0
Integration Time (sec): 1.000000E-2
Scans to average: 100
Electric dark correction enabled: true
Nonlinearity correction enabled: false
Boxcar width: 0
XAxis mode: Wavelengths
Number of Pixels in Spectrum: 2048
>>>>>Begin Spectral Data<<<<<
189.047	121.82
189.435	121.82
189.823	121.82
190.211	127.48
190.599	-36.13
190.987	-109.26
191.375	303.58
191.763	55.8
192.151	-82.21
192.538	242.34
192.926	122.76
193.314	107.33
193.702	101.45
194.089	-64.2
194.477	96.49
194.864	260.02
195.252	199.85
195.639	-32.27
196.027	153.43
196.414	23.59
196.801	93.6
197.189	87.79
197.576	163.58
197.963	-66.09
198.351	24.05
198.738	-27.32
199.125	49.88
199.512	10.2
199.899	3.23
200.286	-7.95
200.673	18.28
201.06	15.52
201.447	36.08
201.833	4.92
202.22	-5.62
202.607	3.37
202.994	-9.12
203.38	-38.66
203.767	3.51
204.154	28.97
204.54	20.02
204.927	17.78
205.313	24.55
205.699	6
206.086	-14.75
206.472	3.18
206.858	6.68
207.245	-30.04
207.631	33.39
208.017	-15.6
208.403	22.25
208.789	7.52
209.175	5.44
209.561	-6.57
209.947	15.04
210.333	32.73
210.719	-15.68
211.105	23.91
211.491	12.37
211.876	16.19
212.262	-15.89
212.648	-37.85
213.034	-27.7
213.419	-31.26
213.805	69.41
214.19	0.84
214.576	-2.02
214.961	4.07
215.346	-32.13
215.732	34.44
216.117	32.23
216.502	-3.26
216.888	9.05
217.273	5.15
217.658	5.15
218.043	16.71
218.428	5.76
218.813	30.99
219.198	-9.6
219.583	6.45
219.968	27.76
220.353	2.83
220.738	13.06
221.122	5.1
221.507	15.96
221.892	-2.39
222.276	-32.17
222.661	5.07
223.046	14.43
223.43	-3.71
223.815	6.6
224.199	17.99
224.583	2.8
224.968	3.69
225.352	7.49
225.736	8.6
226.121	11.7
226.505	7.05
226.889	3.75
227.273	4.17
227.657	10.36
228.041	7.87
228.425	8.6
228.809	8.01
229.193	7.3
229.577	8.47
229.961	7.85
230.344	7.54
230.728	6.52
231.112	7.29
231.495	6.82
231.879	5.61
232.263	7.49
232.646	7.3
233.03	7.43
233.413	7.19
233.797	6.66
234.18	7.77
234.563	4.55
234.946	8.39
235.33	6.6
235.713	6.96
236.096	6.4
236.479	7.1
236.862	6.22
237.245	6.34
237.628	9.23
238.011	7.8
238.394	5.37
238.777	7.23
239.16	5.3
239.543	6.94
239.925	8.29
240.308	8.4
240.691	8.11
241.073	5.92
241.456	7.08
241.838	7.29
242.221	7.26
242.603	8.08
242.986	6.51
243.368	6.76
243.75	6.58
244.133	6.8
244.515	5.96
244.897	6.9
245.279	6.93
245.661	7.43
246.043	6.52
246.425	5.68
246.807	6.47
247.189	6.9
247.571	6.2
247.953	5.86
248.335	6.34
248.717	6.59
249.098	6.19
249.48	6.22
249.862	6.44
250.243	6.14
250.625	6.48
251.006	6.55
251.388	5.81
251.769	6.4
252.151	5.09
252.532	6.65
252.913	6.66
253.295	6.6
253.676	6.38
254.057	6.3
254.438	5.85
254.819	6.79
255.2	6.24
255.581	5.97
255.962	6.44
256.343	6.7
256.724	6.63
257.105	5
257.486	5.44
257.867	5.75
258.247	5.98
258.628	5.14
259.009	4.46
259.389	5.19
259.77	4.78
260.15	5.49
260.531	5.85
260.911	5.87
261.292	5.86
261.672	5.6
262.052	5.52
262.432	5.48
262.813	5.9
263.193	5.53
263.573	6.18
263.953	5.4
264.333	5.09
264.713	5.34
265.093	5.92
265.473	5.35
265.853	5.39
266.233	4.3
266.612	5.62
266.992	5.97
267.372	5.25
267.752	5.44
268.131	5.61
268.511	5.51
268.89	5.19
269.27	5.16
269.649	4.91
270.029	5.81
270.408	5.49
270.787	4.49
271.167	5.16
271.546	5.47
271.925	4.86
272.304	5.57
272.683	5.14
273.062	5.18
273.441	4.96
273.82	5.5
274.199	5.34
274.578	5.42
274.957	5.17
275.336	5.74
275.715	5.24
276.093	5.82
276.472	5.52
276.851	5.07
277.229	5.84
277.608	5.6
277.986	5.45
278.365	5.88
278.743	5.47
279.122	5.19
279.5	5.63
279.878	5.05
280.257	4.69
280.635	5.02
281.013	5.65
281.391	5.68
281.769	5.33
282.147	5.09
282.525	5.59
282.903	4.8
283.281	4.97
283.659	5.25
284.037	5.3
284.415	5.31
284.792	5.4
285.17	5.32
285.548	4.18
285.925	5.63
286.303	5.83
286.68	5.2
287.058	5.13
287.435	4.87
287.813	5.56
288.19	5.18
288.567	5.43
288.945	5.25
289.322	4.97
289.699	5.74
290.076	5.1
290.453	4.78
290.83	4.66
291.207	5.04
291.584	5.42
291.961	4.96
292.338	5.14
292.715	4.62
293.092	4.67
293.469	5.36
293.845	5.66
294.222	5.43
294.599	4.99
294.975	5.62
295.352	5.13
295.728	5.44
296.105	4.92
296.481	4.58
296.858	5.14
297.234	5.03
297.61	4.6
297.986	5.03
298.363	4.84
298.739	5.14
299.115	4.87
299.491	4.8
299.867	4.92
300.243	5.27
300.619	5.34
300.995	5.5
301.371	4.74
301.746	5.79
302.122	4.87
302.498	5.28
302.874	4.57
303.249	4.94
303.625	4.47
304	5.13
304.376	4.74
304.751	4.51
305.127	5.02
305.502	4.91
305.878	5.06
306.253	4.98
306.628	4.86
307.003	4.22
307.378	5.02
307.754	5.45
308.129	5.24
308.504	4.79
308.879	5.03
309.254	5.01
309.629	5.03
310.003	4.52
310.378	4.78
310.753	5.01
311.128	4.68
311.502	4.68
311.877	4.62
312.252	4.62
312.626	4.83
313.001	4.58
313.375	4.77
313.75	4.32
314.124	4.41
314.498	5.33
314.873	4.68
315.247	4.93
315.621	5.02
315.995	4.63
316.369	5.1
316.743	4.57
317.117	4.28
317.491	4.41
317.865	5.1
318.239	5.54
318.613	4.31
318.987	4.54
319.361	4.53
319.734	4.44
320.108	4.34
320.482	4.49
320.855	4.52
321.229	4.94
321.602	4.38
321.976	4.6
322.349	4.67
322.723	4.86
323.096	4.51
323.469	4.63
323.843	4.54
324.216	4.77
324.589	4.84
324.962	4.45
325.335	4.73
325.708	4.69
326.081	4.67
326.454	4.21
326.827	4.4
327.2	4.19
327.573	4.79
327.945	4.83
328.318	4.32
328.691	4.36
329.063	4.53
329.436	4.82
329.809	5.36
330.181	4.31
330.553	4.33
330.926	4.24
331.298	4.65
331.671	4.53
332.043	4.68
332.415	4.26
332.787	4.8
333.159	5.03
333.532	4.03
333.904	3.99
334.276	4.03
334.648	4.65
335.02	4.13
335.391	4.4
335.763	4.13
336.135	4.98
336.507	4.84
336.879	4.29
337.25	4.91
337.622	4.36
337.993	4.58
338.365	4.45
338.736	4.76
339.108	4.87
339.479	4.16
339.851	5.17
340.222	5.03
340.593	4.05
340.964	4.55
341.336	4.3
341.707	5.27
342.078	4.62
342.449	4.73
342.82	4.28
343.191	4.51
343.562	4.28
343.933	5.11
344.303	4.39
344.674	4.62
345.045	4.87
345.416	4.75
345.786	4.93
346.157	4.23
346.527	4.8
346.898	4.89
347.268	4.78
347.639	4.57
348.009	4.33
348.38	4.56
348.75	4.63
349.12	4.83
349.49	4.34
349.861	4.67
350.231	4.44
350.601	4.94
350.971	4.65
351.341	4.91
351.711	4.3
352.081	4.29
352.45	4.06
352.82	4.79
353.19	5.05
353.56	4.73
353.929	4.61
354.299	4.91
354.669	4.83
355.038	4.94
355.408	4.49
355.777	4.73
356.147	4.27
356.516	4.79
356.885	4.62
357.254	4.71
357.624	4.62
357.993	4.56
358.362	4.83
358.731	4.77
359.1	4.81
359.469	4.63
359.838	4.67
360.207	4.76
360.576	4.63
360.945	4.64
361.314	4.37
361.682	4.43
362.051	4.69
362.42	4.86
362.788	4.46
363.157	4.94
363.525	4.93
363.894	4.83
364.262	4.66
364.631	5
364.999	4.85
365.367	4.29
365.735	4.69
366.104	4.67
366.472	4.74
366.84	4.83
367.208	4.73
367.576	4.74
367.944	4.82
368.312	5.09
368.68	4.61
369.048	4.78
369.416	5
369.783	4.98
370.151	4.77
370.519	4.86
370.886	4.91
371.254	5.11
371.621	5.01
371.989	4.88
372.356	5.16
372.724	4.74
373.091	4.93
373.458	5.01
373.826	4.72
374.193	4.96
374.56	4.89
374.927	4.82
375.294	4.98
375.661	4.64
376.028	4.61
376.395	4.89
376.762	4.63
377.129	4.89
377.496	5.14
377.863	4.98
378.229	4.87
378.596	4.9
378.963	5.06
379.329	5.05
379.696	4.85
380.062	4.76
380.429	4.77
380.795	4.71
381.161	4.93
381.528	5.11
381.894	5.18
382.26	4.68
382.626	4.75
382.993	5.07
383.359	4.87
383.725	5.24
384.091	5.05
384.457	5.03
384.823	4.74
385.188	4.87
385.554	4.88
385.92	5.16
386.286	4.91
386.651	5.1
387.017	5.32
387.383	4.98
387.748	4.86
388.114	5.12
388.479	4.83
388.845	4.79
389.21	4.76
389.575	4.89
389.94	4.93
390.306	4.92
390.671	4.78
391.036	4.76
391.401	5.06
391.766	4.89
392.131	4.94
392.496	5.04
392.861	5.18
393.226	4.9
393.591	4.92
393.956	5.02
394.32	5.28
394.685	4.8
395.05	5.09
395.414	4.85
395.779	4.64
396.143	4.91
396.508	5.05
396.872	5.19
397.236	5.15
397.601	5.11
397.965	5.46
398.329	5.24
398.694	4.91
399.058	5.11
399.422	5.09
399.786	5.08
400.15	4.94
400.514	4.88
400.878	5.01
401.242	4.83
401.605	5.13
401.969	5.2
402.333	4.91
402.697	4.68
403.06	5.12
403.424	5.13
403.787	4.89
404.151	4.89
404.514	4.89
404.878	4.87
405.241	5.18
405.604	5.03
405.968	4.93
406.331	4.95
406.694	4.91
407.057	4.92
407.42	4.97
407.783	5.1
408.146	5.08
408.509	5.04
408.872	5.15
409.235	5.03
409.598	5.27
409.961	5.21
410.323	5.05
410.686	5.09
411.049	4.86
411.411	4.88
411.774	4.83
412.136	4.92
412.499	5.01
412.861	4.88
413.223	5
413.586	5.14
413.948	4.96
414.31	5.21
414.672	5
415.035	5.02
415.397	5.09
415.759	5.33
416.121	4.96
416.483	5.01
416.845	4.85
417.206	5.08
417.568	5.07
417.93	4.83
418.292	5.13
418.653	5.09
419.015	5
419.377	4.92
419.738	4.88
420.1	4.92
420.461	5.02
420.822	4.84
421.184	4.86
421.545	5.04
421.906	5.07
422.267	4.97
422.629	4.97
422.99	4.99
423.351	4.95
423.712	4.86
424.073	4.77
424.434	4.97
424.795	4.94
425.155	4.97
425.516	4.85
425.877	4.93
426.238	4.9
426.598	4.94
426.959	5.08
427.32	4.98
427.68	4.96
428.041	4.83
428.401	5
428.761	4.95
429.122	4.98
429.482	4.93
429.842	5.07
430.202	5.1
430.563	5.1
430.923	5.19
431.283	5.28
431.643	4.94
432.003	5
432.363	5.1
432.722	5.12
433.082	4.91
433.442	4.92
433.802	5.12
434.161	4.93
434.521	5.1
434.881	5.02
435.24	4.96
435.6	5.01
435.959	5
436.319	5.04
436.678	4.98
437.037	5.19
437.396	5.22
437.756	5.02
438.115	4.96
438.474	4.88
438.833	5.1
439.192	5.09
439.551	5.03
439.91	5.08
440.269	5.11
440.628	4.97
440.987	4.86
441.345	4.87
441.704	4.97
442.063	5.07
442.421	4.96
442.78	4.96
443.138	5.01
443.497	5.02
443.855	4.93
444.214	5.11
444.572	5.01
444.93	5.01
445.288	4.95
445.647	5.14
446.005	5.01
446.363	5.02
446.721	4.96
447.079	4.91
447.437	4.88
447.795	4.96
448.153	4.77
448.51	4.99
448.868	4.94
449.226	4.93
449.584	4.88
449.941	5.07
450.299	5.07
450.656	4.98
451.014	5.01
451.371	4.93
451.729	4.92
452.086	5.06
452.443	5.09
452.801	4.92
453.158	5.04
453.515	5.02
453.872	4.96
454.229	5.04
454.586	5.02
454.943	5.11
455.3	5.01
455.657	4.98
456.014	5.14
456.371	4.94
456.727	5.18
457.084	5.04
457.441	5.19
457.797	5.05
458.154	5.02
458.51	5.03
458.867	5.1
459.223	5.09
459.58	5.05
459.936	5.02
460.292	4.86
460.648	5
461.005	5.05
461.361	4.85
461.717	4.95
462.073	4.96
462.429	4.91
462.785	4.98
463.141	4.9
463.496	5.02
463.852	5.1
464.208	4.97
464.564	5.22
464.919	4.91
465.275	5.15
465.631	4.9
465.986	4.75
466.342	4.96
466.697	5.04
467.052	5.12
467.408	5.04
467.763	5.1
468.118	4.94
468.473	4.85
468.829	4.85
469.184	5.07
469.539	4.95
469.894	4.94
470.249	4.98
470.603	4.98
470.958	5.09
471.313	5.05
471.668	5.05
472.023	4.88
472.377	5
472.732	4.95
473.086	4.93
473.441	5.09
473.795	5.17
474.15	5.03
474.504	4.98
474.859	4.97
475.213	5.17
475.567	4.87
475.921	5.12
476.275	5.07
476.63	5.03
476.984	5.18
477.338	4.9
477.692	5.01
478.045	4.94
478.399	5.08
478.753	5.04
479.107	4.9
479.461	4.87
479.814	4.94
480.168	4.99
480.521	4.98
480.875	4.92
481.228	5.12
481.582	4.97
481.935	4.93
482.289	5.01
482.642	4.84
482.995	5.01
483.348	4.86
483.701	4.9
484.055	4.81
484.408	4.78
484.761	4.74
485.114	4.67
485.466	4.58
485.819	4.61
486.172	4.7
486.525	4.73
486.878	4.79
487.23	4.79
487.583	4.79
487.936	4.9
488.288	4.84
488.641	4.74
488.993	4.71
489.345	4.71
489.698	4.68
490.05	4.76
490.402	4.76
490.754	4.83
491.107	4.87
491.459	4.83
491.811	4.8
492.163	4.98
492.515	4.8
492.866	4.76
493.218	4.66
493.57	4.67
493.922	4.76
494.274	4.77
494.625	4.79
494.977	4.84
495.328	4.92
495.68	4.98
496.031	4.87
496.383	4.92
496.734	4.97
497.086	4.9
497.437	5.06
497.788	4.97
498.139	4.9
498.49	4.89
498.842	4.85
499.193	4.92
499.544	4.84
499.894	4.95
500.245	4.95
500.596	4.87
500.947	4.77
501.298	5.03
501.648	5
501.999	4.94
502.35	4.97
502.7	4.93
503.051	4.81
503.401	4.88
503.752	4.8
504.102	4.93
504.452	4.9
504.803	4.95
505.153	5.03
505.503	4.8
505.853	5.13
506.203	4.91
506.553	4.86
506.903	4.87
507.253	4.96
507.603	4.93
507.953	4.89
508.303	5.02
508.652	4.83
509.002	4.98
509.352	4.93
509.701	4.78
510.051	4.83
510.4	4.86
510.75	4.89
511.099	4.87
511.449	4.83
511.798	4.87
512.147	4.96
512.496	4.86
512.846	4.92
513.195	4.82
513.544	4.89
513.893	4.84
514.242	4.86
514.591	4.8
514.939	4.87
515.288	4.93
515.637	4.85
515.986	4.87
516.334	4.74
516.683	4.91
517.032	4.84
517.38	4.99
517.729	4.89
518.077	4.77
518.426	5.07
518.774	4.8
519.122	4.88
519.47	4.89
519.819	4.84
520.167	4.8
520.515	4.75
520.863	4.86
521.211	4.79
521.559	4.83
521.907	4.78
522.255	4.84
522.602	4.84
522.95	4.9
523.298	4.86
523.645	4.85
523.993	4.85
524.341	4.91
524.688	4.91
525.036	5
525.383	4.74
525.73	4.98
526.078	4.9
526.425	4.84
526.772	4.87
527.119	4.71
527.466	4.73
527.814	4.74
528.161	4.9
528.508	4.82
528.854	4.87
529.201	4.74
529.548	4.75
529.895	4.63
530.242	4.55
530.588	4.61
530.935	4.67
531.282	4.68
531.628	4.72
531.975	4.75
532.321	4.78
532.667	4.74
533.014	4.75
533.36	4.84
533.706	4.78
534.052	4.81
534.399	4.78
534.745	4.82
535.091	4.64
535.437	4.73
535.783	4.75
536.129	4.8
536.474	4.79
536.82	4.75
537.166	4.85
537.512	4.77
537.857	4.87
538.203	4.72
538.549	4.68
538.894	4.81
539.239	4.83
539.585	4.85
539.93	4.81
540.276	4.9
540.621	4.86
540.966	4.86
541.311	4.76
541.656	4.72
542.001	4.95
542.346	4.67
542.691	4.67
543.036	4.66
543.381	4.62
543.726	4.66
544.071	4.73
544.415	4.74
544.76	4.71
545.105	4.81
545.449	4.79
545.794	4.81
546.138	4.74
546.483	4.91
546.827	4.85
547.171	4.85
547.516	4.82
547.86	4.8
548.204	4.81
548.548	4.74
548.892	4.75
549.236	4.92
549.58	4.84
549.924	4.9
550.268	5
550.612	4.85
550.956	4.98
551.3	4.85
551.643	4.77
551.987	4.97
552.33	4.78
552.674	4.84
553.017	4.84
553.361	4.83
553.704	4.72
554.048	4.9
554.391	4.85
554.734	4.83
555.077	4.74
555.42	4.71
555.764	4.73
556.107	4.9
556.45	4.9
556.793	4.79
557.135	5.01
557.478	5.03
557.821	4.89
558.164	4.9
558.507	4.81
558.849	4.98
559.192	5.03
559.534	4.99
559.877	5.06
560.219	4.98
560.562	5.11
560.904	4.97
561.246	4.81
561.589	5.04
561.931	4.95
562.273	4.95
562.615	5.11
562.957	4.79
563.299	4.82
563.641	4.98
563.983	4.89
564.325	4.85
564.667	4.89
565.008	4.88
565.35	4.8
565.692	4.84
566.033	4.82
566.375	5
566.716	4.91
567.058	4.85
567.399	4.77
567.741	4.99
568.082	4.78
568.423	4.85
568.764	4.77
569.105	4.79
569.447	4.9
569.788	4.85
570.129	4.82
570.47	4.94
570.811	4.89
571.151	5
571.492	4.92
571.833	4.95
572.174	4.98
572.514	4.82
572.855	4.84
573.195	4.87
573.536	4.85
573.876	4.69
574.217	4.9
574.557	4.81
574.898	4.8
575.238	4.9
575.578	4.8
575.918	4.86
576.258	4.73
576.598	4.81
576.938	4.97
577.278	4.96
577.618	4.88
577.958	5.09
578.298	4.94
578.638	4.81
578.977	4.85
579.317	4.95
579.657	5.05
579.996	4.76
580.336	4.91
580.675	4.8
581.014	5
581.354	4.94
581.693	4.87
582.032	5.02
582.372	5
582.711	4.84
583.05	4.94
583.389	4.91
583.728	5.04
584.067	4.83
584.406	4.7
584.745	4.87
585.083	4.83
585.422	4.9
585.761	4.85
586.1	4.82
586.438	4.77
586.777	5.01
587.115	4.98
587.454	4.85
587.792	5.27
588.13	4.88
588.469	4.93
588.807	4.79
589.145	4.87
589.483	4.86
589.821	4.88
590.159	4.96
590.497	4.79
590.835	4.6
591.173	4.91
591.511	5.03
591.849	4.66
592.187	4.81
592.524	4.94
592.862	5.04
593.2	5.02
593.537	4.97
593.875	5.01
594.212	5.09
594.55	4.95
594.887	4.84
595.224	4.97
595.561	5.08
595.899	4.88
596.236	4.71
596.573	4.98
596.91	4.78
597.247	4.86
597.584	4.82
597.921	4.85
598.258	4.63
598.594	4.77
598.931	5
599.268	4.73
599.604	4.95
599.941	4.99
600.277	4.89
600.614	4.73
600.95	4.87
601.287	4.98
601.623	4.53
601.959	4.74
602.296	4.81
602.632	4.84
602.968	4.8
603.304	4.78
603.64	4.89
603.976	4.94
604.312	5.06
604.648	4.97
604.984	4.79
605.319	4.92
605.655	4.85
605.991	4.75
606.326	4.7
606.662	4.81
606.998	4.94
607.333	4.78
607.668	4.54
608.004	4.99
608.339	4.83
608.674	4.97
609.01	4.88
609.345	4.93
609.68	4.73
610.015	4.95
610.35	5.01
610.685	4.61
611.02	4.85
611.355	4.66
611.689	4.8
612.024	4.69
612.359	4.64
612.694	4.96
613.028	4.72
613.363	4.89
613.697	4.77
614.032	4.91
614.366	4.98
614.7	4.95
615.035	5.13
615.369	5.06
615.703	4.73
616.037	4.81
616.371	4.96
616.705	4.89
617.039	4.83
617.373	5.06
617.707	5.37
618.041	5.07
618.375	5.14
618.709	4.65
619.042	4.77
619.376	5.28
619.71	5.19
620.043	4.74
620.377	4.68
620.71	4.75
621.043	4.9
621.377	4.67
621.71	5.19
622.043	4.95
622.376	4.53
622.709	4.74
623.043	4.59
623.376	4.76
623.709	5.17
624.041	4.7
624.374	4.57
624.707	4.65
625.04	5.12
625.373	5.08
625.705	5.07
626.038	4.67
626.37	4.81
626.703	4.77
627.035	5.11
627.368	4.56
627.7	4.86
628.032	4.75
628.365	4.82
628.697	4.87
629.029	4.98
629.361	4.99
629.693	4.84
630.025	4.86
630.357	4.89
630.689	4.85
631.021	4.79
631.353	5.16
631.684	4.94
632.016	5.18
632.348	4.79
632.679	4.73
633.011	4.97
633.342	4.99
633.674	5.01
634.005	4.7
634.336	5.32
634.668	4.98
634.999	4.73
635.33	4.79
635.661	4.9
635.992	4.91
636.323	5.15
636.654	5.23
636.985	5.1
637.316	4.85
637.647	5.26
637.977	4.8
638.308	4.85
638.639	4.72
638.969	5.12
639.3	4.69
639.63	4.91
639.961	4.82
640.291	5.14
640.622	4.99
640.952	4.93
641.282	5.21
641.612	4.8
641.943	4.68
642.273	5.01
642.603	5.24
642.933	5.09
643.263	4.87
643.592	5.04
643.922	4.92
644.252	5.25
644.582	5.15
644.911	4.96
645.241	4.92
645.571	5.24
645.9	5.05
646.23	5.63
646.559	4.96
646.888	5.16
647.218	5.52
647.547	4.9
647.876	4.74
648.205	4.65
648.534	5.18
648.863	4.8
649.192	5.35
649.521	4.96
649.85	4.66
650.179	4.81
650.508	5.08
650.837	5.29
651.165	5.05
651.494	5.05
651.822	4.87
652.151	4.86
652.479	5.31
652.808	4.77
653.136	4.96
653.465	4.67
653.793	4.91
654.121	4.57
654.449	4.8
654.777	4.99
655.105	5.05
655.433	4.81
655.761	5.31
656.089	5.02
656.417	5.52
656.745	4.74
657.073	4.11
657.4	5.24
657.728	4.59
658.056	5.5
658.383	5.42
658.711	4.88
659.038	5.02
659.365	4.63
659.693	5.29
660.02	5.08
660.347	5.03
660.674	4.86
661.001	5.25
661.329	5.1
661.656	5.25
661.982	5.05
662.309	5.3
662.636	5.2
662.963	5.15
663.29	4.92
663.616	5.17
663.943	4.97
664.27	5.04
664.596	5.04
664.923	5.29
665.249	5.16
665.576	5.31
665.902	5.12
666.228	5.48
666.554	5.11
666.881	4.9
667.207	5.21
667.533	5.03
667.859	4.96
668.185	5.11
668.511	4.61
668.837	5.27
669.162	4.91
669.488	4.77
669.814	5.3
670.139	4.83
670.465	4.83
670.791	4.87
671.116	4.92
671.442	5.41
671.767	4.81
672.092	4.55
672.418	4.78
672.743	4.65
673.068	4.68
673.393	4.56
673.718	4.93
674.043	4.88
674.368	5.28
674.693	5.19
675.018	5.31
675.343	5.44
675.667	5.15
675.992	5.19
676.317	5.41
676.641	4.93
676.966	5.4
677.29	5.14
677.615	5.31
677.939	5.65
678.264	5.17
678.588	4.93
678.912	5.34
679.236	4.97
679.56	4.91
679.885	5.51
680.209	5.16
680.532	4.85
680.856	5.37
681.18	5.29
681.504	4.75
681.828	5.26
682.152	5.43
682.475	5.13
682.799	5.54
683.122	4.95
683.446	5.47
683.769	4.96
684.093	5.1
684.416	5.78
684.739	5.68
685.062	5.09
685.386	5.2
685.709	4.76
686.032	4.89
686.355	5.19
686.678	5.2
687.001	5.31
687.324	6.11
687.646	6.12
687.969	5.1
688.292	4.72
688.614	5.36
688.937	5.58
689.26	5.21
689.582	4.71
689.904	5.41
690.227	5.14
690.549	4.72
690.871	5.87
691.194	5.34
691.516	5
691.838	5.69
692.16	5.51
692.482	5.65
692.804	5.11
693.126	5.81
693.448	5.1
693.769	5.84
