Data from 97281_chest_Reflection__4__50.txt Node

Date: Fri Sep 23 20:05:29 CDT 2022
User: ToomeyLab
Spectrometer: FLMS14357
Trigger mode: 0
Integration Time (sec): 1.000000E-2
Scans to average: 100
Electric dark correction enabled: true
Nonlinearity correction enabled: false
Boxcar width: 0
XAxis mode: Wavelengths
Number of Pixels in Spectrum: 2048
>>>>>Begin Spectral Data<<<<<
189.047	-73.21
189.435	-73.21
189.823	-73.21
190.211	-195.4
190.599	34.16
190.987	520.85
191.375	571.81
191.763	92.41
192.151	-27
192.538	371.52
192.926	41.2
193.314	40.35
193.702	60.07
194.089	-141.4
194.477	83.85
194.864	-48.3
195.252	372.05
195.639	22.23
196.027	28.75
196.414	79.01
196.801	38.05
197.189	119.37
197.576	212.22
197.963	-32.29
198.351	59.42
198.738	-40.84
199.125	-20.27
199.512	-1.44
199.899	54.45
200.286	3.35
200.673	-7.28
201.06	23.08
201.447	53.29
201.833	30.51
202.22	-12.09
202.607	14.72
202.994	33.58
203.38	23.54
203.767	-12.57
204.154	42.35
204.54	19.31
204.927	17.99
205.313	5.21
205.699	8.64
206.086	28.48
206.472	4.81
206.858	36.52
207.245	7.3
207.631	22.13
208.017	11.57
208.403	20.41
208.789	35.41
209.175	19.94
209.561	23.43
209.947	-4.98
210.333	-3.16
210.719	16.66
211.105	14.03
211.491	39.61
211.876	-1.57
212.262	-4.75
212.648	-59.79
213.034	-44.26
213.419	-31.5
213.805	28.22
214.19	18.85
214.576	-8.82
214.961	37.48
215.346	-20.23
215.732	23.03
216.117	21.66
216.502	-0.57
216.888	14.78
217.273	-6.85
217.658	18.34
218.043	14.27
218.428	23.31
218.813	16.86
219.198	1.46
219.583	-4.15
219.968	15.82
220.353	1.96
220.738	18.81
221.122	4.27
221.507	-3.56
221.892	-8.82
222.276	-3.58
222.661	7.65
223.046	0.07
223.43	7.59
223.815	4.84
224.199	-0.07
224.583	14.77
224.968	3.58
225.352	10.12
225.736	1.06
226.121	19.19
226.505	0.13
226.889	6.83
227.273	9.37
227.657	-0.94
228.041	7.04
228.425	6.81
228.809	4.41
229.193	5.96
229.577	7.76
229.961	7.6
230.344	6.2
230.728	4.79
231.112	5.11
231.495	4.41
231.879	2.76
232.263	5.75
232.646	5.75
233.03	5.49
233.413	5.5
233.797	3.76
234.18	7.04
234.563	4.44
234.946	5.35
235.33	5.86
235.713	7.3
236.096	3.1
236.479	4.54
236.862	5
237.245	4.73
237.628	6.06
238.011	6.23
238.394	3.71
238.777	6.3
239.16	5.93
239.543	5.89
239.925	5.04
240.308	5.98
240.691	6.33
241.073	3.84
241.456	5.03
241.838	6.98
242.221	5.79
242.603	5.97
242.986	4.18
243.368	3.98
243.75	4.98
244.133	5.2
244.515	4.74
244.897	4.96
245.279	5.29
245.661	6.42
246.043	5.79
246.425	4.98
246.807	4.76
247.189	5.76
247.571	5.52
247.953	4.68
248.335	5.21
248.717	4.85
249.098	4.71
249.48	4.81
249.862	4.81
250.243	5.11
250.625	5.05
251.006	5.14
251.388	4.83
251.769	4.27
252.151	3.52
252.532	5.54
252.913	5.52
253.295	4.87
253.676	4.76
254.057	5.2
254.438	4.32
254.819	5.15
255.2	5.31
255.581	5.82
255.962	3.77
256.343	5.37
256.724	4.47
257.105	4.26
257.486	3.55
257.867	4.83
258.247	4.77
258.628	4.29
259.009	4.28
259.389	4.99
259.77	4.55
260.15	5.03
260.531	5.19
260.911	4.61
261.292	4.71
261.672	4.58
262.052	4.51
262.432	4.3
262.813	4.78
263.193	4.35
263.573	5.04
263.953	4.13
264.333	4.22
264.713	4.69
265.093	5.39
265.473	4.55
265.853	4.31
266.233	4.66
266.612	4.23
266.992	4.5
267.372	4.78
267.752	4.85
268.131	4.63
268.511	4.68
268.89	4.37
269.27	4.04
269.649	4.25
270.029	4.55
270.408	5.05
270.787	4.87
271.167	4.46
271.546	4.77
271.925	4.83
272.304	4.42
272.683	4.52
273.062	4.19
273.441	4.43
273.82	4.52
274.199	4.11
274.578	4.46
274.957	4.33
275.336	4.58
275.715	4.4
276.093	5.52
276.472	5.03
276.851	4.53
277.229	4.31
277.608	4.72
277.986	4.36
278.365	4.27
278.743	4.68
279.122	4.2
279.5	4.39
279.878	4.48
280.257	4.68
280.635	4.12
281.013	4.72
281.391	4.59
281.769	4.72
282.147	5
282.525	4.5
282.903	4.24
283.281	4.6
283.659	4.61
284.037	4.49
284.415	4.6
284.792	4.57
285.17	4.29
285.548	4.45
285.925	4.15
286.303	5.14
286.68	4.42
287.058	4.5
287.435	4.2
287.813	4.77
288.19	4.21
288.567	4.25
288.945	4.55
289.322	4.56
289.699	4.72
290.076	3.8
290.453	4.47
290.83	4.35
291.207	4.27
291.584	4.58
291.961	4.6
292.338	4.47
292.715	4.12
293.092	4.16
293.469	4.69
293.845	4.57
294.222	4.48
294.599	3.75
294.975	4.82
295.352	4.52
295.728	4.58
296.105	4.24
296.481	4.18
296.858	4.12
297.234	4.29
297.61	4.2
297.986	4.44
298.363	4.5
298.739	4.38
299.115	4.39
299.491	4.06
299.867	4.19
300.243	4.48
300.619	4.61
300.995	4.73
301.371	3.96
301.746	4.97
302.122	4.35
302.498	4.46
302.874	4.48
303.249	4.87
303.625	4.41
304	4.54
304.376	4.09
304.751	4.13
305.127	4.22
305.502	5.23
305.878	4.55
306.253	5
306.628	4.49
307.003	4.31
307.378	4.51
307.754	4.97
308.129	4.18
308.504	4.48
308.879	5.07
309.254	5.11
309.629	4.83
310.003	5.04
310.378	4.43
310.753	4.44
311.128	4.04
311.502	3.89
311.877	4.06
312.252	3.93
312.626	4.45
313.001	4.41
313.375	4.44
313.75	4.6
314.124	4.26
314.498	4.69
314.873	5.16
315.247	4.59
315.621	4.63
315.995	4.36
316.369	4.82
316.743	3.72
317.117	4.08
317.491	4.28
317.865	4.53
318.239	4.81
318.613	4.23
318.987	3.92
319.361	4.08
319.734	4.54
320.108	3.71
320.482	4.54
320.855	4.49
321.229	4.62
321.602	4.43
321.976	5.26
322.349	4.63
322.723	5.07
323.096	4.42
323.469	3.9
323.843	3.7
324.216	4.69
324.589	4.9
324.962	4.7
325.335	4.26
325.708	4.5
326.081	4.42
326.454	4.21
326.827	4.12
327.2	3.92
327.573	4.39
327.945	5
328.318	3.98
328.691	4.18
329.063	4.35
329.436	4.43
329.809	4.97
330.181	4.25
330.553	3.82
330.926	4.14
331.298	4.11
331.671	4.93
332.043	4.78
332.415	4.22
332.787	3.93
333.159	4.47
333.532	3.87
333.904	3.81
334.276	4.04
334.648	4.11
335.02	4.63
335.391	4.4
335.763	4.42
336.135	4.8
336.507	4.86
336.879	4.37
337.25	4.66
337.622	4.62
337.993	4.24
338.365	4.36
338.736	4.91
339.108	4.84
339.479	4.22
339.851	4.62
340.222	4.75
340.593	4.28
340.964	4.66
341.336	4.37
341.707	5.04
342.078	4.41
342.449	4.2
342.82	4.17
343.191	4.51
343.562	4.22
343.933	4.77
344.303	4.4
344.674	4.66
345.045	4.72
345.416	4.19
345.786	4.87
346.157	3.83
346.527	4.03
346.898	4.51
347.268	4.57
347.639	4.7
348.009	4.21
348.38	4.2
348.75	4.7
349.12	4.38
349.49	4.39
349.861	4.61
350.231	4.13
350.601	4.5
350.971	4.92
351.341	4.17
351.711	4.34
352.081	4.24
352.45	4.19
352.82	4.01
353.19	4.96
353.56	4.38
353.929	4.1
354.299	4.34
354.669	4.31
355.038	4.34
355.408	4
355.777	4.15
356.147	4.47
356.516	4.65
356.885	4.67
357.254	4.3
357.624	4.32
357.993	4.33
358.362	4.41
358.731	4.32
359.1	4.29
359.469	4.25
359.838	4.01
360.207	4.63
360.576	4.27
360.945	4.19
361.314	4.1
361.682	4.01
362.051	4.66
362.42	4.68
362.788	4.46
363.157	4.51
363.525	4.49
363.894	4.45
364.262	4.13
364.631	4.33
364.999	4.43
365.367	4.13
365.735	4.22
366.104	4.72
366.472	4.56
366.84	4.54
367.208	4.52
367.576	4.54
367.944	4.46
368.312	4.52
368.68	4.08
369.048	4.28
369.416	4.4
369.783	4.4
370.151	4.33
370.519	4.46
370.886	4.39
371.254	4.71
371.621	4.69
371.989	4.51
372.356	4.89
372.724	4.16
373.091	4.35
373.458	4.4
373.826	4.22
374.193	4.47
374.56	4.59
374.927	4.5
375.294	4.73
375.661	4.27
376.028	4.43
376.395	4.48
376.762	4.53
377.129	4.13
377.496	4.6
377.863	4.35
378.229	4.25
378.596	4.49
378.963	4.63
379.329	4.68
379.696	4.45
380.062	4.32
380.429	4.23
380.795	4.32
381.161	4.77
381.528	4.68
381.894	4.29
382.26	4.32
382.626	4.49
382.993	4.63
383.359	4.43
383.725	4.72
384.091	4.52
384.457	4.42
384.823	4.32
385.188	4.78
385.554	4.55
385.92	4.65
386.286	4.41
386.651	4.6
387.017	4.69
387.383	4.76
387.748	4.68
388.114	4.64
388.479	4.52
388.845	4.33
389.21	4.55
389.575	4.66
389.94	4.26
390.306	4.46
390.671	4.55
391.036	4.63
391.401	4.69
391.766	4.39
392.131	4.45
392.496	4.62
392.861	4.68
393.226	4.56
393.591	4.55
393.956	4.62
394.32	4.61
394.685	4.46
395.05	4.58
395.414	4.53
395.779	4.14
396.143	4.49
396.508	4.63
396.872	4.64
397.236	4.71
397.601	4.55
397.965	4.88
398.329	4.65
398.694	4.19
399.058	4.63
399.422	4.71
399.786	4.88
400.15	4.48
400.514	4.47
400.878	4.62
401.242	4.68
401.605	4.8
401.969	4.94
402.333	4.4
402.697	4.36
403.06	4.61
403.424	4.54
403.787	4.81
404.151	4.78
404.514	4.53
404.878	4.67
405.241	4.55
405.604	4.75
405.968	4.53
406.331	4.66
406.694	4.78
407.057	4.64
407.42	4.9
407.783	4.54
408.146	4.49
408.509	4.75
408.872	4.6
409.235	4.62
409.598	4.85
409.961	4.59
410.323	4.6
410.686	4.59
411.049	4.77
411.411	4.56
411.774	4.59
412.136	4.55
412.499	4.49
412.861	4.47
413.223	4.54
413.586	4.67
413.948	4.53
414.31	4.47
414.672	4.75
415.035	4.68
415.397	4.72
415.759	4.91
416.121	4.82
416.483	4.85
416.845	4.58
417.206	4.57
417.568	4.62
417.93	4.62
418.292	4.64
418.653	4.58
419.015	4.58
419.377	4.7
419.738	4.67
420.1	4.65
420.461	4.67
420.822	4.86
421.184	4.58
421.545	4.77
421.906	4.7
422.267	4.67
422.629	4.51
422.99	4.6
423.351	4.6
423.712	4.68
424.073	4.61
424.434	4.61
424.795	4.67
425.155	4.65
425.516	4.55
425.877	4.64
426.238	4.62
426.598	4.61
426.959	4.68
427.32	4.54
427.68	4.75
428.041	4.74
428.401	4.79
428.761	4.83
429.122	4.89
429.482	4.69
429.842	5.02
430.202	4.79
430.563	4.85
430.923	4.99
431.283	4.87
431.643	4.71
432.003	4.8
432.363	5
432.722	4.83
433.082	4.76
433.442	4.77
433.802	4.86
434.161	4.62
434.521	4.88
434.881	4.63
435.24	4.72
435.6	4.76
435.959	4.82
436.319	4.75
436.678	4.76
437.037	4.95
437.396	4.94
437.756	4.8
438.115	4.84
438.474	4.91
438.833	4.91
439.192	5.11
439.551	4.98
439.91	4.86
440.269	5.04
440.628	4.72
440.987	4.79
441.345	4.83
441.704	4.9
442.063	4.91
442.421	4.66
442.78	4.79
443.138	4.85
443.497	4.91
443.855	4.83
444.214	4.8
444.572	4.84
444.93	4.7
445.288	4.98
445.647	5.03
446.005	4.92
446.363	4.96
446.721	4.84
447.079	4.89
447.437	4.92
447.795	4.85
448.153	4.68
448.51	4.76
448.868	4.85
449.226	4.93
449.584	4.78
449.941	4.82
450.299	4.96
450.656	4.87
451.014	5
451.371	4.73
451.729	4.98
452.086	5.17
452.443	5.04
452.801	5.01
453.158	4.92
453.515	5
453.872	4.88
454.229	5.07
454.586	5
454.943	5.11
455.3	4.88
455.657	5.13
456.014	5.21
456.371	5
456.727	5.08
457.084	5
457.441	5.11
457.797	4.91
458.154	5.1
458.51	5.05
458.867	5.13
459.223	5.14
459.58	4.96
459.936	5.14
460.292	4.87
460.648	4.92
461.005	5.05
461.361	4.93
461.717	4.96
462.073	5
462.429	4.92
462.785	4.98
463.141	5.1
463.496	5.03
463.852	5.12
464.208	4.92
464.564	5.24
464.919	5.23
465.275	5.25
465.631	5.13
465.986	4.86
466.342	5.16
466.697	5
467.052	5.13
467.408	5.15
467.763	5.26
468.118	5.18
468.473	5.14
468.829	5.18
469.184	5.06
469.539	5.12
469.894	5.23
470.249	5.14
470.603	5.19
470.958	5.2
471.313	5.23
471.668	5.39
472.023	5.12
472.377	5.12
472.732	5.12
473.086	5.17
473.441	5.11
473.795	5.23
474.15	5.28
474.504	5.26
474.859	5.36
475.213	5.34
475.567	5.08
475.921	5.36
476.275	5.12
476.63	5.24
476.984	5.45
477.338	5.25
477.692	5.28
478.045	5.11
478.399	5.34
478.753	5.28
479.107	5.26
479.461	5.25
479.814	5.16
480.168	5.16
480.521	5.21
480.875	5.4
481.228	5.37
481.582	5.33
481.935	5.33
482.289	5.23
482.642	5.2
482.995	5.43
483.348	5.22
483.701	5.21
484.055	5.25
484.408	5.26
484.761	5.14
485.114	5
485.466	4.96
485.819	4.96
486.172	5.01
486.525	5.06
486.878	5.07
487.23	5.07
487.583	5.17
487.936	5.2
488.288	5.16
488.641	5.13
488.993	5.11
489.345	5.12
489.698	5.07
490.05	5.17
490.402	5.16
490.754	5.2
491.107	5.31
491.459	5.18
491.811	5.32
492.163	5.41
492.515	5.33
492.866	5.23
493.218	5.16
493.57	5.15
493.922	5.23
494.274	5.29
494.625	5.29
494.977	5.34
495.328	5.47
495.68	5.4
496.031	5.42
496.383	5.54
496.734	5.46
497.086	5.61
497.437	5.6
497.788	5.54
498.139	5.56
498.49	5.45
498.842	5.5
499.193	5.52
499.544	5.48
499.894	5.49
500.245	5.49
500.596	5.57
500.947	5.51
501.298	5.57
501.648	5.64
501.999	5.6
502.35	5.72
502.7	5.69
503.051	5.45
503.401	5.57
503.752	5.57
504.102	5.74
504.452	5.62
504.803	5.67
505.153	5.76
505.503	5.63
505.853	5.82
506.203	5.66
506.553	5.82
506.903	5.62
507.253	5.73
507.603	5.67
507.953	5.65
508.303	5.77
508.652	5.7
509.002	5.81
509.352	5.84
509.701	5.82
510.051	5.76
510.4	5.76
510.75	5.7
511.099	5.84
511.449	5.62
511.798	5.78
512.147	5.82
512.496	5.71
512.846	5.72
513.195	5.76
513.544	5.86
513.893	5.79
514.242	5.74
514.591	5.73
514.939	5.84
515.288	5.79
515.637	5.88
515.986	5.78
516.334	5.75
516.683	5.92
517.032	5.97
517.38	5.95
517.729	6.02
518.077	5.85
518.426	5.94
518.774	5.93
519.122	5.89
519.47	5.88
519.819	5.98
520.167	5.91
520.515	5.82
520.863	5.98
521.211	5.87
521.559	5.9
521.907	5.99
522.255	6
522.602	6
522.95	6.08
523.298	6.07
523.645	6.04
523.993	6.02
524.341	6.19
524.688	6.04
525.036	6.19
525.383	6.1
525.73	6.15
526.078	6.23
526.425	6.17
526.772	6.06
527.119	5.97
527.466	6
527.814	6.04
528.161	6.15
528.508	6.15
528.854	6.11
529.201	6.05
529.548	6.08
529.895	6.04
530.242	5.92
530.588	5.91
530.935	5.98
531.282	6.03
531.628	6.01
531.975	6.08
532.321	6.12
532.667	6.21
533.014	6.14
533.36	6.25
533.706	6.23
534.052	6.22
534.399	6.24
534.745	6.22
535.091	6.17
535.437	6.27
535.783	6.31
536.129	6.27
536.474	6.27
536.82	6.37
537.166	6.54
537.512	6.43
537.857	6.39
538.203	6.37
538.549	6.34
538.894	6.38
539.239	6.48
539.585	6.56
539.93	6.58
540.276	6.65
540.621	6.59
540.966	6.77
541.311	6.59
541.656	6.64
542.001	6.64
542.346	6.61
542.691	6.44
543.036	6.45
543.381	6.41
543.726	6.46
544.071	6.57
544.415	6.59
544.76	6.59
545.105	6.65
545.449	6.69
545.794	6.72
546.138	6.78
546.483	6.79
546.827	6.82
547.171	6.94
547.516	6.97
547.86	6.84
548.204	6.88
548.548	6.8
548.892	6.85
549.236	7.02
549.58	6.99
549.924	7.11
550.268	7.14
550.612	6.98
550.956	7.16
551.3	7.25
551.643	7
551.987	7.28
552.33	7.26
552.674	7.19
553.017	7.49
553.361	7.08
553.704	7.2
554.048	7.28
554.391	7.31
554.734	7.33
555.077	7.22
555.42	7.31
555.764	7.26
556.107	7.43
556.45	7.44
556.793	7.3
557.135	7.45
557.478	7.56
557.821	7.5
558.164	7.5
558.507	7.48
558.849	7.52
559.192	7.59
559.534	7.67
559.877	7.64
560.219	7.45
560.562	7.69
560.904	7.72
561.246	7.61
561.589	7.79
561.931	7.93
562.273	7.88
562.615	7.82
562.957	7.78
563.299	7.74
563.641	7.92
563.983	7.81
564.325	7.79
564.667	7.84
565.008	7.97
565.35	7.98
565.692	7.8
566.033	7.88
566.375	7.93
566.716	8.04
567.058	7.9
567.399	7.94
567.741	8.1
568.082	8.02
568.423	8
568.764	8.08
569.105	8.07
569.447	8.05
569.788	8.18
570.129	8.15
570.47	8.07
570.811	8.38
571.151	8.42
571.492	8.16
571.833	8.42
572.174	8.13
572.514	8.19
572.855	8.31
573.195	8.24
573.536	8.5
573.876	8.25
574.217	8.24
574.557	8.36
574.898	8.44
575.238	8.33
575.578	8.4
575.918	8.36
576.258	8.52
576.598	8.55
576.938	8.63
577.278	8.65
577.618	8.47
577.958	8.84
578.298	8.71
578.638	8.64
578.977	8.77
579.317	8.98
579.657	9.01
579.996	8.73
580.336	9.01
580.675	8.88
581.014	8.99
581.354	9.16
581.693	9
582.032	9.14
582.372	9.08
582.711	9.14
583.05	9.29
583.389	9.39
583.728	9.27
584.067	9.17
584.406	9.08
584.745	9.15
585.083	9.31
585.422	9.2
585.761	9.27
586.1	9.35
586.438	9.29
586.777	9.42
587.115	9.28
587.454	9.66
587.792	9.63
588.13	9.46
588.469	9.6
588.807	9.45
589.145	9.55
589.483	9.44
589.821	9.74
590.159	9.66
590.497	9.68
590.835	9.47
591.173	9.66
591.511	9.68
591.849	9.55
592.187	9.87
592.524	10.23
592.862	10.05
593.2	9.91
593.537	9.94
593.875	10.06
594.212	10.24
594.55	9.91
594.887	9.88
595.224	9.93
595.561	9.96
595.899	9.63
596.236	9.96
596.573	10.32
596.91	10.14
597.247	10.29
597.584	10.13
597.921	9.87
598.258	10.03
598.594	10.03
598.931	10.1
599.268	10.19
599.604	10.29
599.941	10.48
600.277	10.61
600.614	10.27
600.95	10.47
601.287	10.32
601.623	10.49
601.959	10.61
602.296	10.56
602.632	10.65
602.968	10.24
603.304	10.63
603.64	10.8
603.976	10.8
604.312	10.91
604.648	10.82
604.984	10.5
605.319	10.98
605.655	10.81
605.991	10.71
606.326	10.74
606.662	10.78
606.998	10.81
607.333	10.89
607.668	10.72
608.004	10.84
608.339	11.14
608.674	11.28
609.01	11.1
609.345	11.05
609.68	11.06
610.015	11.23
610.35	11.05
610.685	11.04
611.02	11.17
611.355	11.17
611.689	11.35
612.024	11.15
612.359	11.28
612.694	11.49
613.028	11.26
613.363	11.5
613.697	11.48
614.032	11.59
614.366	11.48
614.7	11.72
615.035	11.81
615.369	11.55
615.703	11.84
616.037	11.65
616.371	11.89
616.705	11.91
617.039	11.61
617.373	11.95
617.707	12.09
618.041	11.58
618.375	12.22
618.709	11.75
619.042	11.99
619.376	12.27
619.71	12.07
620.043	11.88
620.377	11.82
620.71	11.94
621.043	12.05
621.377	11.76
621.71	12.18
622.043	12.21
622.376	12
622.709	12.08
623.043	12.22
623.376	12.31
623.709	12.36
624.041	12.42
624.374	12.32
624.707	12.29
625.04	12.65
625.373	12.54
625.705	12.62
626.038	12.26
626.37	12.58
626.703	12.77
627.035	12.74
627.368	12.72
627.7	12.58
628.032	12.86
628.365	12.46
628.697	12.75
629.029	12.94
629.361	12.93
629.693	12.77
630.025	12.76
630.357	13.05
630.689	13.12
631.021	12.84
631.353	13.42
631.684	12.91
632.016	12.98
632.348	12.88
632.679	13.37
633.011	13.39
633.342	13.27
633.674	13.42
634.005	12.95
634.336	13.51
634.668	13.6
634.999	13.48
635.33	13.46
635.661	13.47
635.992	13.56
636.323	13.48
636.654	13.68
636.985	13.44
637.316	13.58
637.647	13.47
637.977	13.51
638.308	13.52
638.639	13.62
638.969	13.58
639.3	13.48
639.63	13.14
639.961	13.91
640.291	13.89
640.622	13.93
640.952	13.77
641.282	14.12
641.612	14.12
641.943	14.15
642.273	14
642.603	14.1
642.933	14.04
643.263	14.04
643.592	14.49
643.922	14.43
644.252	14.39
644.582	14.71
644.911	14.26
645.241	14.29
645.571	14.63
645.9	14.28
646.23	14.9
646.559	14.33
646.888	14.51
647.218	14.71
647.547	14.37
647.876	14.58
648.205	14.75
648.534	14.59
648.863	14.47
649.192	15.08
649.521	14.56
649.85	14.49
650.179	14.52
650.508	14.86
650.837	15.27
651.165	14.85
651.494	14.83
651.822	14.58
652.151	14.84
652.479	14.85
652.808	14.89
653.136	15.17
653.465	14.86
653.793	15.07
654.121	14.81
654.449	15.09
654.777	14.75
655.105	15.14
655.433	15.16
655.761	15.18
656.089	15.34
656.417	15.19
656.745	15.78
657.073	14.57
657.4	15.47
657.728	15.37
658.056	15.92
658.383	15.34
658.711	15.29
659.038	15.43
659.365	15.52
659.693	15.93
660.02	16.08
660.347	15.37
660.674	15.01
661.001	15.83
661.329	15.7
661.656	15.93
661.982	15.9
662.309	15.95
662.636	15.93
662.963	15.87
663.29	16.07
663.616	16.06
663.943	15.93
664.27	15.82
664.596	16.14
664.923	16.36
665.249	16.23
665.576	15.92
665.902	16.23
666.228	16.67
666.554	16.6
666.881	15.68
667.207	16.13
667.533	16.22
667.859	16.43
668.185	16.42
668.511	16.1
668.837	17.08
669.162	16.77
669.488	16.23
669.814	16.65
670.139	16.6
670.465	16.76
670.791	16.55
671.116	16.42
671.442	16.47
671.767	16.06
672.092	16.57
672.418	17.09
672.743	17.24
673.068	16.5
673.393	16.71
673.718	16.69
674.043	17.45
674.368	17.37
674.693	16.67
675.018	16.84
675.343	17.27
675.667	16.99
675.992	17.1
676.317	17.26
676.641	16.44
676.966	17.75
677.29	17.49
677.615	17.36
677.939	17.29
678.264	17.22
678.588	16.86
678.912	17.82
679.236	17.24
679.56	17
679.885	17.29
680.209	17.49
680.532	17.67
680.856	17.89
681.18	17.81
681.504	17.76
681.828	18.05
682.152	18.24
682.475	17.4
682.799	17.77
683.122	17.3
683.446	18.21
683.769	17.61
684.093	17.89
684.416	17.93
684.739	17.63
685.062	18.17
685.386	17.85
685.709	18.18
686.032	17.88
686.355	17.97
686.678	18.04
687.001	17.96
