Data from 97281_forehead_Reflection__2__53.txt Node

Date: Fri Sep 23 20:06:51 CDT 2022
User: ToomeyLab
Spectrometer: FLMS14357
Trigger mode: 0
Integration Time (sec): 1.000000E-2
Scans to average: 100
Electric dark correction enabled: true
Nonlinearity correction enabled: false
Boxcar width: 0
XAxis mode: Wavelengths
Number of Pixels in Spectrum: 2048
>>>>>Begin Spectral Data<<<<<
189.047	44.18
189.435	44.18
189.823	44.18
190.211	-65.75
190.599	72.29
190.987	226.38
191.375	248.77
191.763	71.13
192.151	21.15
192.538	196.96
192.926	161.3
193.314	135.43
193.702	10
194.089	-43.48
194.477	101.76
194.864	151.81
195.252	236.39
195.639	-23.09
196.027	109.93
196.414	47.06
196.801	64.73
197.189	-124.17
197.576	-27.89
197.963	-79.51
198.351	43.66
198.738	-57.37
199.125	32.94
199.512	32.19
199.899	26.9
200.286	-98.46
200.673	0.74
201.06	31.94
201.447	45.97
201.833	8.38
202.22	35.53
202.607	22.64
202.994	-21.43
203.38	-22.26
203.767	-41.77
204.154	22.82
204.54	25.84
204.927	22.49
205.313	65.67
205.699	-32.35
206.086	8.85
206.472	21.64
206.858	28.05
207.245	9.15
207.631	35.97
208.017	3.73
208.403	8.72
208.789	17.93
209.175	27.6
209.561	18.9
209.947	-24.97
210.333	-0.94
210.719	2.86
211.105	11.35
211.491	11.41
211.876	21.05
212.262	-19.14
212.648	-17.57
213.034	-75.14
213.419	-8.9
213.805	27.96
214.19	13.01
214.576	-14.14
214.961	26.91
215.346	-20.85
215.732	24.39
216.117	8.35
216.502	29.82
216.888	30.01
217.273	19.81
217.658	-23.88
218.043	10.31
218.428	-7.11
218.813	22.97
219.198	6.09
219.583	10.88
219.968	8.24
220.353	17.7
220.738	-0.41
221.122	4.01
221.507	-4.69
221.892	-6.04
222.276	-10.84
222.661	-0.2
223.046	-3.91
223.43	2.61
223.815	9.96
224.199	4.91
224.583	-6.74
224.968	-2.2
225.352	6.26
225.736	9.27
226.121	10.39
226.505	-2.45
226.889	7.32
227.273	2.49
227.657	2.43
228.041	3.65
228.425	6.27
228.809	0.74
229.193	2.31
229.577	4.05
229.961	2.92
230.344	1.95
230.728	1.63
231.112	1.17
231.495	1.26
231.879	-1.02
232.263	1.63
232.646	4.15
233.03	2.06
233.413	2.59
233.797	2.43
234.18	2.32
234.563	0.68
234.946	2.52
235.33	2.31
235.713	3.24
236.096	-0.24
236.479	-0.65
236.862	2.12
237.245	4.08
237.628	1.54
238.011	4.93
238.394	1.71
238.777	2.92
239.16	2.52
239.543	0.86
239.925	2.38
240.308	4.69
240.691	1.67
241.073	-0.12
241.456	1.63
241.838	3.89
242.221	2.9
242.603	2.58
242.986	1.92
243.368	1.88
243.75	2.6
244.133	2.12
244.515	1.97
244.897	2.52
245.279	2.26
245.661	2.78
246.043	2.89
246.425	2.82
246.807	1.81
247.189	2.83
247.571	2.5
247.953	2.42
248.335	2.39
248.717	2.13
249.098	1.93
249.48	2.13
249.862	2.29
250.243	2.32
250.625	1.82
251.006	2.54
251.388	1.22
251.769	2.69
252.151	2.29
252.532	1.78
252.913	2.78
253.295	2.65
253.676	2.74
254.057	2.43
254.438	2.04
254.819	3.38
255.2	2.52
255.581	3.81
255.962	1.23
256.343	2.86
256.724	1.89
257.105	2.13
257.486	1.54
257.867	2.4
258.247	3.89
258.628	1.68
259.009	2.6
259.389	1.57
259.77	1.98
260.15	2.36
260.531	2.35
260.911	1.97
261.292	2.15
261.672	2.03
262.052	2.02
262.432	2.09
262.813	2.28
263.193	1.68
263.573	2.29
263.953	1.94
264.333	2.14
264.713	2.85
265.093	2.52
265.473	2.18
265.853	1.83
266.233	1.66
266.612	2.39
266.992	2.83
267.372	1.97
267.752	2.51
268.131	3.06
268.511	2.07
268.89	1.88
269.27	2.13
269.649	2.38
270.029	1.86
270.408	2.67
270.787	2.64
271.167	1.45
271.546	1.91
271.925	1.74
272.304	2.23
272.683	2.11
273.062	1.95
273.441	2.31
273.82	2.32
274.199	2.14
274.578	1.76
274.957	1.77
275.336	1.95
275.715	1.73
276.093	2.84
276.472	3.02
276.851	2.27
277.229	2.33
277.608	1.9
277.986	1.7
278.365	2.16
278.743	2.8
279.122	2.13
279.5	1.85
279.878	1.93
280.257	2.45
280.635	1.97
281.013	1.85
281.391	1.8
281.769	2.04
282.147	2.58
282.525	1.68
282.903	2.03
283.281	2.1
283.659	1.88
284.037	2.04
284.415	1.71
284.792	1.77
285.17	2.47
285.548	1.71
285.925	2.35
286.303	2.59
286.68	2.18
287.058	2.23
287.435	2.23
287.813	2.43
288.19	2.09
288.567	2.15
288.945	2.48
289.322	2.51
289.699	2.5
290.076	2.28
290.453	2.07
290.83	2.56
291.207	2.05
291.584	2.8
291.961	2.26
292.338	2.27
292.715	2.24
293.092	2.09
293.469	2.54
293.845	2.63
294.222	2.35
294.599	2.18
294.975	2.46
295.352	2.53
295.728	2.4
296.105	2.24
296.481	2.36
296.858	2.51
297.234	2.58
297.61	2.25
297.986	2.45
298.363	2.33
298.739	2.91
299.115	2.48
299.491	2.78
299.867	2.78
300.243	2.71
300.619	3.17
300.995	2.91
301.371	2.29
301.746	3.35
302.122	3.1
302.498	2.83
302.874	2.53
303.249	2.98
303.625	2.76
304	2.97
304.376	3.29
304.751	2.4
305.127	3.11
305.502	3.42
305.878	3.15
306.253	3.38
306.628	2.78
307.003	2.56
307.378	3.24
307.754	3.69
308.129	3.01
308.504	3.18
308.879	3.42
309.254	2.69
309.629	3.53
310.003	3.95
310.378	3.28
310.753	3.54
311.128	2.91
311.502	3.62
311.877	3.25
312.252	3.5
312.626	3.39
313.001	3.54
313.375	3.7
313.75	3.63
314.124	3.55
314.498	3.7
314.873	3.88
315.247	3.88
315.621	3.76
315.995	4.37
316.369	3.66
316.743	3.43
317.117	3.62
317.491	3.48
317.865	3.99
318.239	4.41
318.613	4.05
318.987	3.98
319.361	3.89
319.734	3.63
320.108	4.06
320.482	4.05
320.855	3.92
321.229	4.5
321.602	3.65
321.976	4.71
322.349	4.59
322.723	4.47
323.096	4.75
323.469	4.38
323.843	3.81
324.216	4.61
324.589	4.57
324.962	4.14
325.335	4.3
325.708	4.57
326.081	4.45
326.454	4.68
326.827	4.3
327.2	4.81
327.573	5.03
327.945	5.01
328.318	4.42
328.691	4.66
329.063	4.55
329.436	4.62
329.809	5.44
330.181	4.74
330.553	4.17
330.926	5.07
331.298	4.89
331.671	4.91
332.043	5.07
332.415	5.09
332.787	4.67
333.159	5.17
333.532	4.68
333.904	4.69
334.276	4.91
334.648	5.04
335.02	5.06
335.391	5.17
335.763	4.87
336.135	5.32
336.507	5.14
336.879	4.68
337.25	5.53
337.622	5.72
337.993	5.49
338.365	5.52
338.736	5.68
339.108	5.92
339.479	5.25
339.851	5.54
340.222	5.59
340.593	5.19
340.964	5.72
341.336	5.59
341.707	6.39
342.078	5.28
342.449	5.55
342.82	5.41
343.191	5.57
343.562	5.44
343.933	6.29
344.303	5.51
344.674	6.17
345.045	6.28
345.416	6.22
345.786	6.05
346.157	5.66
346.527	5.83
346.898	6.13
347.268	6.11
347.639	5.88
348.009	6.12
348.38	5.91
348.75	6.03
349.12	5.75
349.49	6.02
349.861	6.24
350.231	6.02
350.601	5.97
350.971	6.45
351.341	6.03
351.711	6.3
352.081	6.06
352.45	6.13
352.82	6.45
353.19	6.54
353.56	6.47
353.929	6.09
354.299	6.11
354.669	6.35
355.038	6.7
355.408	6.15
355.777	6.76
356.147	6.58
356.516	6.67
356.885	6.36
357.254	6.27
357.624	6.32
357.993	6.92
358.362	6.61
358.731	6.71
359.1	6.78
359.469	6.8
359.838	6.56
360.207	6.69
360.576	6.97
360.945	6.41
361.314	6.29
361.682	6.79
362.051	7.11
362.42	7.02
362.788	6.79
363.157	7.07
363.525	7.07
363.894	7.01
364.262	6.99
364.631	7.16
364.999	7.41
365.367	6.96
365.735	7.2
366.104	7.22
366.472	7.3
366.84	7.19
367.208	7.67
367.576	7.68
367.944	7.26
368.312	7.67
368.68	7.55
369.048	7.31
369.416	7.57
369.783	7.15
370.151	7.71
370.519	7.76
370.886	7.65
371.254	7.9
371.621	7.88
371.989	7.91
372.356	8.09
372.724	7.71
373.091	7.91
373.458	7.66
373.826	7.7
374.193	7.98
374.56	8.28
374.927	8.17
375.294	7.91
375.661	7.8
376.028	7.8
376.395	8.02
376.762	7.96
377.129	7.78
377.496	8.36
377.863	8.31
378.229	8.03
378.596	7.69
378.963	8.07
379.329	8.53
379.696	8.23
380.062	8.43
380.429	8.44
380.795	8.35
381.161	8.76
381.528	8.63
381.894	8.57
382.26	8.43
382.626	8.4
382.993	8.65
383.359	8.76
383.725	8.69
384.091	8.77
384.457	8.73
384.823	8.8
385.188	8.86
385.554	8.85
385.92	8.93
386.286	8.98
386.651	9.14
387.017	9.1
387.383	9.06
387.748	9.03
388.114	9.06
388.479	8.97
388.845	9.18
389.21	8.89
389.575	9.05
389.94	9.12
390.306	9.13
390.671	9.2
391.036	9.21
391.401	9.43
391.766	9.37
392.131	9.33
392.496	9.22
392.861	9.38
393.226	9.29
393.591	9.33
393.956	9.52
394.32	9.43
394.685	9.45
395.05	9.54
395.414	9.52
395.779	9.47
396.143	9.51
396.508	9.61
396.872	9.6
397.236	9.82
397.601	9.67
397.965	9.9
398.329	9.9
398.694	9.79
399.058	9.66
399.422	10.04
399.786	10.26
400.15	9.98
400.514	10
400.878	10.16
401.242	10
401.605	10.2
401.969	9.97
402.333	9.94
402.697	10
403.06	10.19
403.424	10.05
403.787	10.14
404.151	10.15
404.514	10.13
404.878	10.32
405.241	10.38
405.604	10.08
405.968	10.37
406.331	10.48
406.694	10.49
407.057	10.3
407.42	10.54
407.783	10.39
408.146	10.54
408.509	10.31
408.872	10.6
409.235	10.45
409.598	10.6
409.961	10.82
410.323	10.65
410.686	10.93
411.049	10.69
411.411	10.85
411.774	10.62
412.136	10.7
412.499	10.7
412.861	10.75
413.223	10.87
413.586	10.78
413.948	10.8
414.31	10.9
414.672	11.09
415.035	11.04
415.397	11.32
415.759	11.28
416.121	11.35
416.483	11.09
416.845	10.74
417.206	11.01
417.568	11.01
417.93	11.08
418.292	11.32
418.653	11.03
419.015	11.11
419.377	11.07
419.738	11.13
420.1	11.3
420.461	11.21
420.822	11.22
421.184	11.2
421.545	11.28
421.906	11.18
422.267	11.14
422.629	11.06
422.99	11.19
423.351	11.35
423.712	11.3
424.073	11.36
424.434	11.47
424.795	11.51
425.155	11.48
425.516	11.53
425.877	11.47
426.238	11.63
426.598	11.58
426.959	11.75
427.32	11.73
427.68	11.7
428.041	11.83
428.401	11.9
428.761	11.9
429.122	11.98
429.482	12.12
429.842	12.24
430.202	12.25
430.563	12.07
430.923	12.18
431.283	12.26
431.643	12.23
432.003	12.25
432.363	12.66
432.722	12.46
433.082	12.47
433.442	12.23
433.802	12.5
434.161	12.49
434.521	12.54
434.881	12.54
435.24	12.51
435.6	12.36
435.959	12.57
436.319	12.54
436.678	12.59
437.037	12.88
437.396	12.75
437.756	12.68
438.115	12.71
438.474	12.88
438.833	12.83
439.192	12.88
439.551	12.94
439.91	12.84
440.269	12.92
440.628	12.98
440.987	12.97
441.345	12.93
441.704	12.82
442.063	13.03
442.421	12.92
442.78	12.99
443.138	13.12
443.497	13.14
443.855	13.22
444.214	13.36
444.572	13.26
444.93	13.36
445.288	13.38
445.647	13.53
446.005	13.5
446.363	13.34
446.721	13.4
447.079	13.41
447.437	13.43
447.795	13.38
448.153	13.27
448.51	13.34
448.868	13.48
449.226	13.56
449.584	13.59
449.941	13.69
450.299	13.78
450.656	13.65
451.014	13.85
451.371	13.85
451.729	13.87
452.086	14.13
452.443	14.05
452.801	14.06
453.158	14.13
453.515	14.05
453.872	14
454.229	14.28
454.586	14.14
454.943	14.21
455.3	14.19
455.657	14.32
456.014	14.48
456.371	14.26
456.727	14.38
457.084	14.28
457.441	14.52
457.797	14.36
458.154	14.57
458.51	14.5
458.867	14.62
459.223	14.65
459.58	14.56
459.936	14.49
460.292	14.59
460.648	14.58
461.005	14.57
461.361	14.43
461.717	14.54
462.073	14.57
462.429	14.54
462.785	14.76
463.141	14.79
463.496	14.95
463.852	15
464.208	15.12
464.564	15.23
464.919	15.08
465.275	15.18
465.631	15.14
465.986	15.21
466.342	15.1
466.697	15.11
467.052	15.31
467.408	15.26
467.763	15.41
468.118	15.38
468.473	15.51
468.829	15.45
469.184	15.43
469.539	15.43
469.894	15.75
470.249	15.67
470.603	15.76
470.958	15.59
471.313	15.88
471.668	15.75
472.023	15.79
472.377	15.75
472.732	15.88
473.086	15.78
473.441	15.95
473.795	15.97
474.15	16.04
474.504	15.98
474.859	16.09
475.213	16.31
475.567	15.85
475.921	16.19
476.275	16.01
476.63	16.29
476.984	16.5
477.338	16.32
477.692	16.12
478.045	16.18
478.399	16.33
478.753	16.26
479.107	16.25
479.461	16.32
479.814	16.32
480.168	16.3
480.521	16.29
480.875	16.49
481.228	16.6
481.582	16.53
481.935	16.48
482.289	16.63
482.642	16.5
482.995	16.58
483.348	16.35
483.701	16.33
484.055	16.35
484.408	16.37
484.761	16.08
485.114	15.77
485.466	15.63
485.819	15.69
486.172	15.94
486.525	16.12
486.878	16.2
487.23	16.35
487.583	16.55
487.936	16.54
488.288	16.53
488.641	16.26
488.993	16.15
489.345	16.24
489.698	16.23
490.05	16.39
490.402	16.46
490.754	16.7
491.107	16.8
491.459	16.92
491.811	17.03
492.163	17.12
492.515	16.96
492.866	16.74
493.218	16.5
493.57	16.55
493.922	16.79
494.274	16.97
494.625	17.14
494.977	17.28
495.328	17.5
495.68	17.58
496.031	17.74
496.383	17.8
496.734	17.84
497.086	17.85
497.437	18.04
497.788	17.95
498.139	17.79
498.49	17.63
498.842	17.78
499.193	17.81
499.544	17.88
499.894	17.96
500.245	18.05
500.596	18.16
500.947	18.11
501.298	18.22
501.648	18.28
501.999	18.38
502.35	18.43
502.7	18.37
503.051	18.38
503.401	18.48
503.752	18.48
504.102	18.36
504.452	18.49
504.803	18.56
505.153	18.69
505.503	18.44
505.853	18.67
506.203	18.64
506.553	18.69
506.903	18.59
507.253	18.86
507.603	18.91
507.953	18.8
508.303	18.83
508.652	18.91
509.002	18.92
509.352	18.99
509.701	18.9
510.051	19.01
510.4	18.88
510.75	18.87
511.099	18.87
511.449	18.8
511.798	19.01
512.147	19.06
512.496	18.95
512.846	19.13
513.195	19.07
513.544	19.09
513.893	18.99
514.242	19.19
514.591	19.1
514.939	19.34
515.288	19.4
515.637	19.41
515.986	19.57
516.334	19.41
516.683	19.55
517.032	19.63
517.38	19.64
517.729	19.76
518.077	19.64
518.426	19.71
518.774	19.57
519.122	19.48
519.47	19.48
519.819	19.44
520.167	19.32
520.515	19.42
520.863	19.57
521.211	19.52
521.559	19.63
521.907	19.87
522.255	19.87
522.602	19.89
522.95	20.02
523.298	20.04
523.645	20.04
523.993	19.94
524.341	20.25
524.688	20.17
525.036	20.25
525.383	20.21
525.73	20.19
526.078	20.26
526.425	20.31
526.772	20.05
527.119	20.02
527.466	19.9
527.814	19.83
528.161	20.02
528.508	20.16
528.854	20.11
529.201	20.04
529.548	19.95
529.895	19.63
530.242	19.58
530.588	19.58
530.935	19.78
531.282	20.03
531.628	20.05
531.975	20.28
532.321	20.37
532.667	20.49
533.014	20.59
533.36	20.6
533.706	20.57
534.052	20.56
534.399	20.29
534.745	20.38
535.091	20.2
535.437	20.34
535.783	20.48
536.129	20.64
536.474	20.79
536.82	20.88
537.166	21.11
537.512	20.97
537.857	21.03
538.203	20.89
538.549	20.74
538.894	20.96
539.239	21.06
539.585	21.24
539.93	21.28
540.276	21.5
540.621	21.51
540.966	21.5
541.311	21.62
541.656	21.52
542.001	21.46
542.346	21.28
542.691	21.02
543.036	20.82
543.381	20.87
543.726	21.04
544.071	21.2
544.415	21.33
544.76	21.32
545.105	21.48
545.449	21.66
545.794	21.72
546.138	21.76
546.483	21.88
546.827	22.02
547.171	22.13
547.516	21.99
547.86	22.12
548.204	21.98
548.548	21.86
548.892	21.99
549.236	22.15
549.58	22.18
549.924	22.48
550.268	22.56
550.612	22.58
550.956	22.61
551.3	22.69
551.643	22.52
551.987	23.03
552.33	22.87
552.674	22.83
553.017	22.96
553.361	22.99
553.704	22.84
554.048	22.86
554.391	22.81
554.734	23.03
555.077	22.79
555.42	22.92
555.764	23.07
556.107	23.24
556.45	23.24
556.793	23.08
557.135	23.23
557.478	23.21
557.821	23.36
558.164	23.38
558.507	23.37
558.849	23.54
559.192	23.57
559.534	23.51
559.877	23.73
560.219	23.79
560.562	23.92
560.904	23.79
561.246	23.58
561.589	23.84
561.931	23.81
562.273	23.79
562.615	23.8
562.957	23.81
563.299	23.75
563.641	24.04
563.983	23.93
564.325	23.99
564.667	24.1
565.008	24.06
565.35	24.14
565.692	23.98
566.033	24
566.375	24.08
566.716	24.11
567.058	24.04
567.399	23.99
567.741	24.21
568.082	23.97
568.423	24.01
568.764	24.17
569.105	24.16
569.447	24.1
569.788	24.27
570.129	24.26
570.47	24.52
570.811	24.51
571.151	24.74
571.492	24.43
571.833	24.52
572.174	24.56
572.514	24.51
572.855	24.58
573.195	24.43
573.536	24.65
573.876	24.42
574.217	24.68
574.557	24.76
574.898	24.6
575.238	24.83
575.578	24.7
575.918	24.6
576.258	24.82
576.598	24.97
576.938	25.12
577.278	24.87
577.618	24.98
577.958	25.26
578.298	25.19
578.638	25.25
578.977	25.08
579.317	25.45
579.657	25.37
579.996	25.26
580.336	25.39
580.675	25.46
581.014	25.53
581.354	25.66
581.693	25.61
582.032	25.8
582.372	25.75
582.711	25.69
583.05	25.66
583.389	25.73
583.728	26.17
584.067	25.58
584.406	25.89
584.745	25.92
585.083	25.97
585.422	25.99
585.761	26.07
586.1	26.15
586.438	25.72
586.777	25.91
587.115	26.21
587.454	26.08
587.792	26.35
588.13	26.22
588.469	26.22
588.807	26.08
589.145	26.22
589.483	26.14
589.821	26.4
590.159	26.58
590.497	26.3
590.835	26.1
591.173	26.37
591.511	26.36
591.849	26.21
592.187	26.41
592.524	26.69
592.862	26.59
593.2	26.7
593.537	26.63
593.875	26.91
594.212	27.04
594.55	26.45
594.887	26.78
595.224	26.65
595.561	26.52
595.899	26.66
596.236	26.94
596.573	26.98
596.91	26.91
597.247	27.04
597.584	27.05
597.921	26.71
598.258	26.66
598.594	26.64
598.931	26.61
599.268	26.77
599.604	26.82
599.941	26.96
600.277	27.11
600.614	27.18
600.95	27.21
601.287	27.24
601.623	27.29
601.959	27.52
602.296	27.32
602.632	27.33
602.968	27.2
603.304	27.35
603.64	27.56
603.976	27.64
604.312	27.62
604.648	27.57
604.984	27.26
605.319	27.53
605.655	27.4
605.991	27.3
606.326	27.31
606.662	27.37
606.998	27.38
607.333	27.74
607.668	27.37
608.004	27.65
608.339	27.99
608.674	27.9
609.01	27.79
609.345	28.33
609.68	28
610.015	27.99
610.35	27.95
610.685	27.63
611.02	27.76
611.355	27.78
611.689	27.93
612.024	27.81
612.359	27.94
612.694	28.27
613.028	28.14
613.363	28.11
613.697	28.32
614.032	28.48
614.366	28.34
614.7	28.2
615.035	28.25
615.369	28.41
615.703	28.37
616.037	28.47
616.371	28.83
616.705	28.68
617.039	28.5
617.373	28.94
617.707	28.57
618.041	28.88
618.375	29.11
618.709	28.64
619.042	29.02
619.376	29.18
619.71	29.13
620.043	29.01
620.377	28.87
620.71	28.83
621.043	29.12
621.377	28.81
621.71	29.26
622.043	28.84
622.376	28.99
622.709	28.86
623.043	29.32
623.376	29.38
623.709	29.43
624.041	29.57
624.374	28.76
624.707	29.62
625.04	29.44
625.373	29.24
625.705	29.34
626.038	29.48
626.37	29.09
626.703	29.4
627.035	29.51
627.368	29.29
627.7	29.25
628.032	29.31
628.365	29.22
628.697	29.55
629.029	29.51
629.361	29.71
629.693	29.41
630.025	29.72
630.357	29.63
630.689	29.9
631.021	29.9
631.353	29.81
631.684	29.71
632.016	30.19
632.348	30.02
632.679	29.89
633.011	29.88
633.342	30.26
633.674	29.99
634.005	30.11
634.336	30.35
634.668	29.98
634.999	29.9
635.33	30.09
635.661	30.14
635.992	30.36
636.323	30.29
636.654	30.49
636.985	30.54
637.316	30.04
637.647	30.43
637.977	30.35
638.308	30.4
638.639	30.17
638.969	30.7
639.3	30.18
639.63	30.14
639.961	30.58
640.291	30.22
640.622	30.74
640.952	30.65
641.282	30.46
641.612	30.39
641.943	30.27
642.273	30.82
642.603	30.91
642.933	30.74
643.263	30.8
643.592	30.74
643.922	30.91
644.252	31.15
644.582	31.09
644.911	31.1
645.241	31.07
645.571	31.42
645.9	31.28
646.23	31.32
646.559	30.92
646.888	31.56
647.218	31.11
647.547	31.48
647.876	31.23
648.205	31.46
648.534	31.49
648.863	31.02
649.192	31.48
649.521	31.29
649.85	30.91
650.179	31.68
650.508	31.68
650.837	31.64
651.165	31.97
651.494	31.85
651.822	31.41
652.151	31.84
652.479	31.75
652.808	31.39
653.136	31.84
653.465	31.56
653.793	31.88
654.121	31.66
654.449	31.58
654.777	31.88
655.105	32.23
655.433	32.03
655.761	31.76
656.089	32.04
656.417	31.67
656.745	31.78
657.073	31.39
657.4	32.2
657.728	32.22
658.056	32.3
658.383	32.06
658.711	31.77
659.038	31.84
659.365	31.94
659.693	32.33
660.02	32.6
660.347	32
660.674	31.82
661.001	31.87
661.329	31.97
661.656	32.52
661.982	32.54
662.309	32.09
662.636	32.57
662.963	32.58
663.29	32.47
663.616	32.44
663.943	32.13
664.27	31.77
664.596	32.53
664.923	32.69
665.249	32.82
665.576	33.2
665.902	32.47
666.228	33.72
666.554	33.01
666.881	32.47
667.207	32.78
667.533	32.79
667.859	32.9
668.185	32.75
668.511	32.49
668.837	33.39
669.162	32.8
669.488	32.52
669.814	33.46
670.139	33.18
670.465	33.13
670.791	32.84
671.116	32.61
671.442	33.32
671.767	32.78
672.092	32.46
672.418	33.47
672.743	33.91
673.068	33.51
673.393	33.09
673.718	32.89
