Data from 97281_forehead_Reflection__4__55.txt Node

Date: Fri Sep 23 20:07:15 CDT 2022
User: ToomeyLab
Spectrometer: FLMS14357
Trigger mode: 0
Integration Time (sec): 1.000000E-2
Scans to average: 100
Electric dark correction enabled: true
Nonlinearity correction enabled: false
Boxcar width: 0
XAxis mode: Wavelengths
Number of Pixels in Spectrum: 2048
>>>>>Begin Spectral Data<<<<<
189.047	82.06
189.435	82.06
189.823	82.06
190.211	-210.78
190.599	13.63
190.987	-42.5
191.375	-320.81
191.763	73.5
192.151	105.19
192.538	126.01
192.926	213.24
193.314	94.73
193.702	45.82
194.089	-24.6
194.477	39.56
194.864	238.55
195.252	785.74
195.639	-15.42
196.027	148.91
196.414	-4.58
196.801	90.45
197.189	257.28
197.576	216.85
197.963	-147.59
198.351	49.68
198.738	0.81
199.125	47.46
199.512	46.53
199.899	1.01
200.286	-9.5
200.673	31.46
201.06	28.37
201.447	34.38
201.833	39.85
202.22	17.46
202.607	15.49
202.994	-20.28
203.38	21.17
203.767	-14.69
204.154	46.81
204.54	11.74
204.927	39.65
205.313	52.67
205.699	-7.46
206.086	3.98
206.472	45.38
206.858	24.69
207.245	3.95
207.631	11.22
208.017	30.81
208.403	-1.05
208.789	0.83
209.175	17.55
209.561	31.35
209.947	-20.18
210.333	20.73
210.719	1.62
211.105	28.08
211.491	19.47
211.876	-0.17
212.262	11.31
212.648	-3.35
213.034	-20.43
213.419	32.34
213.805	48.28
214.19	-6.52
214.576	48.26
214.961	12.13
215.346	-19.33
215.732	44.72
216.117	29.4
216.502	14.57
216.888	13.45
217.273	22.88
217.658	-7.01
218.043	22.44
218.428	7.72
218.813	20.14
219.198	23.97
219.583	26.16
219.968	29.15
220.353	-10.51
220.738	2.7
221.122	30.56
221.507	8.99
221.892	16.33
222.276	-10.14
222.661	12.23
223.046	12.43
223.43	2.18
223.815	9.79
224.199	6.71
224.583	11.71
224.968	-0.73
225.352	-1.51
225.736	-8.54
226.121	11.23
226.505	2.76
226.889	6.89
227.273	6.19
227.657	1.81
228.041	2.03
228.425	2.24
228.809	4.37
229.193	3.62
229.577	4.6
229.961	3.47
230.344	3.41
230.728	1.79
231.112	1.76
231.495	2.02
231.879	1.59
232.263	3.08
232.646	4.18
233.03	2.97
233.413	2.8
233.797	4.53
234.18	7.03
234.563	4.09
234.946	4.37
235.33	2.19
235.713	4.67
236.096	1.83
236.479	2.55
236.862	3.67
237.245	3.92
237.628	3.01
238.011	3.41
238.394	3.35
238.777	3.4
239.16	4.2
239.543	3.47
239.925	2.3
240.308	5.36
240.691	4.99
241.073	3.55
241.456	2.89
241.838	3.53
242.221	3.39
242.603	3.43
242.986	2.53
243.368	2.97
243.75	3.09
244.133	3.55
244.515	2.88
244.897	3.29
245.279	3.8
245.661	4.34
246.043	3.88
246.425	3.81
246.807	2.72
247.189	3.94
247.571	3.56
247.953	3.16
248.335	3.29
248.717	3.16
249.098	2.91
249.48	3
249.862	3.19
250.243	3.14
250.625	2.88
251.006	3.07
251.388	3.02
251.769	3.93
252.151	1.88
252.532	3.69
252.913	4.45
253.295	3.37
253.676	3.35
254.057	2.94
254.438	2.87
254.819	3.6
255.2	2.54
255.581	4.46
255.962	2.43
256.343	4.03
256.724	3.68
257.105	3.35
257.486	2.62
257.867	2.93
258.247	3.84
258.628	2.59
259.009	2.89
259.389	3.71
259.77	2.21
260.15	3.59
260.531	2.94
260.911	3.47
261.292	3.02
261.672	2.86
262.052	2.78
262.432	2.97
262.813	3.03
263.193	2.93
263.573	3.28
263.953	2.61
264.333	3.14
264.713	3.03
265.093	3.23
265.473	2.99
265.853	3.38
266.233	3.3
266.612	3.11
266.992	3.98
267.372	3.32
267.752	3.03
268.131	3.51
268.511	2.74
268.89	2.85
269.27	2.82
269.649	3.03
270.029	2.8
270.408	3.45
270.787	2.95
271.167	2.57
271.546	3.38
271.925	2.67
272.304	3.04
272.683	2.96
273.062	2.48
273.441	3.51
273.82	3.01
274.199	2.98
274.578	2.82
274.957	2.91
275.336	3.13
275.715	3.06
276.093	3.29
276.472	3.88
276.851	3.05
277.229	3.66
277.608	3.66
277.986	2.71
278.365	3.19
278.743	3.09
279.122	2.67
279.5	3.24
279.878	2.78
280.257	2.68
280.635	2.9
281.013	2.84
281.391	2.64
281.769	3.42
282.147	3.25
282.525	3.04
282.903	2.76
283.281	3.06
283.659	3.2
284.037	2.53
284.415	2.79
284.792	2.92
285.17	2.99
285.548	2.9
285.925	3.45
286.303	3.17
286.68	2.98
287.058	3.31
287.435	2.97
287.813	3.42
288.19	3.08
288.567	3.26
288.945	3.11
289.322	2.89
289.699	3.42
290.076	3.48
290.453	3.24
290.83	3.46
291.207	3.03
291.584	3.28
291.961	3.56
292.338	3.43
292.715	2.86
293.092	3.24
293.469	3.52
293.845	3.84
294.222	3.53
294.599	3.1
294.975	3.72
295.352	4.07
295.728	3.29
296.105	3.67
296.481	3.4
296.858	3.54
297.234	3.93
297.61	3.06
297.986	3.09
298.363	3.73
298.739	3.81
299.115	3.57
299.491	3.69
299.867	3.41
300.243	4
300.619	3.94
300.995	4.2
301.371	3.21
301.746	4.2
302.122	3.91
302.498	3.77
302.874	3.92
303.249	4.03
303.625	3.96
304	4.1
304.376	3.64
304.751	3.6
305.127	3.92
305.502	4.22
305.878	4.16
306.253	4.42
306.628	3.94
307.003	3.71
307.378	4.31
307.754	4.65
308.129	4.6
308.504	4.62
308.879	4.24
309.254	4.4
309.629	4.55
310.003	4.75
310.378	4.3
310.753	4.61
311.128	4.5
311.502	4.73
311.877	4.47
312.252	4.6
312.626	4.77
313.001	4.54
313.375	4.74
313.75	4.7
314.124	4.45
314.498	5.19
314.873	5.18
315.247	4.84
315.621	5.06
315.995	5.63
316.369	5.03
316.743	5.18
317.117	4.4
317.491	4.6
317.865	5.39
318.239	5.56
318.613	5.25
318.987	4.82
319.361	4.9
319.734	4.96
320.108	5.32
320.482	4.98
320.855	5.21
321.229	6.13
321.602	5.49
321.976	5.79
322.349	5.03
322.723	5.32
323.096	5.54
323.469	5.45
323.843	5.43
324.216	6.07
324.589	5.55
324.962	5.98
325.335	5.48
325.708	6.03
326.081	5.85
326.454	5.73
326.827	5.63
327.2	5.48
327.573	6.05
327.945	6.31
328.318	5.91
328.691	6.35
329.063	6.12
329.436	6.02
329.809	6.76
330.181	6.31
330.553	5.75
330.926	6.2
331.298	6.15
331.671	6.24
332.043	6.34
332.415	6.57
332.787	6.47
333.159	6.71
333.532	6.62
333.904	6.41
334.276	5.91
334.648	6.01
335.02	6.84
335.391	6.44
335.763	6.54
336.135	6.89
336.507	6.99
336.879	6.7
337.25	6.82
337.622	7.14
337.993	7.07
338.365	7.01
338.736	7.22
339.108	7.43
339.479	6.78
339.851	7.03
340.222	7.29
340.593	6.58
340.964	7.41
341.336	6.63
341.707	7.57
342.078	6.92
342.449	7.01
342.82	7.1
343.191	7.08
343.562	7.35
343.933	7.85
344.303	7.14
344.674	7.43
345.045	7.51
345.416	7.79
345.786	7.68
346.157	7.24
346.527	7.31
346.898	7.86
347.268	7.27
347.639	7.48
348.009	7.58
348.38	7.61
348.75	7.57
349.12	7.5
349.49	7.96
349.861	7.8
350.231	7.35
350.601	7.78
350.971	7.99
351.341	7.93
351.711	7.7
352.081	8
352.45	7.66
352.82	7.74
353.19	8.7
353.56	8.15
353.929	7.85
354.299	8.41
354.669	8.06
355.038	8.63
355.408	7.76
355.777	8.37
356.147	7.91
356.516	8.67
356.885	8.27
357.254	8.05
357.624	8.03
357.993	8.32
358.362	8.55
358.731	8.41
359.1	8.47
359.469	8.57
359.838	8.49
360.207	8.77
360.576	9.09
360.945	8.41
361.314	8.28
361.682	8.38
362.051	8.71
362.42	8.85
362.788	8.7
363.157	9.03
363.525	8.8
363.894	8.84
364.262	8.64
364.631	9.05
364.999	8.92
365.367	9.03
365.735	9.05
366.104	9.31
366.472	9.1
366.84	9.12
367.208	9.16
367.576	9.38
367.944	9.25
368.312	9.5
368.68	9.35
369.048	9.26
369.416	9.66
369.783	9.56
370.151	9.62
370.519	9.53
370.886	9.77
371.254	10.06
371.621	9.83
371.989	9.96
372.356	9.81
372.724	9.43
373.091	9.54
373.458	9.91
373.826	9.71
374.193	9.64
374.56	10.34
374.927	10.16
375.294	10.08
375.661	10.15
376.028	10.07
376.395	10.22
376.762	9.92
377.129	9.9
377.496	10.02
377.863	10.29
378.229	10.26
378.596	9.97
378.963	10.23
379.329	10.69
379.696	10.28
380.062	10.12
380.429	10.24
380.795	10.45
381.161	10.94
381.528	10.81
381.894	10.33
382.26	10.58
382.626	10.6
382.993	10.58
383.359	10.73
383.725	10.92
384.091	10.82
384.457	11.03
384.823	10.73
385.188	11.21
385.554	11.05
385.92	11.26
386.286	11
386.651	11
387.017	11.18
387.383	11.1
387.748	11.02
388.114	11.26
388.479	11.33
388.845	11.07
389.21	11.08
389.575	11.18
389.94	11.47
390.306	11.14
390.671	11.46
391.036	11.36
391.401	11.6
391.766	11.38
392.131	11.5
392.496	11.68
392.861	11.78
393.226	11.41
393.591	11.53
393.956	11.56
394.32	11.79
394.685	11.86
395.05	11.89
395.414	11.59
395.779	11.66
396.143	11.57
396.508	11.78
396.872	11.98
397.236	12.06
397.601	12.05
397.965	12.2
398.329	12.04
398.694	12
399.058	11.94
399.422	12.18
399.786	12.44
400.15	11.96
400.514	12.11
400.878	12.13
401.242	12.11
401.605	12.6
401.969	12.56
402.333	12.1
402.697	11.96
403.06	12.44
403.424	12.5
403.787	12.38
404.151	12.36
404.514	12.31
404.878	12.58
405.241	12.32
405.604	12.4
405.968	12.24
406.331	12.34
406.694	12.6
407.057	12.72
407.42	12.72
407.783	12.66
408.146	12.7
408.509	12.71
408.872	12.65
409.235	12.76
409.598	12.97
409.961	13.02
410.323	13.07
410.686	12.91
411.049	13.06
411.411	12.91
411.774	12.85
412.136	12.69
412.499	12.99
412.861	12.9
413.223	13.05
413.586	13.05
413.948	13.21
414.31	13.13
414.672	13.3
415.035	13.12
415.397	13.17
415.759	13.39
416.121	13.38
416.483	13.4
416.845	13.03
417.206	13.31
417.568	13.31
417.93	13.39
418.292	13.38
418.653	13.46
419.015	13.36
419.377	13.38
419.738	13.4
420.1	13.35
420.461	13.39
420.822	13.48
421.184	13.54
421.545	13.55
421.906	13.48
422.267	13.48
422.629	13.35
422.99	13.41
423.351	13.53
423.712	13.57
424.073	13.66
424.434	13.79
424.795	13.83
425.155	13.65
425.516	13.74
425.877	13.79
426.238	13.85
426.598	13.67
426.959	13.98
427.32	14.08
427.68	14.03
428.041	14.1
428.401	14.34
428.761	14.39
429.122	14.38
429.482	14.34
429.842	14.65
430.202	14.57
430.563	14.54
430.923	14.71
431.283	14.85
431.643	14.68
432.003	14.78
432.363	14.86
432.722	14.76
433.082	14.69
433.442	14.81
433.802	14.88
434.161	14.96
434.521	15
434.881	14.85
435.24	14.96
435.6	15.09
435.959	15.12
436.319	15.09
436.678	15.03
437.037	15.36
437.396	15.24
437.756	15.46
438.115	15.25
438.474	15.49
438.833	15.45
439.192	15.36
439.551	15.45
439.91	15.44
440.269	15.58
440.628	15.44
440.987	15.57
441.345	15.52
441.704	15.54
442.063	15.57
442.421	15.38
442.78	15.45
443.138	15.53
443.497	15.67
443.855	15.8
444.214	16.02
444.572	15.84
444.93	15.88
445.288	16.02
445.647	16.1
446.005	15.99
446.363	15.98
446.721	16.03
447.079	16.05
447.437	16.09
447.795	15.9
448.153	15.81
448.51	15.92
448.868	16
449.226	16.01
449.584	16.1
449.941	16.12
450.299	16.42
450.656	16.39
451.014	16.55
451.371	16.41
451.729	16.59
452.086	16.8
452.443	16.8
452.801	16.65
453.158	16.74
453.515	16.89
453.872	16.83
454.229	16.93
454.586	16.77
454.943	16.76
455.3	16.87
455.657	17.02
456.014	16.91
456.371	17.1
456.727	17.26
457.084	17.18
457.441	17.27
457.797	17.17
458.154	17.29
458.51	17.24
458.867	17.37
459.223	17.34
459.58	17.33
459.936	17.33
460.292	17.34
460.648	17.29
461.005	17.36
461.361	17.15
461.717	17.14
462.073	17.31
462.429	17.25
462.785	17.52
463.141	17.66
463.496	17.74
463.852	17.77
464.208	17.87
464.564	17.99
464.919	18.05
465.275	17.92
465.631	18
465.986	17.96
466.342	18.02
466.697	18.06
467.052	18.25
467.408	18.14
467.763	18.26
468.118	18.26
468.473	18.28
468.829	18.19
469.184	18.4
469.539	18.23
469.894	18.57
470.249	18.55
470.603	18.69
470.958	18.72
471.313	18.73
471.668	18.59
472.023	18.6
472.377	18.63
472.732	18.73
473.086	18.71
473.441	18.86
473.795	18.68
474.15	18.83
474.504	18.85
474.859	18.95
475.213	18.98
475.567	18.85
475.921	19.08
476.275	19.01
476.63	19.15
476.984	19.27
477.338	19.03
477.692	19.11
478.045	18.91
478.399	19.09
478.753	19.24
479.107	19.06
479.461	19.22
479.814	19.08
480.168	19.34
480.521	19.19
480.875	19.33
481.228	19.38
481.582	19.39
481.935	19.31
482.289	19.52
482.642	19.26
482.995	19.41
483.348	19.28
483.701	19.29
484.055	19.24
484.408	19.07
484.761	18.92
485.114	18.59
485.466	18.54
485.819	18.5
486.172	18.67
486.525	18.94
486.878	19.04
487.23	19.1
487.583	19.25
487.936	19.41
488.288	19.3
488.641	19.13
488.993	18.98
489.345	19.01
489.698	19.05
490.05	19.18
490.402	19.18
490.754	19.43
491.107	19.59
491.459	19.73
491.811	19.9
492.163	19.87
492.515	19.93
492.866	19.65
493.218	19.3
493.57	19.44
493.922	19.59
494.274	19.76
494.625	19.91
494.977	20.03
495.328	20.36
495.68	20.46
496.031	20.46
496.383	20.72
496.734	20.62
497.086	20.85
497.437	20.75
497.788	20.71
498.139	20.61
498.49	20.63
498.842	20.56
499.193	20.6
499.544	20.58
499.894	20.76
500.245	21.02
500.596	20.9
500.947	20.99
501.298	21.04
501.648	21.26
501.999	21.21
502.35	21.33
502.7	21.3
503.051	21.16
503.401	21.47
503.752	21.55
504.102	21.48
504.452	21.29
504.803	21.49
505.153	21.52
505.503	21.4
505.853	21.54
506.203	21.55
506.553	21.63
506.903	21.59
507.253	21.57
507.603	21.63
507.953	21.67
508.303	21.72
508.652	21.77
509.002	21.85
509.352	21.8
509.701	21.68
510.051	21.79
510.4	21.76
510.75	21.75
511.099	21.74
511.449	21.75
511.798	21.83
512.147	21.86
512.496	21.7
512.846	21.87
513.195	21.94
513.544	21.89
513.893	21.95
514.242	21.97
514.591	22.09
514.939	22.08
515.288	22.26
515.637	22.32
515.986	22.28
516.334	22.21
516.683	22.5
517.032	22.36
517.38	22.48
517.729	22.41
518.077	22.45
518.426	22.52
518.774	22.47
519.122	22.34
519.47	22.3
519.819	22.29
520.167	22.1
520.515	22.23
520.863	22.24
521.211	22.3
521.559	22.47
521.907	22.6
522.255	22.63
522.602	22.61
522.95	22.8
523.298	23.08
523.645	22.91
523.993	22.98
524.341	23.07
524.688	23.08
525.036	23
525.383	23.04
525.73	23.09
526.078	23.13
526.425	23.12
526.772	22.83
527.119	22.68
527.466	22.52
527.814	22.6
528.161	22.73
528.508	22.77
528.854	22.88
529.201	22.71
529.548	22.59
529.895	22.32
530.242	22.12
530.588	22.17
530.935	22.42
531.282	22.64
531.628	22.63
531.975	22.74
532.321	23.02
532.667	23.14
533.014	23.22
533.36	23.25
533.706	23.25
534.052	23.36
534.399	23.08
534.745	23.04
535.091	22.73
535.437	22.9
535.783	23.15
536.129	23.22
536.474	23.36
536.82	23.65
537.166	23.64
537.512	23.66
537.857	23.58
538.203	23.54
538.549	23.38
538.894	23.66
539.239	23.59
539.585	23.89
539.93	23.88
540.276	24.12
540.621	24.17
540.966	24.25
541.311	24.32
541.656	24.08
542.001	24.06
542.346	23.97
542.691	23.61
543.036	23.38
543.381	23.52
543.726	23.57
544.071	23.71
544.415	23.85
544.76	23.85
545.105	23.96
545.449	24.17
545.794	24.29
546.138	24.35
546.483	24.35
546.827	24.48
547.171	24.57
547.516	24.48
547.86	24.5
548.204	24.52
548.548	24.56
548.892	24.45
549.236	24.69
549.58	24.76
549.924	25.07
550.268	25.11
550.612	25.12
550.956	25.16
551.3	25.32
551.643	25.24
551.987	25.57
552.33	25.46
552.674	25.47
553.017	25.47
553.361	25.46
553.704	25.51
554.048	25.47
554.391	25.47
554.734	25.53
555.077	25.42
555.42	25.43
555.764	25.48
556.107	25.62
556.45	25.88
556.793	25.82
557.135	25.88
557.478	25.84
557.821	26.13
558.164	25.99
558.507	25.79
558.849	26.02
559.192	26.08
559.534	26.05
559.877	26.11
560.219	26.22
560.562	26.29
560.904	26.3
561.246	26
561.589	26.45
561.931	26.38
562.273	26.62
562.615	26.2
562.957	26.19
563.299	26.12
563.641	26.48
563.983	26.35
564.325	26.33
564.667	26.56
565.008	26.42
565.35	26.68
565.692	26.7
566.033	26.4
566.375	26.59
566.716	26.33
567.058	26.39
567.399	26.38
567.741	26.47
568.082	26.22
568.423	26.28
568.764	26.61
569.105	26.46
569.447	26.49
569.788	26.69
570.129	26.46
570.47	26.69
570.811	26.68
571.151	26.94
571.492	27.02
571.833	26.85
572.174	26.79
572.514	26.9
572.855	26.8
573.195	26.77
573.536	26.8
573.876	26.62
574.217	26.76
574.557	26.85
574.898	26.81
575.238	26.97
575.578	27.07
575.918	27
576.258	27.06
576.598	27.11
576.938	27.05
577.278	27.07
577.618	27.01
577.958	27.3
578.298	27.38
578.638	27.38
578.977	27.27
579.317	27.49
579.657	27.73
579.996	27.56
580.336	27.67
580.675	27.65
581.014	27.54
581.354	27.68
581.693	27.8
582.032	28.09
582.372	28.04
582.711	27.91
583.05	27.86
583.389	27.83
583.728	28.24
584.067	27.92
584.406	28.01
584.745	28.02
585.083	27.94
585.422	28.2
585.761	28.26
586.1	28.19
586.438	27.92
586.777	28.29
587.115	28.07
587.454	28.26
587.792	28.61
588.13	28.29
588.469	28.24
588.807	28.32
589.145	28.44
589.483	28.29
589.821	28.55
590.159	28.54
590.497	28.32
590.835	28.52
591.173	28.62
591.511	28.56
591.849	28.43
592.187	28.4
592.524	28.86
592.862	28.77
593.2	28.45
593.537	28.43
593.875	28.97
594.212	28.97
594.55	28.5
594.887	28.85
595.224	28.81
595.561	28.87
595.899	28.6
596.236	28.52
596.573	28.56
596.91	28.93
597.247	28.81
597.584	28.78
597.921	28.78
598.258	28.42
598.594	28.76
598.931	28.49
599.268	28.74
599.604	28.71
599.941	28.81
600.277	29.04
600.614	28.93
600.95	29.01
601.287	29.08
601.623	29.24
601.959	29.27
602.296	29.24
602.632	29.06
602.968	29.27
603.304	29.41
603.64	29.74
603.976	29.67
604.312	29.28
604.648	29.62
604.984	29.22
605.319	29.33
605.655	29.21
605.991	29.15
606.326	29.18
606.662	29.13
606.998	29.29
607.333	29.22
607.668	29.08
608.004	29.5
608.339	29.5
608.674	29.82
609.01	29.41
609.345	29.81
609.68	29.69
610.015	29.74
610.35	29.45
610.685	29.37
611.02	29.59
611.355	29.57
611.689	29.48
612.024	29.74
612.359	29.59
612.694	29.99
613.028	30.04
613.363	30.08
613.697	30.13
614.032	30.25
614.366	30.11
614.7	30.07
615.035	30.33
615.369	30.7
615.703	29.84
616.037	30.39
616.371	30.03
616.705	30.46
617.039	30.35
617.373	30.6
617.707	30.82
618.041	30.4
618.375	30.6
618.709	30.42
619.042	30.7
619.376	30.97
619.71	30.5
620.043	30.47
620.377	30.78
620.71	30.21
621.043	30.69
621.377	30.71
621.71	30.67
622.043	30.69
622.376	30.37
622.709	30.55
623.043	30.53
623.376	31.15
623.709	30.87
624.041	31.16
624.374	30.5
624.707	30.72
625.04	31.05
625.373	30.82
625.705	30.98
626.038	30.57
626.37	30.74
626.703	31.1
627.035	30.88
627.368	30.79
627.7	30.89
628.032	30.78
628.365	30.97
628.697	31.21
629.029	30.95
629.361	31.13
629.693	30.96
630.025	31.35
630.357	31.35
630.689	31.04
631.021	31.24
631.353	31.34
631.684	31.32
632.016	31.4
632.348	31.39
632.679	31.58
633.011	31.19
633.342	31.34
633.674	31.3
634.005	31.6
634.336	31.31
634.668	31.7
634.999	31.43
635.33	31.57
635.661	31.45
635.992	31.82
636.323	31.41
636.654	31.72
636.985	31.62
637.316	31.98
637.647	31.92
637.977	31.7
638.308	31.66
638.639	31.51
638.969	31.82
639.3	31.61
639.63	31.61
639.961	32.05
640.291	31.74
640.622	31.79
640.952	31.6
641.282	32.02
641.612	32.09
641.943	32.1
642.273	32.31
642.603	32.02
642.933	32.22
643.263	32.18
643.592	32.21
643.922	32.24
644.252	32.62
644.582	32.2
644.911	32.12
645.241	32.47
645.571	32.73
645.9	32.31
646.23	32.61
646.559	32.66
646.888	32.64
647.218	32.66
647.547	32.49
647.876	32.18
648.205	32.61
648.534	32.59
648.863	32.4
649.192	32.95
649.521	32.67
649.85	32.25
650.179	32.66
650.508	32.77
650.837	32.7
651.165	32.67
651.494	32.88
651.822	32.47
652.151	32.92
652.479	32.56
652.808	32.74
653.136	32.57
653.465	32.57
653.793	32.98
654.121	33.02
654.449	32.74
654.777	33.09
655.105	33.36
655.433	32.96
655.761	32.71
656.089	33
656.417	33.48
656.745	33
657.073	32.92
657.4	33.22
657.728	32.52
658.056	33.3
658.383	33.5
658.711	33.18
659.038	33.22
659.365	32.94
659.693	32.62
660.02	33.69
660.347	33.08
660.674	33.19
661.001	33.37
661.329	32.85
661.656	33.38
661.982	33.21
662.309	33.15
662.636	33.41
662.963	33.61
663.29	33.06
663.616	33.01
663.943	33.69
664.27	33.07
664.596	33.78
664.923	33.69
665.249	33.51
665.576	33.61
665.902	33.42
666.228	33.88
666.554	33.95
666.881	32.99
667.207	34.05
667.533	34.1
667.859	33.56
668.185	33.66
668.511	33.77
668.837	33.94
669.162	33.61
669.488	33.92
669.814	34.08
670.139	33.93
670.465	34.29
670.791	34.04
671.116	33.9
671.442	34.25
671.767	33.76
672.092	33.62
672.418	34.06
672.743	34.32
673.068	33.83
