Data from 97281_crown_Reflection__4__60.txt Node

Date: Fri Sep 23 20:09:02 CDT 2022
User: ToomeyLab
Spectrometer: FLMS14357
Trigger mode: 0
Integration Time (sec): 1.000000E-2
Scans to average: 100
Electric dark correction enabled: true
Nonlinearity correction enabled: false
Boxcar width: 0
XAxis mode: Wavelengths
Number of Pixels in Spectrum: 2048
>>>>>Begin Spectral Data<<<<<
189.047	230.63
189.435	230.63
189.823	230.63
190.211	-135.5
190.599	0.48
190.987	261.33
191.375	138.93
191.763	109.03
192.151	-20.5
192.538	171.47
192.926	-8.54
193.314	163.18
193.702	67.77
194.089	5.11
194.477	92.7
194.864	447.53
195.252	905.53
195.639	-164.63
196.027	252.93
196.414	36.47
196.801	-8.09
197.189	-9.08
197.576	131.55
197.963	-86.21
198.351	57.3
198.738	-38.4
199.125	-14.75
199.512	35.23
199.899	0.03
200.286	3.1
200.673	9.04
201.06	-1.51
201.447	15.4
201.833	30.25
202.22	17.35
202.607	12.21
202.994	-21.16
203.38	-8.68
203.767	-58.64
204.154	26.65
204.54	15.75
204.927	2.86
205.313	48.19
205.699	-28.8
206.086	-10.6
206.472	2.16
206.858	6.86
207.245	19.54
207.631	-45.04
208.017	-15.7
208.403	13.95
208.789	20.21
209.175	40.73
209.561	14.32
209.947	-9.08
210.333	-20.9
210.719	-3.72
211.105	46.81
211.491	10.27
211.876	29.03
212.262	14.12
212.648	-27.37
213.034	-69.41
213.419	-28.81
213.805	21
214.19	-20.56
214.576	19.16
214.961	-5.39
215.346	-19.06
215.732	17.65
216.117	-1.54
216.502	-6.61
216.888	22.75
217.273	13.56
217.658	-23.24
218.043	3.87
218.428	5.26
218.813	-3.59
219.198	5.31
219.583	12.33
219.968	9.56
220.353	7.1
220.738	-7.06
221.122	1.41
221.507	-4.64
221.892	12.52
222.276	-26.88
222.661	-3.58
223.046	-1.69
223.43	1.18
223.815	-0.91
224.199	-1.23
224.583	-8.38
224.968	0.72
225.352	0.44
225.736	-0.8
226.121	8.1
226.505	-8.93
226.889	1.77
227.273	5.74
227.657	0.93
228.041	5.16
228.425	2.19
228.809	2.14
229.193	6.28
229.577	4.17
229.961	3.89
230.344	3.42
230.728	2.92
231.112	2.56
231.495	2.12
231.879	1.94
232.263	3.37
232.646	4.58
233.03	3.02
233.413	4.6
233.797	2.95
234.18	4.05
234.563	1.4
234.946	7.02
235.33	0.69
235.713	4.04
236.096	1.27
236.479	2.26
236.862	3.67
237.245	4.38
237.628	3.73
238.011	3.26
238.394	1.75
238.777	3.72
239.16	2
239.543	2.39
239.925	1.68
240.308	4.55
240.691	4.32
241.073	0.04
241.456	1.75
241.838	4.27
242.221	3.89
242.603	3.39
242.986	2.02
243.368	2.27
243.75	2.96
244.133	2.8
244.515	2.59
244.897	2.9
245.279	3.61
245.661	3.3
246.043	3.52
246.425	3.62
246.807	2.61
247.189	3.17
247.571	2.85
247.953	2.63
248.335	2.52
248.717	3.04
249.098	2.85
249.48	2.76
249.862	3.06
250.243	3.43
250.625	2.72
251.006	3.64
251.388	3.14
251.769	3.46
252.151	2.05
252.532	3.34
252.913	3.49
253.295	3.58
253.676	3.15
254.057	2.82
254.438	2.68
254.819	2.64
255.2	2.59
255.581	3.02
255.962	2.96
256.343	3.06
256.724	2.57
257.105	2.99
257.486	2.18
257.867	2.37
258.247	4.24
258.628	2.41
259.009	2.98
259.389	3.42
259.77	2.22
260.15	2.28
260.531	2.39
260.911	2.32
261.292	2.68
261.672	2.42
262.052	2.33
262.432	2.41
262.813	2.61
263.193	2.43
263.573	3.02
263.953	2.61
264.333	2.46
264.713	2.45
265.093	3.18
265.473	2.45
265.853	2.05
266.233	1.84
266.612	3.54
266.992	2.96
267.372	2.39
267.752	2.92
268.131	3.13
268.511	2.26
268.89	2.36
269.27	2.6
269.649	3.01
270.029	2.41
270.408	2.7
270.787	2.81
271.167	2.37
271.546	2.56
271.925	2.57
272.304	2.67
272.683	2.34
273.062	1.89
273.441	2.38
273.82	2.59
274.199	2.56
274.578	2.25
274.957	2.3
275.336	3.1
275.715	2.54
276.093	3.6
276.472	3.48
276.851	2.7
277.229	2.68
277.608	3.05
277.986	2.65
278.365	2.84
278.743	3.13
279.122	1.69
279.5	2.56
279.878	2.2
280.257	2.07
280.635	2.77
281.013	2.68
281.391	2.11
281.769	2.43
282.147	2.47
282.525	2.35
282.903	2.39
283.281	2.61
283.659	2.31
284.037	2.27
284.415	2.43
284.792	2.84
285.17	2.16
285.548	2.63
285.925	2.23
286.303	2.98
286.68	2.27
287.058	2.58
287.435	2.28
287.813	2.81
288.19	2.44
288.567	2.62
288.945	2.51
289.322	2.8
289.699	2.83
290.076	2.38
290.453	2.33
290.83	2.7
291.207	2.51
291.584	2.82
291.961	2.41
292.338	2.3
292.715	2.58
293.092	2.26
293.469	2.68
293.845	2.84
294.222	2.47
294.599	2.2
294.975	2.78
295.352	2.71
295.728	2.29
296.105	2.34
296.481	2.21
296.858	2.51
297.234	2.65
297.61	2.27
297.986	2.46
298.363	2.24
298.739	2.7
299.115	2.08
299.491	2.36
299.867	2.41
300.243	2.63
300.619	2.75
300.995	2.61
301.371	2.06
301.746	3.06
302.122	2.25
302.498	2.48
302.874	2.28
303.249	2.04
303.625	2.23
304	2.52
304.376	2.26
304.751	2.02
305.127	2.15
305.502	2.75
305.878	2.54
306.253	2.7
306.628	2.03
307.003	2.27
307.378	3.09
307.754	2.62
308.129	2.44
308.504	2.13
308.879	2.61
309.254	2.5
309.629	2.31
310.003	2.79
310.378	2.74
310.753	2.1
311.128	2.04
311.502	2.23
311.877	2.39
312.252	2.13
312.626	2.46
313.001	2.28
313.375	2.47
313.75	2.09
314.124	2.18
314.498	2.62
314.873	2.63
315.247	2.49
315.621	2.31
315.995	2.85
316.369	2.3
316.743	1.49
317.117	1.97
317.491	2.27
317.865	2.63
318.239	2.87
318.613	2.02
318.987	1.91
319.361	1.88
319.734	1.9
320.108	2.04
320.482	2.55
320.855	2.24
321.229	2.41
321.602	1.82
321.976	2.7
322.349	2.05
322.723	2.73
323.096	2.41
323.469	1.86
323.843	1.68
324.216	2.26
324.589	2.35
324.962	2.17
325.335	2.03
325.708	2.43
326.081	1.93
326.454	2.17
326.827	1.97
327.2	2.52
327.573	2.27
327.945	2.6
328.318	1.96
328.691	2.27
329.063	2.34
329.436	2.36
329.809	2.71
330.181	2.53
330.553	2.26
330.926	2.41
331.298	2.5
331.671	2.57
332.043	1.91
332.415	2.05
332.787	2.19
333.159	2.35
333.532	2.08
333.904	1.69
334.276	1.73
334.648	2.3
335.02	2.03
335.391	2.29
335.763	2.06
336.135	2.18
336.507	2.41
336.879	2.22
337.25	2.65
337.622	2.35
337.993	2.65
338.365	2.29
338.736	2.46
339.108	2.69
339.479	1.81
339.851	2.67
340.222	2.6
340.593	2.01
340.964	2.29
341.336	2.32
341.707	2.78
342.078	2.05
342.449	2.43
342.82	2.17
343.191	1.78
343.562	2.05
343.933	2.7
344.303	2.23
344.674	2.86
345.045	2.59
345.416	2.31
345.786	2.44
346.157	2.26
346.527	2.32
346.898	2.34
347.268	2.38
347.639	2.11
348.009	2.58
348.38	2.14
348.75	2.08
349.12	2.32
349.49	2.52
349.861	2.46
350.231	2.21
350.601	2.1
350.971	2.27
351.341	2.29
351.711	2.27
352.081	2.07
352.45	1.78
352.82	1.81
353.19	2.35
353.56	2.49
353.929	2.07
354.299	2.2
354.669	2.57
355.038	2.68
355.408	2.07
355.777	1.84
356.147	1.86
356.516	2.3
356.885	2.41
357.254	2.03
357.624	2.06
357.993	2.42
358.362	2.51
358.731	2.34
359.1	2.31
359.469	2.06
359.838	2.15
360.207	2.2
360.576	2.27
360.945	2.45
361.314	2.04
361.682	2.24
362.051	2.37
362.42	2.6
362.788	2.16
363.157	2.44
363.525	2.54
363.894	2.4
364.262	2.08
364.631	2.53
364.999	2.37
365.367	2.2
365.735	2.26
366.104	2.25
366.472	2.19
366.84	2.15
367.208	2.33
367.576	2.41
367.944	1.97
368.312	2.65
368.68	1.96
369.048	2.18
369.416	2.52
369.783	2.1
370.151	2.28
370.519	2.38
370.886	2.52
371.254	2.32
371.621	2.7
371.989	2.27
372.356	2.79
372.724	2.26
373.091	2.21
373.458	2.55
373.826	2.15
374.193	2.51
374.56	2.4
374.927	2.48
375.294	2.33
375.661	2.24
376.028	2.11
376.395	2.35
376.762	1.99
377.129	1.96
377.496	2.59
377.863	2.52
378.229	2.26
378.596	2.35
378.963	2.33
379.329	2.47
379.696	2.25
380.062	2.24
380.429	2.33
380.795	2.19
381.161	2.52
381.528	2.25
381.894	2.33
382.26	2.33
382.626	2.26
382.993	2.34
383.359	2.19
383.725	2.68
384.091	2.23
384.457	2.59
384.823	2.08
385.188	2.54
385.554	2.4
385.92	2.44
386.286	2.11
386.651	2.37
387.017	2.59
387.383	2.33
387.748	2.37
388.114	2.34
388.479	2.32
388.845	2.41
389.21	2.15
389.575	2.42
389.94	2.49
390.306	2.47
390.671	2.44
391.036	2.23
391.401	2.52
391.766	2.19
392.131	2.42
392.496	2.36
392.861	2.25
393.226	2.45
393.591	2.42
393.956	2.46
394.32	2.42
394.685	2.2
395.05	2.37
395.414	2.18
395.779	2.01
396.143	2.21
396.508	2.48
396.872	2.32
397.236	2.43
397.601	2.39
397.965	2.42
398.329	2.29
398.694	2.31
399.058	2.23
399.422	2.66
399.786	2.6
400.15	2.32
400.514	2.47
400.878	2.43
401.242	2.07
401.605	2.54
401.969	2.38
402.333	2.25
402.697	2.11
403.06	2.34
403.424	2.4
403.787	2.44
404.151	2.26
404.514	2.3
404.878	2.43
405.241	2.46
405.604	2.34
405.968	2.27
406.331	2.28
406.694	2.37
407.057	2.38
407.42	2.21
407.783	2.31
408.146	2.49
408.509	2.34
408.872	2.31
409.235	2.58
409.598	2.53
409.961	2.52
410.323	2.32
410.686	2.29
411.049	2.36
411.411	2.47
411.774	2.24
412.136	2.27
412.499	2.25
412.861	2.38
413.223	2.44
413.586	2.52
413.948	2.32
414.31	2.29
414.672	2.42
415.035	2.24
415.397	2.38
415.759	2.44
416.121	2.5
416.483	2.31
416.845	2.17
417.206	2.4
417.568	2.38
417.93	2.4
418.292	2.4
418.653	2.42
419.015	2.4
419.377	2.18
419.738	2.32
420.1	2.37
420.461	2.27
420.822	2.25
421.184	2.39
421.545	2.26
421.906	2.26
422.267	2.26
422.629	2.26
422.99	2.3
423.351	2.28
423.712	2.33
424.073	2.31
424.434	2.34
424.795	2.32
425.155	2.27
425.516	2.32
425.877	2.34
426.238	2.37
426.598	2.3
426.959	2.34
427.32	2.31
427.68	2.37
428.041	2.38
428.401	2.37
428.761	2.23
429.122	2.32
429.482	2.19
429.842	2.52
430.202	2.56
430.563	2.3
430.923	2.47
431.283	2.41
431.643	2.38
432.003	2.21
432.363	2.3
432.722	2.44
433.082	2.12
433.442	2.29
433.802	2.35
434.161	2.34
434.521	2.61
434.881	2.28
435.24	2.27
435.6	2.34
435.959	2.42
436.319	2.3
436.678	2.4
437.037	2.44
437.396	2.36
437.756	2.28
438.115	2.29
438.474	2.39
438.833	2.52
439.192	2.5
439.551	2.38
439.91	2.29
440.269	2.4
440.628	2.32
440.987	2.28
441.345	2.19
441.704	2.32
442.063	2.39
442.421	2.22
442.78	2.37
443.138	2.25
443.497	2.37
443.855	2.24
444.214	2.47
444.572	2.33
444.93	2.33
445.288	2.42
445.647	2.42
446.005	2.4
446.363	2.37
446.721	2.17
447.079	2.41
447.437	2.49
447.795	2.3
448.153	2.16
448.51	2.29
448.868	2.29
449.226	2.35
449.584	2.32
449.941	2.45
450.299	2.41
450.656	2.35
451.014	2.38
451.371	2.28
451.729	2.31
452.086	2.44
452.443	2.38
452.801	2.36
453.158	2.3
453.515	2.35
453.872	2.36
454.229	2.38
454.586	2.44
454.943	2.47
455.3	2.27
455.657	2.51
456.014	2.48
456.371	2.31
456.727	2.43
457.084	2.43
457.441	2.48
457.797	2.27
458.154	2.36
458.51	2.31
458.867	2.6
459.223	2.38
459.58	2.41
459.936	2.33
460.292	2.26
460.648	2.34
461.005	2.41
461.361	2.33
461.717	2.38
462.073	2.34
462.429	2.34
462.785	2.44
463.141	2.4
463.496	2.42
463.852	2.61
464.208	2.3
464.564	2.59
464.919	2.41
465.275	2.44
465.631	2.27
465.986	2.3
466.342	2.28
466.697	2.32
467.052	2.35
467.408	2.42
467.763	2.32
468.118	2.42
468.473	2.42
468.829	2.46
469.184	2.29
469.539	2.3
469.894	2.44
470.249	2.39
470.603	2.39
470.958	2.48
471.313	2.22
471.668	2.48
472.023	2.42
472.377	2.32
472.732	2.34
473.086	2.38
473.441	2.53
473.795	2.54
474.15	2.39
474.504	2.57
474.859	2.49
475.213	2.57
475.567	2.25
475.921	2.49
476.275	2.36
476.63	2.4
476.984	2.52
477.338	2.38
477.692	2.38
478.045	2.28
478.399	2.52
478.753	2.58
479.107	2.33
479.461	2.34
479.814	2.34
480.168	2.33
480.521	2.41
480.875	2.41
481.228	2.5
481.582	2.46
481.935	2.35
482.289	2.41
482.642	2.2
482.995	2.47
483.348	2.21
483.701	2.35
484.055	2.35
484.408	2.28
484.761	2.35
485.114	2.21
485.466	2.16
485.819	2.16
486.172	2.22
486.525	2.34
486.878	2.33
487.23	2.34
487.583	2.39
487.936	2.41
488.288	2.32
488.641	2.23
488.993	2.25
489.345	2.24
489.698	2.21
490.05	2.32
490.402	2.25
490.754	2.36
491.107	2.37
491.459	2.28
491.811	2.33
492.163	2.43
492.515	2.35
492.866	2.32
493.218	2.18
493.57	2.2
493.922	2.29
494.274	2.35
494.625	2.4
494.977	2.38
495.328	2.54
495.68	2.46
496.031	2.4
496.383	2.51
496.734	2.34
497.086	2.47
497.437	2.58
497.788	2.46
498.139	2.43
498.49	2.35
498.842	2.33
499.193	2.52
499.544	2.31
499.894	2.43
500.245	2.5
500.596	2.4
500.947	2.38
501.298	2.42
501.648	2.57
501.999	2.41
502.35	2.47
502.7	2.51
503.051	2.34
503.401	2.35
503.752	2.38
504.102	2.45
504.452	2.5
504.803	2.37
505.153	2.45
505.503	2.32
505.853	2.46
506.203	2.42
506.553	2.45
506.903	2.41
507.253	2.32
507.603	2.36
507.953	2.4
508.303	2.41
508.652	2.29
509.002	2.44
509.352	2.58
509.701	2.42
510.051	2.37
510.4	2.41
510.75	2.34
511.099	2.46
511.449	2.33
511.798	2.51
512.147	2.45
512.496	2.44
512.846	2.43
513.195	2.34
513.544	2.49
513.893	2.42
514.242	2.41
514.591	2.38
514.939	2.47
515.288	2.43
515.637	2.5
515.986	2.53
516.334	2.35
516.683	2.41
517.032	2.45
517.38	2.55
517.729	2.27
518.077	2.45
518.426	2.55
518.774	2.45
519.122	2.26
519.47	2.36
519.819	2.44
520.167	2.26
520.515	2.37
520.863	2.5
521.211	2.4
521.559	2.37
521.907	2.44
522.255	2.36
522.602	2.38
522.95	2.45
523.298	2.49
523.645	2.47
523.993	2.5
524.341	2.56
524.688	2.34
525.036	2.53
525.383	2.33
525.73	2.46
526.078	2.47
526.425	2.52
526.772	2.51
527.119	2.39
527.466	2.34
527.814	2.38
528.161	2.43
528.508	2.46
528.854	2.47
529.201	2.4
529.548	2.35
529.895	2.28
530.242	2.19
530.588	2.22
530.935	2.31
531.282	2.38
531.628	2.36
531.975	2.4
532.321	2.4
532.667	2.41
533.014	2.41
533.36	2.45
533.706	2.42
534.052	2.43
534.399	2.33
534.745	2.37
535.091	2.32
535.437	2.38
535.783	2.4
536.129	2.43
536.474	2.46
536.82	2.43
537.166	2.46
537.512	2.39
537.857	2.41
538.203	2.34
538.549	2.26
538.894	2.39
539.239	2.5
539.585	2.54
539.93	2.5
540.276	2.59
540.621	2.42
540.966	2.46
541.311	2.52
541.656	2.4
542.001	2.53
542.346	2.32
542.691	2.31
543.036	2.28
543.381	2.37
543.726	2.33
544.071	2.39
544.415	2.4
544.76	2.41
545.105	2.44
545.449	2.41
545.794	2.53
546.138	2.47
546.483	2.5
546.827	2.53
547.171	2.44
547.516	2.46
547.86	2.41
548.204	2.46
548.548	2.47
548.892	2.45
549.236	2.46
549.58	2.48
549.924	2.64
550.268	2.73
550.612	2.49
550.956	2.46
551.3	2.53
551.643	2.36
551.987	2.61
552.33	2.57
552.674	2.52
553.017	2.59
553.361	2.58
553.704	2.48
554.048	2.39
554.391	2.41
554.734	2.58
555.077	2.4
555.42	2.44
555.764	2.48
556.107	2.55
556.45	2.58
556.793	2.42
557.135	2.65
557.478	2.68
557.821	2.5
558.164	2.59
558.507	2.53
558.849	2.51
559.192	2.71
559.534	2.73
559.877	2.66
560.219	2.54
560.562	2.72
560.904	2.53
561.246	2.4
561.589	2.6
561.931	2.73
562.273	2.61
562.615	2.64
562.957	2.6
563.299	2.61
563.641	2.54
563.983	2.62
564.325	2.52
564.667	2.5
565.008	2.61
565.35	2.66
565.692	2.48
566.033	2.53
566.375	2.62
566.716	2.62
567.058	2.48
567.399	2.41
567.741	2.54
568.082	2.48
568.423	2.41
568.764	2.49
569.105	2.51
569.447	2.58
569.788	2.48
570.129	2.6
570.47	2.73
570.811	2.57
571.151	2.71
571.492	2.41
571.833	2.5
572.174	2.57
572.514	2.76
572.855	2.36
573.195	2.43
573.536	2.67
573.876	2.4
574.217	2.42
574.557	2.57
574.898	2.57
575.238	2.63
575.578	2.64
575.918	2.41
576.258	2.53
576.598	2.61
576.938	2.56
577.278	2.58
577.618	2.52
577.958	2.6
578.298	2.57
578.638	2.57
578.977	2.5
579.317	2.63
579.657	2.72
579.996	2.51
580.336	2.76
580.675	2.64
581.014	2.67
581.354	2.75
581.693	2.69
582.032	2.6
582.372	2.6
582.711	2.69
583.05	2.63
583.389	2.57
583.728	2.85
584.067	2.64
584.406	2.51
584.745	2.57
585.083	2.68
585.422	2.74
585.761	2.65
586.1	2.53
586.438	2.59
586.777	2.73
587.115	2.58
587.454	2.8
587.792	2.83
588.13	2.82
588.469	2.51
588.807	2.62
589.145	2.6
589.483	2.74
589.821	2.65
590.159	2.7
590.497	2.7
590.835	2.43
591.173	2.78
591.511	2.51
591.849	2.47
592.187	2.74
592.524	2.8
592.862	2.89
593.2	2.79
593.537	2.76
593.875	2.74
594.212	2.93
594.55	2.62
594.887	2.64
595.224	2.56
595.561	2.72
595.899	2.27
596.236	2.3
596.573	2.69
596.91	2.62
597.247	2.73
597.584	2.72
597.921	2.66
598.258	2.42
598.594	2.59
598.931	2.58
599.268	2.61
599.604	2.55
599.941	2.81
600.277	2.75
600.614	2.71
600.95	2.56
601.287	2.69
601.623	2.61
601.959	2.57
602.296	2.68
602.632	2.84
602.968	2.5
603.304	2.51
603.64	2.74
603.976	2.71
604.312	2.86
604.648	2.74
604.984	2.52
605.319	2.79
605.655	2.57
605.991	2.63
606.326	2.61
606.662	2.61
606.998	2.74
607.333	2.52
607.668	2.6
608.004	2.55
608.339	2.56
608.674	2.67
609.01	2.94
609.345	2.53
609.68	2.6
610.015	2.72
610.35	2.62
610.685	2.33
611.02	2.54
611.355	2.66
611.689	2.64
612.024	2.69
612.359	2.48
612.694	2.81
613.028	2.74
613.363	2.82
613.697	2.76
614.032	2.69
614.366	2.76
614.7	2.47
615.035	3.25
615.369	2.94
615.703	2.72
616.037	2.61
616.371	2.83
616.705	2.87
617.039	2.82
617.373	2.7
617.707	2.83
618.041	3.08
618.375	2.97
618.709	2.41
619.042	2.4
619.376	2.99
619.71	2.65
620.043	2.54
620.377	2.52
620.71	2.66
621.043	2.78
621.377	2.26
621.71	2.95
622.043	2.71
622.376	2.51
622.709	2.61
623.043	2.32
623.376	2.76
623.709	2.9
624.041	2.59
624.374	2.41
624.707	2.81
625.04	2.67
625.373	2.67
625.705	2.37
626.038	2.67
626.37	2.87
626.703	2.66
627.035	2.78
627.368	2.84
627.7	2.65
628.032	2.66
628.365	2.85
628.697	2.68
629.029	2.83
629.361	2.79
629.693	2.67
630.025	2.87
630.357	2.98
630.689	2.67
631.021	2.69
631.353	3.17
631.684	2.73
632.016	3.04
632.348	2.71
632.679	2.8
633.011	2.86
633.342	2.84
633.674	3.09
634.005	2.7
634.336	3.2
634.668	2.91
634.999	3
635.33	2.92
635.661	2.89
635.992	2.95
636.323	2.86
636.654	3.12
636.985	3.02
637.316	2.96
637.647	2.95
637.977	2.88
638.308	2.85
638.639	2.64
638.969	3
639.3	2.69
639.63	2.54
639.961	3.16
640.291	3
640.622	2.95
640.952	2.57
641.282	3.03
641.612	2.69
641.943	2.86
642.273	2.7
642.603	3.18
642.933	2.99
643.263	2.65
643.592	2.85
643.922	2.83
644.252	3.33
644.582	3.02
644.911	2.64
645.241	2.9
645.571	3.12
645.9	3
646.23	3.22
646.559	2.59
646.888	2.95
647.218	3.33
647.547	2.94
647.876	2.48
648.205	2.84
648.534	3.32
648.863	2.9
649.192	3.36
649.521	2.84
649.85	2.84
650.179	2.44
650.508	2.52
650.837	2.94
651.165	2.89
651.494	3.1
651.822	2.58
652.151	2.54
652.479	2.6
652.808	2.79
653.136	3.1
653.465	3.04
653.793	2.43
654.121	2.66
654.449	3
654.777	2.87
655.105	3.25
655.433	3.21
655.761	2.53
656.089	2.77
656.417	3.04
656.745	2.96
657.073	2.16
657.4	3.22
657.728	2.46
658.056	2.95
658.383	3.12
658.711	2.83
659.038	3.31
659.365	2.55
659.693	2.9
660.02	3.36
660.347	3.08
660.674	2.85
661.001	2.96
661.329	3
661.656	3.26
661.982	2.92
662.309	3.21
662.636	3.16
662.963	3.12
663.29	2.7
663.616	2.97
663.943	2.77
664.27	2.48
664.596	3.14
664.923	2.93
665.249	3.27
665.576	3.44
665.902	2.92
666.228	2.99
666.554	2.58
666.881	2.8
667.207	2.84
667.533	2.74
667.859	2.86
668.185	2.99
668.511	1.98
668.837	3.07
669.162	3.28
669.488	2.85
669.814	3.09
670.139	2.96
670.465	2.99
670.791	3.23
671.116	2.61
671.442	3.05
671.767	2.45
672.092	2.73
672.418	3.08
672.743	3.24
673.068	2.72
673.393	3.18
673.718	3.28
674.043	3.81
674.368	2.72
674.693	2.94
675.018	3.21
675.343	3.71
675.667	3.05
675.992	3.39
676.317	3.06
676.641	2.91
676.966	3.57
677.29	2.97
677.615	3.25
677.939	3.41
678.264	2.81
678.588	2.69
678.912	3.22
679.236	3.15
679.56	2.83
679.885	3.17
680.209	3.34
680.532	3.07
680.856	3.3
681.18	3.26
681.504	3.23
681.828	3.58
682.152	3.42
682.475	2.62
682.799	3.22
683.122	3.35
683.446	3.13
683.769	3
684.093	3.2
684.416	3.43
684.739	3.78
685.062	3.09
685.386	3.19
685.709	2.51
686.032	3.48
686.355	3.26
686.678	3.57
687.001	2.88
687.324	3.81
687.646	3.8
687.969	2.99
688.292	3.15
688.614	3.74
688.937	2.75
689.26	3.09
689.582	2.88
689.904	3.21
690.227	3.38
690.549	2.72
690.871	3.68
691.194	2.57
691.516	3.02
691.838	3.22
692.16	3.03
692.482	3.34
692.804	3.29
