Data from 97281_forehead_Reflection__3__54.txt Node

Date: Fri Sep 23 20:07:02 CDT 2022
User: ToomeyLab
Spectrometer: FLMS14357
Trigger mode: 0
Integration Time (sec): 1.000000E-2
Scans to average: 100
Electric dark correction enabled: true
Nonlinearity correction enabled: false
Boxcar width: 0
XAxis mode: Wavelengths
Number of Pixels in Spectrum: 2048
>>>>>Begin Spectral Data<<<<<
189.047	258.51
189.435	258.51
189.823	258.51
190.211	-55.75
190.599	93.38
190.987	447.94
191.375	1338.7
191.763	35.22
192.151	43.79
192.538	24.32
192.926	162.11
193.314	205.51
193.702	143.83
194.089	-96.77
194.477	48.59
194.864	117.07
195.252	961.86
195.639	-431.54
196.027	42.8
196.414	-40.62
196.801	26.09
197.189	-177.61
197.576	-8.28
197.963	189.53
198.351	35.7
198.738	-82.45
199.125	10.63
199.512	27.84
199.899	13.11
200.286	-18.11
200.673	-1.94
201.06	28.17
201.447	8.13
201.833	26.07
202.22	18.38
202.607	-10.15
202.994	21.99
203.38	-2.68
203.767	-39.12
204.154	16.9
204.54	34.31
204.927	6.8
205.313	14.28
205.699	-7.89
206.086	-10.87
206.472	41.24
206.858	9.76
207.245	-20.6
207.631	9.14
208.017	35.62
208.403	-14.3
208.789	33.17
209.175	41.37
209.561	28.05
209.947	6.94
210.333	-12.35
210.719	22.76
211.105	3.15
211.491	17.75
211.876	34.94
212.262	-11.45
212.648	-33.14
213.034	-25.35
213.419	-28.22
213.805	30.89
214.19	-2.16
214.576	-16.03
214.961	0.08
215.346	-21.01
215.732	39.46
216.117	9.61
216.502	0.34
216.888	22.74
217.273	12.44
217.658	-33.82
218.043	6.12
218.428	6.55
218.813	18.29
219.198	2.5
219.583	-4.84
219.968	23.22
220.353	-0.29
220.738	2.95
221.122	-5.5
221.507	-0.07
221.892	9.44
222.276	-19.08
222.661	0.96
223.046	22.88
223.43	-4.55
223.815	15.16
224.199	5.41
224.583	0.34
224.968	-1.17
225.352	2.88
225.736	0.45
226.121	7.89
226.505	8.91
226.889	18.05
227.273	4.87
227.657	4.26
228.041	2.7
228.425	1.11
228.809	0.07
229.193	4
229.577	3.75
229.961	2.86
230.344	3.32
230.728	2.09
231.112	1.27
231.495	2.74
231.879	0.96
232.263	3.41
232.646	2.79
233.03	3.06
233.413	1.72
233.797	0.78
234.18	4.48
234.563	1.79
234.946	4.82
235.33	0.65
235.713	4.96
236.096	2.21
236.479	2.07
236.862	3.61
237.245	4.02
237.628	3.14
238.011	5.64
238.394	3.19
238.777	2.1
239.16	3.95
239.543	1
239.925	5.44
240.308	4.88
240.691	3.97
241.073	1.77
241.456	1.56
241.838	3.51
242.221	3.83
242.603	2.83
242.986	2.5
243.368	2.38
243.75	2.44
244.133	2.74
244.515	2.38
244.897	2.56
245.279	2.76
245.661	3.39
246.043	3.06
246.425	3.17
246.807	2.13
247.189	3.93
247.571	2.76
247.953	2.99
248.335	3.07
248.717	2.84
249.098	2.55
249.48	2.64
249.862	2.54
250.243	3.03
250.625	2.87
251.006	3.18
251.388	2.05
251.769	3.81
252.151	2.16
252.532	3.08
252.913	3.28
253.295	3.23
253.676	3.05
254.057	2.6
254.438	2.31
254.819	3.22
255.2	3.16
255.581	3.1
255.962	2.03
256.343	4.21
256.724	3.05
257.105	2.92
257.486	2.81
257.867	3.62
258.247	3.67
258.628	2.36
259.009	1.72
259.389	2.89
259.77	2.34
260.15	2.63
260.531	2.73
260.911	2.56
261.292	2.91
261.672	2.5
262.052	2.5
262.432	2.31
262.813	2.71
263.193	2.69
263.573	2.72
263.953	2.62
264.333	2.55
264.713	2.45
265.093	3.27
265.473	2.93
265.853	3.28
266.233	3.04
266.612	3.06
266.992	3.64
267.372	2.68
267.752	3.15
268.131	2.74
268.511	2.33
268.89	2.53
269.27	2.52
269.649	2.17
270.029	2.95
270.408	2.76
270.787	2.31
271.167	2.66
271.546	2.35
271.925	1.98
272.304	2.58
272.683	2.66
273.062	2.2
273.441	2.78
273.82	2.71
274.199	2.91
274.578	2.37
274.957	2.18
275.336	2.6
275.715	2.64
276.093	2.94
276.472	3.01
276.851	2.66
277.229	2.45
277.608	2.83
277.986	2.76
278.365	2.11
278.743	3.07
279.122	2.31
279.5	2.4
279.878	2.29
280.257	2.44
280.635	2.43
281.013	2.42
281.391	1.96
281.769	2.86
282.147	2.6
282.525	2.73
282.903	2.32
283.281	3.15
283.659	2.69
284.037	2.91
284.415	2.43
284.792	2.6
285.17	2.66
285.548	2.73
285.925	2.82
286.303	2.88
286.68	2.68
287.058	2.86
287.435	2.51
287.813	3.16
288.19	2.61
288.567	2.68
288.945	2.89
289.322	2.97
289.699	3.16
290.076	2.88
290.453	3
290.83	2.9
291.207	2.65
291.584	2.6
291.961	2.9
292.338	3.04
292.715	2.44
293.092	2.68
293.469	3.49
293.845	3.31
294.222	3.55
294.599	2.92
294.975	3.19
295.352	3.23
295.728	3.63
296.105	3.22
296.481	2.92
296.858	3.16
297.234	3
297.61	2.93
297.986	3.35
298.363	3.09
298.739	3.26
299.115	3.14
299.491	3.04
299.867	3.07
300.243	3.11
300.619	4.1
300.995	3.78
301.371	3.29
301.746	4.1
302.122	3.43
302.498	3.32
302.874	3.1
303.249	3.65
303.625	3.26
304	3.61
304.376	3.06
304.751	3.06
305.127	3.64
305.502	4.04
305.878	3.77
306.253	3.65
306.628	3.65
307.003	3.26
307.378	4.06
307.754	4.33
308.129	4.07
308.504	3.83
308.879	3.94
309.254	4.13
309.629	4.2
310.003	4.06
310.378	3.87
310.753	3.93
311.128	3.88
311.502	3.76
311.877	3.8
312.252	3.81
312.626	3.98
313.001	4.09
313.375	4.22
313.75	3.87
314.124	3.77
314.498	4.32
314.873	4.25
315.247	4.45
315.621	4.05
315.995	4.88
316.369	4.65
316.743	4.02
317.117	4
317.491	4.79
317.865	5.06
318.239	5.03
318.613	4.46
318.987	4.89
319.361	4.17
319.734	4.6
320.108	4.32
320.482	4.2
320.855	4.57
321.229	5.2
321.602	4.39
321.976	5.31
322.349	5.15
322.723	5.13
323.096	5.36
323.469	4.79
323.843	4.37
324.216	5.83
324.589	5.4
324.962	5.31
325.335	4.9
325.708	5.4
326.081	5.01
326.454	5.81
326.827	5.22
327.2	4.94
327.573	5.32
327.945	5.45
328.318	5.08
328.691	4.97
329.063	5.63
329.436	5.62
329.809	5.99
330.181	5.77
330.553	5.18
330.926	5.51
331.298	5.8
331.671	5.54
332.043	5.57
332.415	5.79
332.787	5.02
333.159	5.72
333.532	5.42
333.904	5.56
334.276	5.75
334.648	5.7
335.02	5.96
335.391	5.68
335.763	5.89
336.135	5.96
336.507	5.99
336.879	6.3
337.25	6.22
337.622	5.79
337.993	5.99
338.365	6.37
338.736	6.13
339.108	6.23
339.479	5.97
339.851	6.26
340.222	6.7
340.593	5.74
340.964	6.62
341.336	6.21
341.707	6.61
342.078	5.89
342.449	5.79
342.82	6.36
343.191	5.83
343.562	6.48
343.933	6.52
344.303	5.85
344.674	6.5
345.045	6.91
345.416	6.49
345.786	6.84
346.157	6.7
346.527	6.77
346.898	6.92
347.268	6.66
347.639	6.85
348.009	6.75
348.38	6.81
348.75	6.81
349.12	6.78
349.49	6.5
349.861	7.18
350.231	6.2
350.601	6.92
350.971	7.15
351.341	6.85
351.711	6.91
352.081	6.79
352.45	6.66
352.82	6.82
353.19	7.52
353.56	7.32
353.929	6.82
354.299	7.22
354.669	7.48
355.038	7.3
355.408	7.32
355.777	7.19
356.147	7.49
356.516	7.55
356.885	7.29
357.254	7.46
357.624	7.29
357.993	7.48
358.362	7.33
358.731	7.52
359.1	7.74
359.469	7.4
359.838	7.72
360.207	7.57
360.576	7.76
360.945	7.56
361.314	7.47
361.682	7.48
362.051	7.89
362.42	8.06
362.788	7.79
363.157	7.84
363.525	7.95
363.894	7.95
364.262	7.51
364.631	8.13
364.999	8.1
365.367	8.14
365.735	8
366.104	8.21
366.472	8.19
366.84	8.15
367.208	8.33
367.576	8.28
367.944	8.27
368.312	8.54
368.68	8.3
369.048	8.21
369.416	8.43
369.783	8.44
370.151	8.16
370.519	8.37
370.886	8.54
371.254	8.78
371.621	8.65
371.989	8.65
372.356	9
372.724	8.62
373.091	8.85
373.458	8.9
373.826	8.46
374.193	8.97
374.56	8.69
374.927	8.96
375.294	9.19
375.661	8.73
376.028	8.56
376.395	8.94
376.762	8.89
377.129	8.75
377.496	9.06
377.863	9.02
378.229	8.94
378.596	9.14
378.963	9.25
379.329	9.45
379.696	9.43
380.062	9.35
380.429	9.04
380.795	9.26
381.161	9.43
381.528	9.64
381.894	9.58
382.26	9.6
382.626	9.1
382.993	9.28
383.359	9.65
383.725	9.93
384.091	9.43
384.457	9.64
384.823	9.55
385.188	9.94
385.554	9.67
385.92	9.89
386.286	9.8
386.651	9.71
387.017	10
387.383	9.83
387.748	9.96
388.114	9.92
388.479	10.07
388.845	9.77
389.21	9.83
389.575	9.93
389.94	9.7
390.306	10.23
390.671	10.44
391.036	10.22
391.401	10.43
391.766	10.06
392.131	10.45
392.496	10.23
392.861	10.29
393.226	10.4
393.591	10.39
393.956	10.59
394.32	10.43
394.685	10.15
395.05	10.51
395.414	10.46
395.779	10.42
396.143	10.55
396.508	10.55
396.872	10.75
397.236	10.68
397.601	10.45
397.965	10.87
398.329	10.81
398.694	10.63
399.058	10.89
399.422	11.08
399.786	11.16
400.15	10.81
400.514	10.84
400.878	11.06
401.242	10.79
401.605	11.2
401.969	11.43
402.333	10.87
402.697	10.54
403.06	11.13
403.424	11.15
403.787	11.12
404.151	11.25
404.514	11.11
404.878	11.17
405.241	11.22
405.604	11.26
405.968	11.2
406.331	11.03
406.694	11.2
407.057	11.25
407.42	11.36
407.783	11.37
408.146	11.41
408.509	11.43
408.872	11.51
409.235	11.58
409.598	11.74
409.961	11.61
410.323	11.58
410.686	11.53
411.049	11.86
411.411	11.76
411.774	11.54
412.136	11.58
412.499	11.59
412.861	11.38
413.223	11.6
413.586	11.8
413.948	11.64
414.31	11.68
414.672	11.96
415.035	11.78
415.397	12.02
415.759	12.12
416.121	12.24
416.483	12.04
416.845	11.98
417.206	12.13
417.568	11.99
417.93	12.17
418.292	12.2
418.653	12.21
419.015	12.04
419.377	12.09
419.738	12.27
420.1	12.17
420.461	12.23
420.822	12.28
421.184	12.28
421.545	12.2
421.906	12.28
422.267	12.16
422.629	12.16
422.99	12.18
423.351	12.22
423.712	12.17
424.073	12.2
424.434	12.41
424.795	12.51
425.155	12.47
425.516	12.47
425.877	12.49
426.238	12.56
426.598	12.5
426.959	12.68
427.32	12.61
427.68	12.73
428.041	12.73
428.401	12.93
428.761	12.94
429.122	13.09
429.482	12.89
429.842	13.16
430.202	13.06
430.563	13.25
430.923	13.24
431.283	13.32
431.643	13.05
432.003	13.32
432.363	13.6
432.722	13.38
433.082	13.46
433.442	13.47
433.802	13.46
434.161	13.66
434.521	13.59
434.881	13.27
435.24	13.49
435.6	13.53
435.959	13.58
436.319	13.42
436.678	13.68
437.037	13.79
437.396	13.65
437.756	13.69
438.115	13.81
438.474	13.85
438.833	13.96
439.192	14.02
439.551	13.95
439.91	13.85
440.269	13.99
440.628	14.06
440.987	14.09
441.345	13.92
441.704	13.95
442.063	14.04
442.421	14.04
442.78	13.91
443.138	14.04
443.497	14.19
443.855	14.2
444.214	14.27
444.572	14.31
444.93	14.29
445.288	14.39
445.647	14.51
446.005	14.55
446.363	14.52
446.721	14.36
447.079	14.41
447.437	14.5
447.795	14.42
448.153	14.27
448.51	14.37
448.868	14.37
449.226	14.53
449.584	14.45
449.941	14.69
450.299	14.7
450.656	14.78
451.014	14.9
451.371	14.85
451.729	14.79
452.086	14.97
452.443	15.01
452.801	15.04
453.158	15.07
453.515	15.14
453.872	15.09
454.229	15.2
454.586	15.14
454.943	15.23
455.3	15.23
455.657	15.33
456.014	15.35
456.371	15.33
456.727	15.51
457.084	15.33
457.441	15.58
457.797	15.28
458.154	15.47
458.51	15.63
458.867	15.75
459.223	15.74
459.58	15.61
459.936	15.68
460.292	15.66
460.648	15.64
461.005	15.69
461.361	15.43
461.717	15.55
462.073	15.6
462.429	15.49
462.785	15.66
463.141	15.68
463.496	15.79
463.852	15.86
464.208	15.97
464.564	16.06
464.919	16.06
465.275	16.14
465.631	16.21
465.986	16.16
466.342	16.1
466.697	16.29
467.052	16.38
467.408	16.36
467.763	16.36
468.118	16.31
468.473	16.55
468.829	16.42
469.184	16.45
469.539	16.49
469.894	16.54
470.249	16.59
470.603	16.58
470.958	16.59
471.313	16.8
471.668	16.75
472.023	16.65
472.377	16.82
472.732	16.76
473.086	16.89
473.441	16.88
473.795	16.96
474.15	16.84
474.504	17
474.859	16.93
475.213	17.16
475.567	17.06
475.921	17.21
476.275	16.98
476.63	17.13
476.984	17.28
477.338	17.16
477.692	17.1
478.045	17.18
478.399	17.18
478.753	17.32
479.107	17.31
479.461	17.18
479.814	17.24
480.168	17.34
480.521	17.34
480.875	17.29
481.228	17.37
481.582	17.49
481.935	17.54
482.289	17.5
482.642	17.24
482.995	17.64
483.348	17.28
483.701	17.38
484.055	17.51
484.408	17.29
484.761	17.09
485.114	16.92
485.466	16.81
485.819	16.84
486.172	16.81
486.525	16.86
486.878	16.93
487.23	17
487.583	17.24
487.936	17.44
488.288	17.33
488.641	17.31
488.993	17.22
489.345	17.28
489.698	17.21
490.05	17.24
490.402	17.31
490.754	17.41
491.107	17.53
491.459	17.54
491.811	17.83
492.163	17.98
492.515	17.86
492.866	17.79
493.218	17.5
493.57	17.55
493.922	17.71
494.274	17.74
494.625	17.89
494.977	18.1
495.328	18.25
495.68	18.46
496.031	18.46
496.383	18.64
496.734	18.63
497.086	18.57
497.437	18.88
497.788	18.8
498.139	18.63
498.49	18.58
498.842	18.58
499.193	18.68
499.544	18.67
499.894	18.66
500.245	18.99
500.596	18.89
500.947	18.84
501.298	19.01
501.648	19.08
501.999	19.14
502.35	19.23
502.7	19.25
503.051	19.28
503.401	19.3
503.752	19.36
504.102	19.25
504.452	19.39
504.803	19.45
505.153	19.61
505.503	19.4
505.853	19.58
506.203	19.48
506.553	19.56
506.903	19.3
507.253	19.58
507.603	19.66
507.953	19.7
508.303	19.78
508.652	19.69
509.002	19.83
509.352	19.77
509.701	19.67
510.051	19.83
510.4	19.54
510.75	19.75
511.099	19.68
511.449	19.62
511.798	19.85
512.147	19.87
512.496	19.86
512.846	19.83
513.195	19.71
513.544	19.99
513.893	19.95
514.242	19.95
514.591	20.01
514.939	20.09
515.288	20.15
515.637	20.25
515.986	20.19
516.334	20.16
516.683	20.33
517.032	20.36
517.38	20.39
517.729	20.43
518.077	20.33
518.426	20.35
518.774	20.32
519.122	20.3
519.47	20.24
519.819	20.31
520.167	20.04
520.515	20.19
520.863	20.3
521.211	20.21
521.559	20.45
521.907	20.38
522.255	20.52
522.602	20.57
522.95	20.6
523.298	20.69
523.645	20.76
523.993	20.86
524.341	20.89
524.688	20.85
525.036	21.1
525.383	20.93
525.73	21.01
526.078	21.06
526.425	20.89
526.772	20.87
527.119	20.76
527.466	20.68
527.814	20.63
528.161	20.72
528.508	20.85
528.854	20.85
529.201	20.79
529.548	20.69
529.895	20.55
530.242	20.44
530.588	20.48
530.935	20.46
531.282	20.57
531.628	20.49
531.975	20.62
532.321	20.79
532.667	20.99
533.014	21.09
533.36	21.19
533.706	21.27
534.052	21.3
534.399	21.12
534.745	21.11
535.091	20.94
535.437	21.01
535.783	21.1
536.129	21.17
536.474	21.24
536.82	21.39
537.166	21.58
537.512	21.48
537.857	21.75
538.203	21.52
538.549	21.57
538.894	21.53
539.239	21.59
539.585	21.77
539.93	21.84
540.276	22.02
540.621	22.18
540.966	22.17
541.311	22.22
541.656	22.01
542.001	22.14
542.346	22.01
542.691	21.82
543.036	21.6
543.381	21.67
543.726	21.68
544.071	21.65
544.415	21.84
544.76	21.87
545.105	22.05
545.449	22.11
545.794	22.24
546.138	22.28
546.483	22.46
546.827	22.4
547.171	22.55
547.516	22.53
547.86	22.55
548.204	22.55
548.548	22.46
548.892	22.54
549.236	22.69
549.58	22.69
549.924	22.91
550.268	23.04
550.612	22.99
550.956	23.01
551.3	23.05
551.643	23.04
551.987	23.24
552.33	23.47
552.674	23.46
553.017	23.53
553.361	23.46
553.704	23.33
554.048	23.41
554.391	23.45
554.734	23.42
555.077	23.43
555.42	23.28
555.764	23.6
556.107	23.6
556.45	23.5
556.793	23.63
557.135	23.65
557.478	23.82
557.821	23.94
558.164	23.8
558.507	23.8
558.849	23.95
559.192	23.94
559.534	24.12
559.877	24.13
560.219	24.18
560.562	24.3
560.904	24.34
561.246	24.13
561.589	24.31
561.931	24.41
562.273	24.47
562.615	24.29
562.957	24.09
563.299	24.12
563.641	24.23
563.983	24.26
564.325	24.18
564.667	24.47
565.008	24.35
565.35	24.48
565.692	24.44
566.033	24.57
566.375	24.49
566.716	24.35
567.058	24.49
567.399	24.44
567.741	24.27
568.082	24.31
568.423	24.5
568.764	24.34
569.105	24.43
569.447	24.46
569.788	24.49
570.129	24.58
570.47	24.61
570.811	24.92
571.151	25.07
571.492	25
571.833	24.76
572.174	24.88
572.514	24.88
572.855	24.96
573.195	25.04
573.536	24.91
573.876	24.74
574.217	24.87
574.557	24.97
574.898	24.92
575.238	25.06
575.578	25.03
575.918	24.94
576.258	25.14
576.598	25.04
576.938	25.19
577.278	25.27
577.618	25.11
577.958	25.11
578.298	25.15
578.638	25.43
578.977	25.52
579.317	25.58
579.657	25.58
579.996	25.31
580.336	25.58
580.675	25.68
581.014	25.62
581.354	25.62
581.693	25.66
582.032	26.08
582.372	25.86
582.711	25.57
583.05	26.09
583.389	25.96
583.728	26.13
584.067	25.77
584.406	25.82
584.745	25.97
585.083	26.13
585.422	26.15
585.761	26.14
586.1	26.18
586.438	26.13
586.777	25.95
587.115	26.29
587.454	26.26
587.792	26.16
588.13	26.25
588.469	26.45
588.807	26.16
589.145	26.6
589.483	26.59
589.821	26.42
590.159	26.49
590.497	26.52
590.835	26.42
591.173	26.62
591.511	26.41
591.849	26.47
592.187	26.66
592.524	26.89
592.862	26.69
593.2	26.69
593.537	26.63
593.875	26.68
594.212	26.73
594.55	26.41
594.887	26.93
595.224	26.75
595.561	26.82
595.899	26.67
596.236	26.66
596.573	27.13
596.91	26.95
597.247	26.87
597.584	26.77
597.921	26.78
598.258	26.64
598.594	27.1
598.931	26.69
599.268	26.9
599.604	26.94
599.941	27.14
600.277	26.96
600.614	27.11
600.95	26.96
601.287	27.32
601.623	27.35
601.959	27.27
602.296	27.47
602.632	27.27
602.968	27.18
603.304	27.47
603.64	27.67
603.976	27.3
604.312	27.54
604.648	27.72
604.984	27.42
605.319	27.52
605.655	27.37
605.991	27.35
606.326	27.37
606.662	27.63
606.998	27.65
607.333	27.44
607.668	27.26
608.004	27.41
608.339	27.63
608.674	27.85
609.01	27.79
609.345	27.79
609.68	27.97
610.015	28.03
610.35	27.99
610.685	27.7
611.02	27.75
611.355	27.83
611.689	27.76
612.024	27.81
612.359	28.15
612.694	28.07
613.028	28.05
613.363	28.33
613.697	28.39
614.032	28.06
614.366	28.24
614.7	28.31
615.035	28.49
615.369	28.11
615.703	28.45
616.037	28.33
616.371	28.72
616.705	28.65
617.039	28.42
617.373	28.66
617.707	28.66
618.041	28.88
618.375	28.82
618.709	28.53
619.042	28.79
619.376	28.76
619.71	28.82
620.043	28.75
620.377	28.7
620.71	28.57
621.043	29.04
621.377	28.86
621.71	28.71
622.043	29.24
622.376	28.41
622.709	29.08
623.043	29.12
623.376	29.17
623.709	28.94
624.041	29.33
624.374	28.73
624.707	28.9
625.04	29.39
625.373	29.1
625.705	29.23
626.038	29.19
626.37	29.05
626.703	29.41
627.035	29.32
627.368	29.15
627.7	29.24
628.032	29.24
628.365	29.37
628.697	29.32
629.029	29.38
629.361	29.46
629.693	29.15
630.025	29.56
630.357	29.3
630.689	29.35
631.021	29.65
631.353	29.88
631.684	29.67
632.016	29.75
632.348	29.48
632.679	29.57
633.011	29.53
633.342	30
633.674	29.76
634.005	29.79
634.336	29.91
634.668	29.74
634.999	29.98
635.33	29.78
635.661	29.78
635.992	29.74
636.323	30.14
636.654	30.26
636.985	30
637.316	30.3
637.647	30.37
637.977	29.94
638.308	30.06
638.639	29.93
638.969	30.35
639.3	30.14
639.63	29.71
639.961	30.24
640.291	30.18
640.622	29.89
640.952	30.13
641.282	30.4
641.612	30.25
641.943	30.36
642.273	30.96
642.603	30.96
642.933	30.78
643.263	30.67
643.592	30.49
643.922	31.09
644.252	30.95
644.582	30.7
644.911	30.93
645.241	30.86
645.571	31.16
645.9	31
646.23	31.23
646.559	31.02
646.888	31
647.218	30.43
647.547	30.81
647.876	30.75
648.205	31.33
648.534	31.08
648.863	30.67
649.192	31.08
649.521	30.87
649.85	30.77
650.179	30.95
650.508	30.52
650.837	31.08
651.165	31.5
651.494	31.33
651.822	31.38
652.151	31.39
652.479	31.66
652.808	30.94
653.136	31.31
653.465	31.1
653.793	31.33
654.121	31.12
654.449	31.29
654.777	31.43
655.105	31.43
655.433	31.34
655.761	31.68
656.089	31.26
656.417	31.35
656.745	31.4
657.073	30.52
657.4	31.51
657.728	31.96
658.056	31.64
658.383	31.8
658.711	31.81
659.038	31.17
659.365	31.74
659.693	31.69
660.02	31.6
660.347	31.52
660.674	31.41
661.001	31.76
661.329	31.48
661.656	31.79
661.982	31.95
662.309	31.68
662.636	31.81
662.963	32.2
663.29	32.13
663.616	31.81
663.943	32.37
664.27	32.09
664.596	32.29
664.923	32.27
665.249	32.24
665.576	32.36
665.902	32.23
666.228	32.84
666.554	32.25
666.881	31.8
667.207	32.02
667.533	32.18
667.859	32.21
668.185	32.19
668.511	32.19
668.837	31.94
669.162	32.06
669.488	32.39
669.814	32.54
670.139	32.92
670.465	32.76
670.791	32.72
671.116	32.42
671.442	33.1
671.767	32.52
672.092	32.03
672.418	33.03
672.743	32.29
673.068	31.97
673.393	32.34
