Data from 97281_chest_Reflection__3__49.txt Node

Date: Fri Sep 23 20:05:18 CDT 2022
User: ToomeyLab
Spectrometer: FLMS14357
Trigger mode: 0
Integration Time (sec): 1.000000E-2
Scans to average: 100
Electric dark correction enabled: true
Nonlinearity correction enabled: false
Boxcar width: 0
XAxis mode: Wavelengths
Number of Pixels in Spectrum: 2048
>>>>>Begin Spectral Data<<<<<
189.047	-37.75
189.435	-37.75
189.823	-37.75
190.211	-25.58
190.599	-65.71
190.987	615.01
191.375	563.09
191.763	55.71
192.151	-7.81
192.538	196.14
192.926	93.31
193.314	144.47
193.702	97.41
194.089	-173.07
194.477	112.74
194.864	250.03
195.252	475.84
195.639	-158.77
196.027	136.04
196.414	212.32
196.801	73.03
197.189	-57.9
197.576	40.14
197.963	-20.32
198.351	49.91
198.738	-100.08
199.125	14.6
199.512	5.04
199.899	-47.91
200.286	-31.6
200.673	15.6
201.06	9.43
201.447	2.42
201.833	8.77
202.22	1.27
202.607	19.2
202.994	-25.89
203.38	-53.75
203.767	-42.1
204.154	24.49
204.54	0.17
204.927	25.65
205.313	43.83
205.699	-30.66
206.086	2.89
206.472	34.39
206.858	30.17
207.245	-7.43
207.631	-21.07
208.017	-2.42
208.403	-2.61
208.789	1.03
209.175	25.85
209.561	4.12
209.947	-27.79
210.333	-12.25
210.719	14.73
211.105	27.43
211.491	18.71
211.876	60.45
212.262	-20.18
212.648	-12.1
213.034	-53.75
213.419	-23.35
213.805	43.09
214.19	0.07
214.576	5.41
214.961	-3.93
215.346	-22.75
215.732	8.03
216.117	-12.42
216.502	8.19
216.888	-8.01
217.273	9.57
217.658	-7.1
218.043	8.42
218.428	8.44
218.813	32.62
219.198	4.82
219.583	7.46
219.968	-3.21
220.353	5.3
220.738	9.85
221.122	-2.04
221.507	8.56
221.892	-1.4
222.276	-34.89
222.661	-1.2
223.046	8.98
223.43	-13.85
223.815	0.2
224.199	0.5
224.583	3.78
224.968	1.38
225.352	11.12
225.736	-2.25
226.121	11.89
226.505	10.34
226.889	-3.5
227.273	-1.49
227.657	2.32
228.041	5.31
228.425	2.06
228.809	4.16
229.193	3.01
229.577	4.76
229.961	4.88
230.344	3.19
230.728	2.98
231.112	2.53
231.495	2.28
231.879	0.87
232.263	3.57
232.646	3.75
233.03	2.45
233.413	4.31
233.797	2.33
234.18	6.19
234.563	3.4
234.946	4.96
235.33	2.03
235.713	4.63
236.096	1.44
236.479	1.57
236.862	2.92
237.245	3.63
237.628	1.95
238.011	3.12
238.394	3.5
238.777	2.24
239.16	2.07
239.543	3.32
239.925	1.56
240.308	4.07
240.691	5.01
241.073	2.25
241.456	2.65
241.838	4.03
242.221	3.42
242.603	4.72
242.986	2.6
243.368	2.67
243.75	3.22
244.133	3.23
244.515	3.26
244.897	3.47
245.279	3.65
245.661	3.97
246.043	4.02
246.425	2.91
246.807	2.01
247.189	3.54
247.571	3.51
247.953	3.43
248.335	3.25
248.717	3.52
249.098	3.2
249.48	3.21
249.862	3.29
250.243	3.54
250.625	3.36
251.006	4.05
251.388	3.6
251.769	3.75
252.151	2.08
252.532	3.19
252.913	3.44
253.295	3.3
253.676	3.87
254.057	3.48
254.438	3.82
254.819	3.53
255.2	3.26
255.581	4.61
255.962	2.65
256.343	4.3
256.724	2.98
257.105	3.32
257.486	3
257.867	2.88
258.247	3.2
258.628	2.51
259.009	2.74
259.389	3.16
259.77	2.42
260.15	3.23
260.531	2.97
260.911	3.28
261.292	3.17
261.672	3.01
262.052	2.86
262.432	3.18
262.813	3.14
263.193	2.85
263.573	3.05
263.953	2.37
264.333	2.74
264.713	3.15
265.093	3.47
265.473	3.11
265.853	2.65
266.233	2.34
266.612	2.98
266.992	3.84
267.372	2.64
267.752	3.18
268.131	3.82
268.511	3.02
268.89	2.82
269.27	2.77
269.649	2.86
270.029	3.07
270.408	3.62
270.787	2.88
271.167	3.39
271.546	2.91
271.925	2.76
272.304	3.31
272.683	3.12
273.062	2.74
273.441	3.03
273.82	3.13
274.199	2.86
274.578	2.76
274.957	3.02
275.336	2.98
275.715	2.9
276.093	3.71
276.472	3.66
276.851	3.55
277.229	3.12
277.608	3.02
277.986	2.63
278.365	3.03
278.743	3.53
279.122	2.54
279.5	2.93
279.878	2.41
280.257	2.86
280.635	2.15
281.013	2.86
281.391	3.22
281.769	3.34
282.147	2.61
282.525	3.34
282.903	2.23
283.281	2.83
283.659	3.18
284.037	3.19
284.415	3.17
284.792	3
285.17	2.76
285.548	3.01
285.925	3.12
286.303	3.45
286.68	2.98
287.058	2.9
287.435	2.88
287.813	3.39
288.19	3.04
288.567	2.8
288.945	3.13
289.322	3.11
289.699	2.9
290.076	3.07
290.453	3.03
290.83	3.11
291.207	2.88
291.584	3
291.961	3.1
292.338	3.11
292.715	2.8
293.092	2.89
293.469	3.17
293.845	3.23
294.222	3.32
294.599	2.75
294.975	3.44
295.352	3.31
295.728	2.96
296.105	2.89
296.481	2.81
296.858	2.88
297.234	2.86
297.61	2.89
297.986	2.89
298.363	2.85
298.739	3.16
299.115	2.96
299.491	2.99
299.867	2.85
300.243	3.09
300.619	3.18
300.995	3.18
301.371	2.43
301.746	3.63
302.122	3.13
302.498	3.08
302.874	2.94
303.249	2.87
303.625	2.8
304	3.17
304.376	2.91
304.751	3.06
305.127	3.29
305.502	3.55
305.878	3.41
306.253	2.91
306.628	2.88
307.003	2.92
307.378	2.91
307.754	3.78
308.129	2.92
308.504	3.24
308.879	3.36
309.254	3.07
309.629	3.05
310.003	3.27
310.378	2.96
310.753	2.88
311.128	2.62
311.502	3.06
311.877	2.78
312.252	3.01
312.626	2.99
313.001	2.92
313.375	3.22
313.75	3.04
314.124	2.83
314.498	3.36
314.873	3.22
315.247	3.13
315.621	2.85
315.995	3.25
316.369	2.94
316.743	3.02
317.117	2.61
317.491	2.65
317.865	3.14
318.239	3.74
318.613	2.6
318.987	2.54
319.361	3.06
319.734	3.28
320.108	2.85
320.482	3.48
320.855	2.76
321.229	3.21
321.602	2.96
321.976	3.04
322.349	3.17
322.723	3
323.096	3.23
323.469	2.34
323.843	2.31
324.216	3.07
324.589	2.71
324.962	3.46
325.335	2.89
325.708	3.19
326.081	2.9
326.454	2.99
326.827	2.77
327.2	2.68
327.573	3.23
327.945	3.02
328.318	2.77
328.691	3.11
329.063	3.35
329.436	2.97
329.809	3.67
330.181	3.06
330.553	2.28
330.926	2.81
331.298	3.07
331.671	2.94
332.043	3.52
332.415	3.01
332.787	2.76
333.159	3.27
333.532	2.73
333.904	2.61
334.276	2.72
334.648	2.76
335.02	3.04
335.391	2.99
335.763	2.6
336.135	3.12
336.507	3.13
336.879	3.09
337.25	3.27
337.622	3.11
337.993	2.95
338.365	2.99
338.736	3.39
339.108	3.73
339.479	2.66
339.851	3.33
340.222	3.3
340.593	2.82
340.964	2.81
341.336	3.02
341.707	3.51
342.078	3.08
342.449	2.58
342.82	3.36
343.191	2.9
343.562	3.25
343.933	3.52
344.303	3.03
344.674	3
345.045	3.38
345.416	3.14
345.786	3.36
346.157	2.92
346.527	3.07
346.898	3.09
347.268	2.84
347.639	3.16
348.009	3.24
348.38	2.95
348.75	2.94
349.12	3.06
349.49	3.03
349.861	3.24
350.231	3.14
350.601	2.98
350.971	3.41
351.341	3.19
351.711	3.09
352.081	2.89
352.45	2.69
352.82	2.79
353.19	3.49
353.56	3.21
353.929	2.81
354.299	3
354.669	3.04
355.038	3.49
355.408	3.12
355.777	3.49
356.147	2.8
356.516	3.29
356.885	3.02
357.254	2.83
357.624	3.11
357.993	3.3
358.362	3.33
358.731	3.14
359.1	3.2
359.469	3.1
359.838	3.17
360.207	3.24
360.576	3.1
360.945	3.09
361.314	2.84
361.682	2.87
362.051	3.5
362.42	3.35
362.788	3.05
363.157	3.22
363.525	3.37
363.894	3.42
364.262	2.84
364.631	3.25
364.999	3.14
365.367	3.13
365.735	3.13
366.104	3.09
366.472	3.24
366.84	3.13
367.208	3.13
367.576	3.35
367.944	3.21
368.312	3.03
368.68	3.16
369.048	3.17
369.416	3.27
369.783	3.29
370.151	3.04
370.519	3.15
370.886	3.06
371.254	3.39
371.621	3.15
371.989	2.91
372.356	3.58
372.724	3.21
373.091	3.12
373.458	3.15
373.826	3.2
374.193	3.38
374.56	3.17
374.927	3.42
375.294	3.67
375.661	3.22
376.028	3.21
376.395	3.28
376.762	3.24
377.129	3.29
377.496	3.43
377.863	3.2
378.229	3.24
378.596	3.01
378.963	3.5
379.329	3.48
379.696	3.26
380.062	3.3
380.429	3.17
380.795	3.14
381.161	3.47
381.528	3.28
381.894	3.36
382.26	3.48
382.626	3.11
382.993	3.4
383.359	3.6
383.725	3.51
384.091	3.35
384.457	3.38
384.823	3.26
385.188	3.33
385.554	3.46
385.92	3.55
386.286	3.56
386.651	3.5
387.017	3.44
387.383	3.47
387.748	3.49
388.114	3.26
388.479	3.6
388.845	3.26
389.21	3.14
389.575	3.32
389.94	3.29
390.306	3.12
390.671	3.11
391.036	3.16
391.401	3.51
391.766	3.46
392.131	3.35
392.496	3.42
392.861	3.52
393.226	3.24
393.591	3.53
393.956	3.48
394.32	3.47
394.685	3.36
395.05	3.39
395.414	3.51
395.779	3.22
396.143	3.4
396.508	3.48
396.872	3.36
397.236	3.64
397.601	3.64
397.965	3.66
398.329	3.4
398.694	3.39
399.058	3.29
399.422	3.65
399.786	3.58
400.15	3.58
400.514	3.35
400.878	3.41
401.242	3.39
401.605	3.93
401.969	3.77
402.333	3.6
402.697	3.29
403.06	3.46
403.424	3.46
403.787	3.48
404.151	3.58
404.514	3.55
404.878	3.4
405.241	3.4
405.604	3.5
405.968	3.2
406.331	3.54
406.694	3.61
407.057	3.48
407.42	3.58
407.783	3.35
408.146	3.48
408.509	3.38
408.872	3.54
409.235	3.7
409.598	3.75
409.961	3.5
410.323	3.37
410.686	3.62
411.049	3.66
411.411	3.54
411.774	3.27
412.136	3.39
412.499	3.44
412.861	3.42
413.223	3.51
413.586	3.54
413.948	3.48
414.31	3.48
414.672	3.65
415.035	3.46
415.397	3.78
415.759	3.82
416.121	3.55
416.483	3.46
416.845	3.34
417.206	3.63
417.568	3.48
417.93	3.5
418.292	3.55
418.653	3.62
419.015	3.64
419.377	3.44
419.738	3.55
420.1	3.61
420.461	3.45
420.822	3.63
421.184	3.59
421.545	3.55
421.906	3.57
422.267	3.49
422.629	3.45
422.99	3.47
423.351	3.54
423.712	3.45
424.073	3.47
424.434	3.54
424.795	3.59
425.155	3.55
425.516	3.67
425.877	3.56
426.238	3.54
426.598	3.53
426.959	3.48
427.32	3.52
427.68	3.5
428.041	3.61
428.401	3.71
428.761	3.68
429.122	3.6
429.482	3.74
429.842	3.77
430.202	3.75
430.563	3.51
430.923	3.9
431.283	3.7
431.643	3.66
432.003	3.55
432.363	3.74
432.722	3.86
433.082	3.55
433.442	3.68
433.802	3.78
434.161	3.83
434.521	3.72
434.881	3.54
435.24	3.63
435.6	3.76
435.959	3.77
436.319	3.67
436.678	3.67
437.037	3.68
437.396	3.88
437.756	3.73
438.115	3.72
438.474	3.72
438.833	3.72
439.192	3.78
439.551	3.79
439.91	3.71
440.269	3.83
440.628	3.79
440.987	3.7
441.345	3.73
441.704	3.67
442.063	3.79
442.421	3.59
442.78	3.72
443.138	3.6
443.497	3.7
443.855	3.78
444.214	3.8
444.572	3.76
444.93	3.68
445.288	3.79
445.647	3.98
446.005	3.82
446.363	3.72
446.721	3.67
447.079	3.74
447.437	3.75
447.795	3.73
448.153	3.59
448.51	3.67
448.868	3.77
449.226	3.74
449.584	3.7
449.941	3.78
450.299	3.85
450.656	3.72
451.014	3.89
451.371	3.68
451.729	3.67
452.086	3.92
452.443	3.68
452.801	3.91
453.158	3.93
453.515	3.81
453.872	3.88
454.229	3.95
454.586	3.89
454.943	4.02
455.3	3.81
455.657	3.95
456.014	3.98
456.371	3.82
456.727	3.94
457.084	3.8
457.441	3.93
457.797	3.93
458.154	3.91
458.51	3.91
458.867	4.09
459.223	3.94
459.58	3.91
459.936	3.99
460.292	3.75
460.648	3.99
461.005	3.92
461.361	3.86
461.717	3.91
462.073	3.84
462.429	3.85
462.785	3.89
463.141	3.86
463.496	3.96
463.852	3.93
464.208	4
464.564	4.11
464.919	3.98
465.275	4.05
465.631	3.94
465.986	3.97
466.342	3.77
466.697	3.94
467.052	4.04
467.408	4.04
467.763	4.03
468.118	3.93
468.473	4.03
468.829	3.97
469.184	3.93
469.539	3.99
469.894	4.2
470.249	4.14
470.603	4.07
470.958	4.02
471.313	4.1
471.668	4.02
472.023	3.96
472.377	3.94
472.732	4.01
473.086	4
473.441	4.11
473.795	4.16
474.15	4.01
474.504	4.09
474.859	4.14
475.213	4.17
475.567	4.02
475.921	4.27
476.275	3.98
476.63	4.04
476.984	4.3
477.338	4.17
477.692	4.25
478.045	4.13
478.399	4.24
478.753	4.04
479.107	4.12
479.461	4.11
479.814	4.01
480.168	4.08
480.521	4.09
480.875	4.17
481.228	4.27
481.582	4.19
481.935	4.16
482.289	4.21
482.642	3.99
482.995	4.24
483.348	4.04
483.701	4.09
484.055	4.09
484.408	4.09
484.761	3.98
485.114	3.92
485.466	3.91
485.819	3.86
486.172	3.9
486.525	3.97
486.878	4.01
487.23	4
487.583	4.04
487.936	4.08
488.288	4.06
488.641	4.01
488.993	4.01
489.345	3.98
489.698	3.95
490.05	4.05
490.402	3.99
490.754	4.09
491.107	4.1
491.459	4.09
491.811	4.13
492.163	4.17
492.515	4.16
492.866	4.07
493.218	4.02
493.57	4.07
493.922	4.1
494.274	4.12
494.625	4.16
494.977	4.24
495.328	4.33
495.68	4.27
496.031	4.28
496.383	4.2
496.734	4.36
497.086	4.39
497.437	4.48
497.788	4.38
498.139	4.28
498.49	4.2
498.842	4.27
499.193	4.36
499.544	4.27
499.894	4.28
500.245	4.37
500.596	4.27
500.947	4.34
501.298	4.4
501.648	4.48
501.999	4.45
502.35	4.44
502.7	4.49
503.051	4.34
503.401	4.39
503.752	4.41
504.102	4.56
504.452	4.39
504.803	4.42
505.153	4.53
505.503	4.43
505.853	4.58
506.203	4.42
506.553	4.57
506.903	4.39
507.253	4.5
507.603	4.56
507.953	4.47
508.303	4.51
508.652	4.45
509.002	4.56
509.352	4.61
509.701	4.49
510.051	4.64
510.4	4.57
510.75	4.48
511.099	4.45
511.449	4.44
511.798	4.53
512.147	4.53
512.496	4.46
512.846	4.45
513.195	4.45
513.544	4.65
513.893	4.57
514.242	4.6
514.591	4.57
514.939	4.64
515.288	4.64
515.637	4.67
515.986	4.69
516.334	4.55
516.683	4.78
517.032	4.64
517.38	4.76
517.729	4.59
518.077	4.66
518.426	4.66
518.774	4.64
519.122	4.56
519.47	4.68
519.819	4.75
520.167	4.68
520.515	4.58
520.863	4.7
521.211	4.62
521.559	4.69
521.907	4.72
522.255	4.74
522.602	4.73
522.95	4.82
523.298	4.76
523.645	4.8
523.993	4.85
524.341	4.9
524.688	4.86
525.036	4.86
525.383	4.77
525.73	4.94
526.078	4.81
526.425	4.94
526.772	4.82
527.119	4.73
527.466	4.78
527.814	4.75
528.161	4.92
528.508	4.89
528.854	4.92
529.201	4.84
529.548	4.93
529.895	4.75
530.242	4.71
530.588	4.73
530.935	4.75
531.282	4.78
531.628	4.74
531.975	4.84
532.321	4.87
532.667	4.97
533.014	4.9
533.36	4.98
533.706	4.91
534.052	4.96
534.399	4.89
534.745	4.94
535.091	4.92
535.437	4.98
535.783	4.98
536.129	5.04
536.474	5.08
536.82	5.04
537.166	5.04
537.512	5.06
537.857	5.14
538.203	5.11
538.549	5.03
538.894	5.13
539.239	5.12
539.585	5.24
539.93	5.27
540.276	5.3
540.621	5.31
540.966	5.31
541.311	5.22
541.656	5.32
542.001	5.25
542.346	5.3
542.691	5.22
543.036	5.17
543.381	5.24
543.726	5.19
544.071	5.24
544.415	5.27
544.76	5.24
545.105	5.28
545.449	5.37
545.794	5.38
546.138	5.4
546.483	5.46
546.827	5.6
547.171	5.49
547.516	5.5
547.86	5.44
548.204	5.53
548.548	5.4
548.892	5.54
549.236	5.57
549.58	5.55
549.924	5.65
550.268	5.76
550.612	5.67
550.956	5.75
551.3	5.63
551.643	5.67
551.987	5.7
552.33	5.66
552.674	5.62
553.017	5.71
553.361	5.79
553.704	5.65
554.048	5.69
554.391	5.82
554.734	5.9
555.077	5.77
555.42	5.75
555.764	5.85
556.107	5.94
556.45	6.03
556.793	5.79
557.135	6.08
557.478	6.22
557.821	6.01
558.164	6.06
558.507	5.87
558.849	6.13
559.192	6.16
559.534	6.2
559.877	6.18
560.219	6.09
560.562	6.25
560.904	6.08
561.246	6.05
561.589	6.14
561.931	6.24
562.273	6.36
562.615	6.19
562.957	6.1
563.299	6.17
563.641	6.13
563.983	6.27
564.325	6.34
564.667	6.24
565.008	6.32
565.35	6.54
565.692	6.24
566.033	6.43
566.375	6.59
566.716	6.48
567.058	6.51
567.399	6.26
567.741	6.47
568.082	6.27
568.423	6.23
568.764	6.45
569.105	6.44
569.447	6.32
569.788	6.42
570.129	6.46
570.47	6.45
570.811	6.59
571.151	6.78
571.492	6.52
571.833	6.49
572.174	6.65
572.514	6.81
572.855	6.64
573.195	6.55
573.536	6.82
573.876	6.59
574.217	6.68
574.557	6.85
574.898	6.69
575.238	6.86
575.578	6.7
575.918	6.72
576.258	6.87
576.598	6.84
576.938	6.92
577.278	6.93
577.618	6.78
577.958	7.06
578.298	6.85
578.638	6.94
578.977	7.06
579.317	7.11
579.657	7.21
579.996	6.78
580.336	7.14
580.675	7.16
581.014	7.13
581.354	7.39
581.693	7.07
582.032	7.32
582.372	7.48
582.711	7.25
583.05	7.33
583.389	7.34
583.728	7.3
584.067	7.27
584.406	7.16
584.745	7.25
585.083	7.34
585.422	7.7
585.761	7.47
586.1	7.44
586.438	7.21
586.777	7.41
587.115	7.36
587.454	7.51
587.792	7.72
588.13	7.63
588.469	7.61
588.807	7.5
589.145	7.6
589.483	7.72
589.821	7.48
590.159	7.7
590.497	7.5
590.835	7.62
591.173	7.67
591.511	7.71
591.849	7.4
592.187	7.65
592.524	7.94
592.862	7.76
593.2	8.04
593.537	8.03
593.875	7.98
594.212	8.12
594.55	8.04
594.887	7.82
595.224	7.88
595.561	8.05
595.899	7.78
596.236	7.7
596.573	8.1
596.91	8.1
597.247	8.06
597.584	7.93
597.921	7.98
598.258	7.69
598.594	8.23
598.931	7.97
599.268	8.07
599.604	8.09
599.941	8.23
600.277	8.56
600.614	8.19
600.95	8.31
601.287	8.43
601.623	8.01
601.959	8.16
602.296	8.39
602.632	8.49
602.968	8.21
603.304	8.45
603.64	8.49
603.976	8.29
604.312	8.47
604.648	8.54
604.984	8.63
605.319	8.42
605.655	8.47
605.991	8.28
606.326	8.4
606.662	8.53
606.998	8.66
607.333	8.53
607.668	8.65
608.004	8.49
608.339	8.62
608.674	8.87
609.01	9.06
609.345	8.92
609.68	8.52
610.015	9.08
610.35	8.94
610.685	8.69
611.02	8.82
611.355	8.83
611.689	8.97
612.024	8.99
612.359	8.89
612.694	9.15
613.028	9.05
613.363	9.32
613.697	9.11
614.032	9.09
614.366	9.19
614.7	9.17
615.035	9.29
615.369	9.24
615.703	9.13
616.037	9.02
616.371	9.24
616.705	9.16
617.039	9.4
617.373	9.57
617.707	9.88
618.041	9.63
618.375	9.76
618.709	9.41
619.042	9.42
619.376	9.84
619.71	9.54
620.043	9.4
620.377	9.35
620.71	9.48
621.043	9.62
621.377	9.29
621.71	9.72
622.043	9.48
622.376	9.57
622.709	9.78
623.043	9.6
623.376	9.7
623.709	9.71
624.041	9.65
624.374	9.48
624.707	9.86
625.04	10.09
625.373	9.86
625.705	9.72
626.038	9.56
626.37	9.84
626.703	9.68
627.035	10.3
627.368	10
627.7	9.91
628.032	9.67
628.365	9.88
628.697	10.05
629.029	10.25
629.361	10.13
629.693	10.1
630.025	10.27
630.357	10.1
630.689	10.2
631.021	10.01
631.353	10.53
631.684	10.33
632.016	10.33
632.348	10.15
632.679	10.35
633.011	10.79
633.342	10.41
633.674	10.35
634.005	10.26
634.336	10.71
634.668	10.6
634.999	10.37
635.33	10.44
635.661	10.71
635.992	10.38
636.323	10.64
636.654	10.66
636.985	10.62
637.316	10.75
637.647	10.75
637.977	10.8
638.308	10.53
638.639	10.32
638.969	10.51
639.3	10.63
639.63	10.55
639.961	10.74
640.291	10.4
640.622	10.88
640.952	10.52
641.282	11.16
641.612	10.63
641.943	10.5
642.273	11.53
642.603	11.27
642.933	10.96
643.263	10.85
643.592	10.7
643.922	10.88
644.252	11.27
644.582	11.25
644.911	10.92
645.241	11.3
645.571	11.35
645.9	11.57
646.23	11.33
646.559	11.03
646.888	11.62
647.218	11.35
647.547	11.19
647.876	10.95
648.205	11.09
648.534	11.38
648.863	11.56
649.192	11.8
649.521	11.18
649.85	11.58
650.179	11.69
650.508	11.74
650.837	11.51
651.165	12.08
651.494	11.12
651.822	11.66
652.151	11.5
652.479	11.56
652.808	11.64
653.136	11.58
653.465	11.88
653.793	11.53
654.121	11
654.449	11.69
654.777	12.01
655.105	11.97
655.433	11.78
655.761	11.96
656.089	11.95
656.417	12.27
656.745	12.02
657.073	11.47
657.4	12.39
657.728	11.92
658.056	12.47
658.383	11.84
658.711	11.7
659.038	11.74
659.365	11.87
659.693	12.17
660.02	12.56
660.347	11.5
660.674	11.86
661.001	12.31
661.329	12.31
661.656	12.37
661.982	12.34
662.309	12.16
662.636	11.9
662.963	12.33
663.29	12.91
663.616	12.27
663.943	12.26
664.27	12.25
664.596	12.77
664.923	12.57
665.249	12.62
665.576	12.71
665.902	12.37
666.228	12.77
666.554	12.23
666.881	12.61
667.207	12.25
667.533	12.56
667.859	12.34
668.185	12.74
668.511	12.59
668.837	13.26
669.162	12.94
669.488	12.81
669.814	12.8
670.139	12.5
670.465	13.01
670.791	12.45
671.116	12.23
671.442	13.19
671.767	12.48
672.092	12.47
672.418	12.99
672.743	13.44
673.068	12.66
673.393	12.85
673.718	12.62
674.043	13.25
674.368	12.93
674.693	12.86
675.018	12.97
675.343	13.47
675.667	13.59
675.992	13.31
676.317	12.79
676.641	13.07
676.966	13.54
677.29	12.92
677.615	13.66
677.939	13.15
678.264	12.95
678.588	13.49
678.912	13.46
679.236	13.05
679.56	13.13
679.885	13.07
680.209	13.8
680.532	13.51
680.856	13.55
681.18	13.39
681.504	13.81
681.828	13.65
682.152	13.5
682.475	13.69
682.799	13.96
683.122	13.5
683.446	13.62
683.769	13.48
684.093	14
684.416	13.96
684.739	13.89
685.062	13.85
685.386	13.54
685.709	13.59
686.032	13.59
686.355	13.96
686.678	14.2
687.001	14.42
687.324	14.46
687.646	14.11
687.969	13.98
688.292	14.06
688.614	14.26
