Data from 97281_chest_Reflection__1__47.txt Node

Date: Fri Sep 23 20:04:54 CDT 2022
User: ToomeyLab
Spectrometer: FLMS14357
Trigger mode: 0
Integration Time (sec): 1.000000E-2
Scans to average: 100
Electric dark correction enabled: true
Nonlinearity correction enabled: false
Boxcar width: 0
XAxis mode: Wavelengths
Number of Pixels in Spectrum: 2048
>>>>>Begin Spectral Data<<<<<
189.047	108.31
189.435	108.31
189.823	108.31
190.211	-9.8
190.599	-23.79
190.987	72
191.375	108.5
191.763	92.88
192.151	70.33
192.538	32.18
192.926	165.72
193.314	129.95
193.702	69.7
194.089	-90.68
194.477	49.95
194.864	-155.44
195.252	387.34
195.639	-63.64
196.027	224.84
196.414	131.08
196.801	15.16
197.189	-169.39
197.576	31.31
197.963	-16.43
198.351	45.23
198.738	-37.32
199.125	50.64
199.512	15.49
199.899	1.32
200.286	-4.07
200.673	11.15
201.06	23.26
201.447	42.91
201.833	17.83
202.22	-23.59
202.607	8.8
202.994	37.99
203.38	-40.78
203.767	-2.8
204.154	5.05
204.54	-2.16
204.927	-4.3
205.313	30.17
205.699	-18.94
206.086	7.17
206.472	12.8
206.858	32.73
207.245	6.75
207.631	12.72
208.017	23.35
208.403	6.8
208.789	-3.3
209.175	-7.11
209.561	2.17
209.947	34.89
210.333	31.06
210.719	-16.14
211.105	3.87
211.491	19.7
211.876	24.28
212.262	-19.44
212.648	-40.64
213.034	-70.91
213.419	-1.14
213.805	38.75
214.19	-7.54
214.576	9.59
214.961	8.16
215.346	-6.57
215.732	25.92
216.117	15.59
216.502	-0.53
216.888	12.17
217.273	-3.53
217.658	3.17
218.043	13.94
218.428	14.99
218.813	2.47
219.198	21.02
219.583	33.89
219.968	34.55
220.353	11.41
220.738	2.11
221.122	9.04
221.507	9.99
221.892	4.55
222.276	-7.38
222.661	0.99
223.046	4.35
223.43	3.11
223.815	3.44
224.199	-5.26
224.583	0.23
224.968	-1.1
225.352	-6.47
225.736	-3.71
226.121	4.02
226.505	4.3
226.889	3.98
227.273	5.03
227.657	-1.08
228.041	5.01
228.425	5.49
228.809	3.02
229.193	7.63
229.577	6.39
229.961	4.04
230.344	4.71
230.728	3.66
231.112	3.53
231.495	3.71
231.879	1.79
232.263	5.28
232.646	3.76
233.03	4.83
233.413	4
233.797	3.96
234.18	6.7
234.563	2.2
234.946	6.58
235.33	4.73
235.713	6.09
236.096	1.48
236.479	3.85
236.862	4.96
237.245	5.43
237.628	4.19
238.011	6.1
238.394	5.27
238.777	4.63
239.16	3.38
239.543	4.48
239.925	5.19
240.308	3.31
240.691	3.55
241.073	4.36
241.456	2.69
241.838	4.81
242.221	4.17
242.603	5.77
242.986	3.28
243.368	4.37
243.75	4.22
244.133	4.74
244.515	4
244.897	4.2
245.279	4.9
245.661	5.34
246.043	5.56
246.425	5.04
246.807	3.72
247.189	4.45
247.571	4.37
247.953	3.8
248.335	4.43
248.717	4.15
249.098	4.18
249.48	4.36
249.862	4.21
250.243	4.55
250.625	4.34
251.006	4.54
251.388	4.14
251.769	4.6
252.151	3.45
252.532	4.22
252.913	5.14
253.295	4.46
253.676	4.42
254.057	4.11
254.438	4.23
254.819	4.55
255.2	4.51
255.581	5.39
255.962	4.03
256.343	5.13
256.724	4.29
257.105	4.46
257.486	2.54
257.867	2.98
258.247	4.67
258.628	3.97
259.009	3.7
259.389	3.45
259.77	2.67
260.15	4.08
260.531	3.89
260.911	4.06
261.292	4.09
261.672	3.83
262.052	3.8
262.432	3.67
262.813	4.27
263.193	3.97
263.573	4.74
263.953	3.59
264.333	3.93
264.713	4.07
265.093	4.41
265.473	4.3
265.853	2.72
266.233	3.32
266.612	3.91
266.992	5.17
267.372	3.8
267.752	3.61
268.131	4.38
268.511	3.71
268.89	3.9
269.27	4.19
269.649	4.06
270.029	4.51
270.408	4.04
270.787	3.04
271.167	3.6
271.546	4.23
271.925	3.33
272.304	3.17
272.683	3.6
273.062	3.89
273.441	4.17
273.82	3.85
274.199	3.6
274.578	3.71
274.957	3.73
275.336	3.57
275.715	3.58
276.093	3.86
276.472	4.51
276.851	4.27
277.229	4
277.608	3.65
277.986	3.6
278.365	3.84
278.743	3.66
279.122	3.14
279.5	3.81
279.878	3.22
280.257	3.71
280.635	3.35
281.013	3.59
281.391	3.84
281.769	3.71
282.147	3.69
282.525	4.01
282.903	3.6
283.281	3.62
283.659	3.77
284.037	3.74
284.415	3.85
284.792	3.87
285.17	3.62
285.548	3.77
285.925	3.98
286.303	4.26
286.68	3.87
287.058	3.67
287.435	3.78
287.813	4.08
288.19	3.63
288.567	3.71
288.945	3.71
289.322	3.83
289.699	4.26
290.076	3.87
290.453	3.77
290.83	3.71
291.207	3.55
291.584	4.05
291.961	3.97
292.338	4.03
292.715	3.59
293.092	3.69
293.469	4.32
293.845	4.02
294.222	4.15
294.599	3.71
294.975	4.28
295.352	4.12
295.728	4.02
296.105	3.99
296.481	4.12
296.858	3.92
297.234	3.97
297.61	3.98
297.986	3.99
298.363	4.13
298.739	4.62
299.115	4.03
299.491	4.08
299.867	4.15
300.243	4.01
300.619	4.43
300.995	4.33
301.371	4.19
301.746	5.15
302.122	4.4
302.498	4.66
302.874	3.87
303.249	4.32
303.625	4.47
304	4.53
304.376	4.47
304.751	3.96
305.127	4.73
305.502	4.56
305.878	4.95
306.253	4.66
306.628	4.6
307.003	4.1
307.378	4.92
307.754	5.19
308.129	4.76
308.504	4.74
308.879	5.09
309.254	4.88
309.629	5.12
310.003	4.8
310.378	4.5
310.753	4.61
311.128	4.78
311.502	4.64
311.877	4.52
312.252	4.69
312.626	4.95
313.001	4.78
313.375	4.74
313.75	4.67
314.124	4.61
314.498	5.04
314.873	4.78
315.247	5.33
315.621	5.11
315.995	5.34
316.369	5.21
316.743	4.64
317.117	4.38
317.491	4.59
317.865	5.02
318.239	5.36
318.613	5.02
318.987	4.77
319.361	4.62
319.734	5.43
320.108	4.58
320.482	5.23
320.855	4.52
321.229	5.48
321.602	5.12
321.976	4.97
322.349	5.51
322.723	4.74
323.096	5.18
323.469	4.74
323.843	5.2
324.216	5.68
324.589	5.56
324.962	5.43
325.335	4.84
325.708	5.33
326.081	5.16
326.454	4.84
326.827	4.94
327.2	4.8
327.573	5.56
327.945	5.85
328.318	4.97
328.691	5.39
329.063	5.18
329.436	5.4
329.809	5.76
330.181	5.65
330.553	4.7
330.926	5.1
331.298	5.38
331.671	5.93
332.043	5.72
332.415	5.38
332.787	5.36
333.159	5.79
333.532	5.03
333.904	4.76
334.276	5.2
334.648	5.38
335.02	5.33
335.391	5.33
335.763	5.2
336.135	5.41
336.507	5.18
336.879	5.18
337.25	5.98
337.622	5.35
337.993	5.49
338.365	5.83
338.736	6.04
339.108	5.79
339.479	5.18
339.851	6
340.222	5.83
340.593	5.34
340.964	5.9
341.336	5.78
341.707	5.73
342.078	5.4
342.449	5.17
342.82	5.3
343.191	5.51
343.562	5.58
343.933	5.91
344.303	5.5
344.674	5.73
345.045	5.89
345.416	5.55
345.786	5.87
346.157	5.61
346.527	5.94
346.898	5.96
347.268	5.71
347.639	5.57
348.009	5.28
348.38	5.53
348.75	5.81
349.12	5.68
349.49	5.68
349.861	5.98
350.231	6.13
350.601	5.61
350.971	5.77
351.341	5.52
351.711	6.05
352.081	5.52
352.45	5.76
352.82	5.82
353.19	6.02
353.56	6.31
353.929	5.82
354.299	6.08
354.669	5.91
355.038	6.19
355.408	5.81
355.777	5.75
356.147	5.62
356.516	5.85
356.885	5.93
357.254	5.7
357.624	5.58
357.993	6.11
358.362	5.85
358.731	5.71
359.1	5.98
359.469	5.8
359.838	5.84
360.207	5.98
360.576	6.09
360.945	5.76
361.314	5.76
361.682	5.66
362.051	6.27
362.42	6.29
362.788	5.93
363.157	6.11
363.525	6.2
363.894	6.17
364.262	5.88
364.631	6.13
364.999	6.21
365.367	5.75
365.735	6.1
366.104	6.22
366.472	6.15
366.84	6.29
367.208	6.09
367.576	6.18
367.944	6.06
368.312	6.28
368.68	6.11
369.048	5.98
369.416	6.29
369.783	6.1
370.151	6.34
370.519	6.05
370.886	6.26
371.254	5.97
371.621	6.13
371.989	6.11
372.356	6.54
372.724	6.04
373.091	6.25
373.458	6.01
373.826	6.07
374.193	6.34
374.56	6.16
374.927	6.56
375.294	6.51
375.661	6.3
376.028	6.19
376.395	6.68
376.762	6.12
377.129	5.89
377.496	6.34
377.863	6.38
378.229	6.02
378.596	6.21
378.963	6.54
379.329	6.62
379.696	6.27
380.062	6.27
380.429	6.34
380.795	6.36
381.161	6.28
381.528	6.14
381.894	6.35
382.26	6.15
382.626	6.15
382.993	6.53
383.359	6.35
383.725	6.43
384.091	6.33
384.457	6.61
384.823	6.43
385.188	6.27
385.554	6.44
385.92	6.71
386.286	6.36
386.651	6.61
387.017	6.59
387.383	6.47
387.748	6.37
388.114	6.59
388.479	6.2
388.845	6.37
389.21	6.46
389.575	6.52
389.94	6.46
390.306	6.48
390.671	6.48
391.036	6.45
391.401	6.61
391.766	6.55
392.131	6.51
392.496	6.52
392.861	6.63
393.226	6.36
393.591	6.41
393.956	6.65
394.32	6.56
394.685	6.67
395.05	6.52
395.414	6.49
395.779	6.55
396.143	6.64
396.508	6.68
396.872	6.66
397.236	6.86
397.601	6.8
397.965	6.71
398.329	6.72
398.694	6.57
399.058	6.54
399.422	7.07
399.786	6.87
400.15	6.67
400.514	6.73
400.878	6.65
401.242	6.61
401.605	6.92
401.969	6.89
402.333	6.57
402.697	6.67
403.06	6.91
403.424	6.71
403.787	6.89
404.151	6.84
404.514	6.73
404.878	6.79
405.241	6.7
405.604	6.85
405.968	6.78
406.331	6.65
406.694	6.92
407.057	6.76
407.42	6.84
407.783	6.83
408.146	6.91
408.509	6.89
408.872	6.73
409.235	6.79
409.598	6.95
409.961	6.97
410.323	6.98
410.686	7.02
411.049	6.97
411.411	7.09
411.774	6.76
412.136	6.87
412.499	6.68
412.861	6.86
413.223	6.67
413.586	7.13
413.948	6.95
414.31	6.8
414.672	6.94
415.035	6.89
415.397	6.97
415.759	7.08
416.121	7.03
416.483	6.99
416.845	6.83
417.206	6.89
417.568	6.96
417.93	7.01
418.292	7.14
418.653	6.89
419.015	7
419.377	6.86
419.738	6.94
420.1	6.87
420.461	6.87
420.822	7.02
421.184	6.97
421.545	7.01
421.906	6.9
422.267	6.83
422.629	6.88
422.99	6.82
423.351	6.98
423.712	6.93
424.073	6.86
424.434	6.88
424.795	6.98
425.155	6.98
425.516	7.08
425.877	7.02
426.238	6.94
426.598	6.97
426.959	6.99
427.32	7.03
427.68	7.02
428.041	7.09
428.401	7.12
428.761	7.07
429.122	7.13
429.482	7.19
429.842	7.31
430.202	7.23
430.563	7.25
430.923	7.2
431.283	7.29
431.643	7.26
432.003	7.29
432.363	7.4
432.722	7.32
433.082	7.24
433.442	7.23
433.802	7.48
434.161	7.29
434.521	7.3
434.881	7.11
435.24	7.24
435.6	7.21
435.959	7.27
436.319	7.16
436.678	7.17
437.037	7.21
437.396	7.31
437.756	7.34
438.115	7.2
438.474	7.43
438.833	7.43
439.192	7.55
439.551	7.4
439.91	7.21
440.269	7.46
440.628	7.34
440.987	7.3
441.345	7.35
441.704	7.27
442.063	7.43
442.421	7.26
442.78	7.26
443.138	7.34
443.497	7.51
443.855	7.47
444.214	7.5
444.572	7.52
444.93	7.55
445.288	7.62
445.647	7.61
446.005	7.53
446.363	7.51
446.721	7.36
447.079	7.5
447.437	7.41
447.795	7.42
448.153	7.31
448.51	7.38
448.868	7.47
449.226	7.47
449.584	7.32
449.941	7.52
450.299	7.66
450.656	7.53
451.014	7.63
451.371	7.46
451.729	7.65
452.086	7.66
452.443	7.59
452.801	7.57
453.158	7.6
453.515	7.74
453.872	7.67
454.229	7.79
454.586	7.68
454.943	7.61
455.3	7.62
455.657	7.77
456.014	7.69
456.371	7.85
456.727	7.86
457.084	7.82
457.441	7.96
457.797	7.54
458.154	7.74
458.51	7.99
458.867	7.9
459.223	7.9
459.58	7.83
459.936	7.84
460.292	7.72
460.648	7.81
461.005	7.75
461.361	7.7
461.717	7.75
462.073	7.7
462.429	7.68
462.785	7.83
463.141	7.8
463.496	7.81
463.852	7.95
464.208	7.78
464.564	8.02
464.919	7.87
465.275	8.05
465.631	7.87
465.986	7.94
466.342	7.81
466.697	7.92
467.052	7.94
467.408	7.87
467.763	7.96
468.118	7.92
468.473	8.11
468.829	8.06
469.184	8.06
469.539	7.94
469.894	8.07
470.249	8.05
470.603	8.15
470.958	8.19
471.313	8.07
471.668	8.01
472.023	7.9
472.377	8
472.732	8.14
473.086	8.05
473.441	8.24
473.795	8.23
474.15	8.04
474.504	8.19
474.859	8.12
475.213	8.26
475.567	8.08
475.921	8.21
476.275	8.06
476.63	8.2
476.984	8.25
477.338	8.23
477.692	8.24
478.045	8.14
478.399	8.31
478.753	8.34
479.107	8.08
479.461	8.25
479.814	8.17
480.168	8.29
480.521	8.29
480.875	8.29
481.228	8.42
481.582	8.35
481.935	8.43
482.289	8.38
482.642	8.16
482.995	8.33
483.348	8.18
483.701	8.24
484.055	8.17
484.408	8.13
484.761	8.08
485.114	7.91
485.466	7.83
485.819	7.83
486.172	7.88
486.525	7.98
486.878	8.05
487.23	8.09
487.583	8.11
487.936	8.16
488.288	8.24
488.641	8.11
488.993	8.06
489.345	8.1
489.698	7.99
490.05	8.13
490.402	8.13
490.754	8.24
491.107	8.26
491.459	8.28
491.811	8.38
492.163	8.45
492.515	8.33
492.866	8.32
493.218	8.14
493.57	8.13
493.922	8.28
494.274	8.34
494.625	8.38
494.977	8.51
495.328	8.47
495.68	8.62
496.031	8.56
496.383	8.71
496.734	8.61
497.086	8.76
497.437	8.78
497.788	8.66
498.139	8.61
498.49	8.53
498.842	8.71
499.193	8.61
499.544	8.61
499.894	8.76
500.245	8.81
500.596	8.75
500.947	8.7
501.298	8.91
501.648	8.98
501.999	8.81
502.35	8.83
502.7	8.77
503.051	8.77
503.401	8.85
503.752	8.97
504.102	8.97
504.452	8.82
504.803	8.91
505.153	8.95
505.503	8.77
505.853	9.1
506.203	8.96
506.553	9.01
506.903	8.99
507.253	9.03
507.603	9
507.953	8.94
508.303	8.95
508.652	9.02
509.002	9.07
509.352	9.12
509.701	9.02
510.051	9.02
510.4	9.1
510.75	8.94
511.099	9.02
511.449	8.97
511.798	9.08
512.147	9.06
512.496	8.98
512.846	9.03
513.195	9.13
513.544	9.11
513.893	9.09
514.242	9.07
514.591	9.14
514.939	9.21
515.288	9.29
515.637	9.26
515.986	9.15
516.334	9.12
516.683	9.28
517.032	9.39
517.38	9.44
517.729	9.27
518.077	9.29
518.426	9.31
518.774	9.27
519.122	9.16
519.47	9.26
519.819	9.27
520.167	9.26
520.515	9.26
520.863	9.18
521.211	9.16
521.559	9.23
521.907	9.39
522.255	9.34
522.602	9.44
522.95	9.57
523.298	9.47
523.645	9.53
523.993	9.48
524.341	9.56
524.688	9.48
525.036	9.51
525.383	9.56
525.73	9.68
526.078	9.59
526.425	9.62
526.772	9.5
527.119	9.37
527.466	9.34
527.814	9.39
528.161	9.56
528.508	9.51
528.854	9.53
529.201	9.45
529.548	9.43
529.895	9.34
530.242	9.22
530.588	9.2
530.935	9.31
531.282	9.33
531.628	9.4
531.975	9.4
532.321	9.5
532.667	9.52
533.014	9.57
533.36	9.75
533.706	9.74
534.052	9.68
534.399	9.62
534.745	9.64
535.091	9.53
535.437	9.55
535.783	9.64
536.129	9.65
536.474	9.79
536.82	9.79
537.166	9.86
537.512	9.78
537.857	9.89
538.203	9.81
538.549	9.76
538.894	9.9
539.239	9.94
539.585	10.06
539.93	9.94
540.276	10.06
540.621	10.11
540.966	10.13
541.311	10.23
541.656	10.18
542.001	10.18
542.346	9.98
542.691	9.93
543.036	9.82
543.381	9.86
543.726	9.93
544.071	9.92
544.415	9.97
544.76	10.03
545.105	10.1
545.449	10.12
545.794	10.33
546.138	10.26
546.483	10.25
546.827	10.34
547.171	10.39
547.516	10.54
547.86	10.36
548.204	10.32
548.548	10.2
548.892	10.42
549.236	10.52
549.58	10.45
549.924	10.53
550.268	10.58
550.612	10.56
550.956	10.68
551.3	10.59
551.643	10.53
551.987	10.7
552.33	10.59
552.674	10.81
553.017	10.87
553.361	10.77
553.704	10.73
554.048	10.73
554.391	10.84
554.734	10.88
555.077	10.63
555.42	10.84
555.764	10.78
556.107	11
556.45	10.89
556.793	10.98
557.135	11.15
557.478	11.11
557.821	11.1
558.164	11.12
558.507	11
558.849	11.05
559.192	11.27
559.534	11.28
559.877	11.24
560.219	11.27
560.562	11.21
560.904	11.23
561.246	11.1
561.589	11.39
561.931	11.35
562.273	11.5
562.615	11.28
562.957	11.35
563.299	11.18
563.641	11.44
563.983	11.37
564.325	11.31
564.667	11.51
565.008	11.44
565.35	11.45
565.692	11.45
566.033	11.37
566.375	11.64
566.716	11.58
567.058	11.48
567.399	11.41
567.741	11.42
568.082	11.51
568.423	11.3
568.764	11.33
569.105	11.45
569.447	11.42
569.788	11.62
570.129	11.51
570.47	11.52
570.811	11.75
571.151	11.88
571.492	11.69
571.833	11.84
572.174	11.66
572.514	11.93
572.855	11.76
573.195	11.77
573.536	11.83
573.876	11.51
574.217	11.79
574.557	11.7
574.898	11.84
575.238	11.9
575.578	12
575.918	11.96
576.258	11.93
576.598	11.93
576.938	12.03
577.278	12.06
577.618	11.99
577.958	11.99
578.298	12.1
578.638	12.11
578.977	12.21
579.317	12.35
579.657	12.18
579.996	11.97
580.336	12.31
580.675	12.31
581.014	12.25
581.354	12.38
581.693	12.44
582.032	12.36
582.372	12.65
582.711	12.36
583.05	12.34
583.389	12.68
583.728	12.62
584.067	12.5
584.406	12.33
584.745	12.6
585.083	12.73
585.422	12.77
585.761	12.71
586.1	12.69
586.438	12.46
586.777	12.46
587.115	12.7
587.454	12.58
587.792	12.91
588.13	12.62
588.469	12.7
588.807	12.79
589.145	12.73
589.483	13
589.821	12.98
590.159	12.68
590.497	12.91
590.835	12.69
591.173	12.85
591.511	12.88
591.849	12.96
592.187	12.76
592.524	13.21
592.862	13.3
593.2	13.03
593.537	13.13
593.875	13.37
594.212	13.24
594.55	13.03
594.887	13.01
595.224	13.24
595.561	13.18
595.899	13.08
596.236	13.15
596.573	13.31
596.91	13.1
597.247	13.28
597.584	13.13
597.921	13.4
598.258	12.93
598.594	13.2
598.931	13.31
599.268	13.43
599.604	13.24
599.941	13.41
600.277	13.57
600.614	13.28
600.95	13.32
601.287	13.47
601.623	13.51
601.959	13.2
602.296	13.64
602.632	13.65
602.968	13.39
603.304	13.52
603.64	13.78
603.976	13.52
604.312	13.68
604.648	13.77
604.984	13.6
605.319	13.73
605.655	13.57
605.991	13.51
606.326	13.64
606.662	13.62
606.998	13.87
607.333	13.58
607.668	13.46
608.004	13.62
608.339	13.68
608.674	14.13
609.01	13.82
609.345	13.78
609.68	14.02
610.015	14.32
610.35	14.11
610.685	13.69
611.02	13.85
611.355	13.81
611.689	14.11
612.024	13.98
612.359	13.96
612.694	14.11
613.028	14.08
613.363	14.42
613.697	14.23
614.032	14.14
614.366	14.42
614.7	14.13
615.035	14.32
615.369	14.43
615.703	14.34
616.037	14.39
616.371	14.51
616.705	14.25
617.039	14.22
617.373	14.48
617.707	14.59
618.041	14.56
618.375	14.48
618.709	14.54
619.042	14.7
619.376	14.63
619.71	14.45
620.043	14.6
620.377	14.55
620.71	14.44
621.043	14.73
621.377	14.46
621.71	14.56
622.043	14.87
622.376	14.53
622.709	14.82
623.043	14.67
623.376	15.11
623.709	14.77
624.041	15.09
624.374	14.81
624.707	15.06
625.04	15.22
625.373	14.96
625.705	14.88
626.038	14.94
626.37	15.11
626.703	15.15
627.035	15.27
627.368	15.07
627.7	14.78
628.032	14.92
628.365	14.82
628.697	15.18
629.029	15.19
629.361	15.26
629.693	15.14
630.025	15.35
630.357	15.11
630.689	15.28
631.021	15.2
631.353	15.42
631.684	15.15
632.016	15.73
632.348	15.19
632.679	15.53
633.011	15.22
633.342	15.18
633.674	15.4
634.005	15.22
634.336	15.54
634.668	15.45
634.999	15.7
635.33	15.47
635.661	15.52
635.992	15.42
636.323	15.62
636.654	15.98
636.985	15.53
637.316	15.66
637.647	15.8
637.977	15.75
638.308	15.45
638.639	15.35
638.969	15.9
639.3	15.73
639.63	15.63
639.961	16.09
640.291	15.75
640.622	15.91
640.952	15.58
641.282	15.83
641.612	15.81
641.943	15.81
642.273	15.89
642.603	15.98
642.933	16.24
643.263	15.84
643.592	16.2
643.922	15.83
644.252	16.33
644.582	16.11
644.911	15.97
645.241	16.17
645.571	16.5
645.9	15.87
646.23	16.02
646.559	16.11
646.888	16.26
647.218	16.24
647.547	16.62
647.876	15.9
648.205	15.98
648.534	16.11
648.863	16.31
649.192	16.78
649.521	16.49
649.85	16.34
650.179	16.31
650.508	16.59
650.837	16.55
651.165	16.71
651.494	16.55
651.822	16.18
652.151	16.6
652.479	16.56
652.808	16.38
653.136	16.46
653.465	16.25
653.793	16.81
654.121	16.5
654.449	16.39
654.777	16.54
655.105	16.68
655.433	16.63
655.761	17.08
656.089	17.13
656.417	16.66
656.745	16.59
657.073	16.71
657.4	17.43
657.728	16.92
658.056	17.11
658.383	16.58
658.711	17.12
659.038	16.92
659.365	16.51
659.693	16.98
660.02	16.73
660.347	16.9
660.674	16.69
661.001	16.92
661.329	16.87
661.656	17.19
661.982	17.04
662.309	17.65
662.636	17.11
662.963	17.2
663.29	17.39
663.616	16.71
663.943	17.29
664.27	17.03
664.596	16.83
664.923	17.72
665.249	16.95
665.576	17.88
665.902	16.95
666.228	17.82
666.554	16.99
666.881	17.01
667.207	17.51
667.533	17.09
667.859	16.93
668.185	17.51
668.511	16.97
668.837	18.38
669.162	17.73
669.488	16.91
669.814	17.48
670.139	17.38
670.465	17.95
670.791	17.06
671.116	17.52
671.442	18.02
671.767	17.44
672.092	17.2
672.418	17.77
672.743	18.22
673.068	16.99
673.393	17.34
673.718	17.67
674.043	17.66
674.368	18.25
674.693	18.06
675.018	18.12
675.343	18.24
675.667	18.12
675.992	18.59
676.317	18.15
676.641	17.63
676.966	17.76
677.29	17.6
677.615	17.75
677.939	17.99
678.264	17.95
678.588	18.11
678.912	17.68
679.236	17.92
679.56	17.37
679.885	18.36
680.209	18.28
680.532	17.96
680.856	18.22
681.18	18.49
681.504	18.5
681.828	18.38
682.152	18.62
682.475	17.76
682.799	18.31
683.122	18.25
