Data from 20-11_crown_Reflection__0__50.txt Node

Date: Fri Nov 11 20:36:03 CST 2022
User: ToomeyLab
Spectrometer: FLMS14357
Trigger mode: 0
Integration Time (sec): 1.000000E-2
Scans to average: 100
Electric dark correction enabled: true
Nonlinearity correction enabled: false
Boxcar width: 0
XAxis mode: Wavelengths
Number of Pixels in Spectrum: 2048
>>>>>Begin Spectral Data<<<<<
189.047	1114.29
189.435	1114.29
189.823	1114.29
190.211	-43.17
190.599	-196.56
190.987	851.39
191.375	-41133.33
191.763	-975.51
192.151	80.32
192.538	-27.37
192.926	417.03
193.314	308.26
193.702	-59.97
194.089	16.39
194.477	50.78
194.864	113.23
195.252	95.84
195.639	57.51
196.027	-320.82
196.414	12.8
196.801	-151.45
197.189	103.31
197.576	20.4
197.963	3.26
198.351	-94.64
198.738	9.99
199.125	27.79
199.512	17.94
199.899	-54.25
200.286	33.66
200.673	9.9
201.06	25.35
201.447	9.81
201.833	68.64
202.22	-22.79
202.607	3.16
202.994	13.98
203.38	22.21
203.767	37.83
204.154	21.68
204.54	-36.45
204.927	31.26
205.313	-3.33
205.699	-2.39
206.086	52.39
206.472	24.91
206.858	45.03
207.245	36.49
207.631	33.12
208.017	19.4
208.403	13.24
208.789	32.87
209.175	43.64
209.561	39.32
209.947	8.07
210.333	-0.68
210.719	25.47
211.105	46.64
211.491	21.21
211.876	39.66
212.262	42.36
212.648	10.9
213.034	-5.18
213.419	-53.08
213.805	-6.88
214.19	20.74
214.576	-7.43
214.961	-28
215.346	-11.86
215.732	18.87
216.117	20.46
216.502	5.18
216.888	9.32
217.273	24.69
217.658	-29.82
218.043	5.05
218.428	-6.68
218.813	2.07
219.198	24.14
219.583	15.12
219.968	-5.9
220.353	0.52
220.738	-14.34
221.122	11.32
221.507	-26.27
221.892	-7.73
222.276	17.18
222.661	22.07
223.046	-12.75
223.43	-6.52
223.815	-11.84
224.199	19.34
224.583	-2.53
224.968	0.27
225.352	-0.3
225.736	-4.09
226.121	5.15
226.505	-1.75
226.889	-10.47
227.273	5.04
227.657	-3.45
228.041	-4.09
228.425	1.9
228.809	-0.12
229.193	2.65
229.577	4.27
229.961	2.56
230.344	2.13
230.728	0.65
231.112	0.83
231.495	2.64
231.879	1.43
232.263	0.82
232.646	1.03
233.03	1.3
233.413	1.17
233.797	0.01
234.18	-1.19
234.563	2.09
234.946	3.18
235.33	0.76
235.713	1.47
236.096	-0.15
236.479	0.6
236.862	2.32
237.245	0.29
237.628	2.83
238.011	3.49
238.394	2.64
238.777	1.82
239.16	3.68
239.543	1.21
239.925	0.68
240.308	1.14
240.691	3.41
241.073	2.36
241.456	0.91
241.838	2.85
242.221	1.26
242.603	1.58
242.986	1.62
243.368	1.71
243.75	1.45
244.133	1.35
244.515	1.62
244.897	1.5
245.279	0.99
245.661	1.41
246.043	1.88
246.425	2.38
246.807	1.75
247.189	0.92
247.571	1.38
247.953	1.21
248.335	1.33
248.717	1.41
249.098	1.77
249.48	0.96
249.862	1.72
250.243	1.53
250.625	1.82
251.006	2.28
251.388	2.29
251.769	2.12
252.151	2.21
252.532	1.44
252.913	1.94
253.295	1.72
253.676	0.48
254.057	1.17
254.438	1.22
254.819	1.11
255.2	2.73
255.581	1.78
255.962	1.39
256.343	2.09
256.724	2.21
257.105	1.33
257.486	1.28
257.867	1.7
258.247	0.4
258.628	1.42
259.009	1.51
259.389	1.04
259.77	1.55
260.15	2
260.531	1.2
260.911	1.52
261.292	1.49
261.672	1.36
262.052	1.33
262.432	1.62
262.813	1.72
263.193	1.31
263.573	1.46
263.953	1.97
264.333	1.35
264.713	1.58
265.093	1.18
265.473	1.21
265.853	1.18
266.233	1.27
266.612	1.01
266.992	1.44
267.372	1.8
267.752	1.29
268.131	0.98
268.511	1.21
268.89	1.18
269.27	1.22
269.649	1.48
270.029	1.61
270.408	1.7
270.787	1.26
271.167	1.02
271.546	1.37
271.925	1.32
272.304	1.73
272.683	1.28
273.062	1.16
273.441	1.16
273.82	1.41
274.199	1.1
274.578	0.85
274.957	1.56
275.336	2.01
275.715	1.97
276.093	1.44
276.472	1.27
276.851	1.59
277.229	1.51
277.608	1.69
277.986	1.5
278.365	1.11
278.743	1.57
279.122	1.75
279.5	1.67
279.878	1.45
280.257	1.15
280.635	1.94
281.013	1.34
281.391	0.91
281.769	1.06
282.147	1.75
282.525	1.36
282.903	1.14
283.281	1.28
283.659	1.97
284.037	1.2
284.415	0.97
284.792	1.45
285.17	1.72
285.548	0.77
285.925	0.93
286.303	1.25
286.68	1.4
287.058	1.34
287.435	1.2
287.813	1.43
288.19	1.3
288.567	1.36
288.945	1.5
289.322	1.78
289.699	1.33
290.076	1.81
290.453	1.67
290.83	0.99
291.207	1.31
291.584	1.48
291.961	1.27
292.338	1.33
292.715	1.34
293.092	1.31
293.469	1.17
293.845	1.05
294.222	1.19
294.599	1.89
294.975	1.41
295.352	1.37
295.728	1.21
296.105	1.31
296.481	1.1
296.858	1.25
297.234	1.48
297.61	0.87
297.986	1.03
298.363	1.29
298.739	1.44
299.115	1.72
299.491	1.61
299.867	1.34
300.243	1.52
300.619	1.6
300.995	1.38
301.371	1.89
301.746	1.81
302.122	1.53
302.498	1.54
302.874	1.64
303.249	1.23
303.625	1.2
304	1.04
304.376	1.25
304.751	0.79
305.127	1.69
305.502	2.18
305.878	2.11
306.253	1.73
306.628	1.62
307.003	1.62
307.378	1.58
307.754	1.83
308.129	1.36
308.504	1.97
308.879	1.42
309.254	1.92
309.629	1.45
310.003	1.85
310.378	2.04
310.753	1.83
311.128	1.86
311.502	1.63
311.877	1.71
312.252	1.48
312.626	1.63
313.001	1.71
313.375	1.6
313.75	1.39
314.124	1.47
314.498	1.69
314.873	1.78
315.247	1.43
315.621	1.93
315.995	1.97
316.369	1.9
316.743	1.59
317.117	1.74
317.491	1.36
317.865	1.17
318.239	1.71
318.613	1.75
318.987	1.72
319.361	1.67
319.734	1.87
320.108	1.34
320.482	2.27
320.855	1.68
321.229	1.73
321.602	1.84
321.976	1.81
322.349	1.73
322.723	2.36
323.096	2.06
323.469	1.97
323.843	2.03
324.216	1.39
324.589	1.84
324.962	2.16
325.335	1.7
325.708	2.28
326.081	1.61
326.454	1.76
326.827	1.63
327.2	2.38
327.573	2.27
327.945	1.54
328.318	1.96
328.691	1.93
329.063	1.82
329.436	1.57
329.809	1.48
330.181	1.95
330.553	1.23
330.926	1.9
331.298	1.85
331.671	2.1
332.043	1.55
332.415	1.96
332.787	2.12
333.159	1.76
333.532	1.82
333.904	2.46
334.276	1.93
334.648	1.38
335.02	1.97
335.391	2.2
335.763	1.66
336.135	2.02
336.507	1.63
336.879	2.21
337.25	1.76
337.622	2.04
337.993	2.12
338.365	1.82
338.736	1.92
339.108	2.24
339.479	1.5
339.851	2.01
340.222	1.7
340.593	2.18
340.964	1.93
341.336	2.1
341.707	2
342.078	1.43
342.449	1.88
342.82	2.42
343.191	2.17
343.562	1.96
343.933	1.78
344.303	1.94
344.674	2.11
345.045	1.71
345.416	2.36
345.786	1.73
346.157	1.74
346.527	2.06
346.898	1.32
347.268	1.79
347.639	1.96
348.009	2
348.38	2.12
348.75	1.87
349.12	2.5
349.49	2.12
349.861	1.89
350.231	2
350.601	1.83
350.971	1.82
351.341	2.16
351.711	1.97
352.081	2.25
352.45	2.05
352.82	2.02
353.19	2
353.56	1.88
353.929	2.02
354.299	1.87
354.669	2.22
355.038	1.94
355.408	1.85
355.777	2.18
356.147	2.02
356.516	2.01
356.885	1.66
357.254	1.79
357.624	1.43
357.993	2.28
358.362	1.69
358.731	1.81
359.1	1.77
359.469	1.8
359.838	1.82
360.207	2.05
360.576	2.04
360.945	2.45
361.314	1.88
361.682	1.77
362.051	1.83
362.42	2.28
362.788	2.07
363.157	1.92
363.525	1.66
363.894	1.77
364.262	2.02
364.631	2.13
364.999	1.87
365.367	2.13
365.735	1.94
366.104	1.96
366.472	1.9
366.84	1.66
367.208	1.61
367.576	2.27
367.944	2.26
368.312	1.9
368.68	1.66
369.048	1.97
369.416	1.8
369.783	2.04
370.151	2.24
370.519	2.09
370.886	1.77
371.254	2.31
371.621	1.75
371.989	1.78
372.356	2.11
372.724	2.26
373.091	2.08
373.458	2.03
373.826	1.95
374.193	1.82
374.56	1.97
374.927	1.98
375.294	2.03
375.661	2.43
376.028	1.76
376.395	2.25
376.762	2.19
377.129	2.23
377.496	2.3
377.863	1.97
378.229	2.39
378.596	2.16
378.963	2.16
379.329	1.94
379.696	2
380.062	2.15
380.429	2.02
380.795	2.21
381.161	2.07
381.528	1.86
381.894	2.23
382.26	2.36
382.626	2.39
382.993	2.18
383.359	2.36
383.725	1.71
384.091	2.09
384.457	2.02
384.823	1.93
385.188	1.95
385.554	1.98
385.92	1.88
386.286	1.96
386.651	2.18
387.017	2.13
387.383	2.34
387.748	2.12
388.114	2.15
388.479	1.83
388.845	2.14
389.21	2.18
389.575	2.26
389.94	2.21
390.306	2.08
390.671	2.16
391.036	2.11
391.401	2.29
391.766	2.36
392.131	2.11
392.496	2.18
392.861	2.01
393.226	2.08
393.591	2.08
393.956	2.22
394.32	2.31
394.685	2.09
395.05	2.36
395.414	2.14
395.779	2.14
396.143	2.12
396.508	2.28
396.872	2.33
397.236	2.22
397.601	2.23
397.965	2.2
398.329	1.91
398.694	2.19
399.058	2.14
399.422	2.19
399.786	2.17
400.15	2.31
400.514	2.19
400.878	2.34
401.242	2.11
401.605	2.21
401.969	2.47
402.333	1.88
402.697	2.22
403.06	2.39
403.424	2.02
403.787	2.25
404.151	2.21
404.514	2.02
404.878	2.25
405.241	2.1
405.604	2.26
405.968	2.07
406.331	2.14
406.694	2.22
407.057	2.13
407.42	2.28
407.783	2.3
408.146	2.19
408.509	2.45
408.872	2.17
409.235	2.43
409.598	2.25
409.961	2.33
410.323	2.18
410.686	2.35
411.049	2.04
411.411	2.26
411.774	2.32
412.136	2.33
412.499	2.48
412.861	2.28
413.223	2.12
413.586	2.21
413.948	2.58
414.31	2.61
414.672	2.48
415.035	2.25
415.397	2.2
415.759	2.22
416.121	2.28
416.483	2.32
416.845	2.33
417.206	2.22
417.568	2.32
417.93	2.16
418.292	2.07
418.653	2.26
419.015	2.35
419.377	2.28
419.738	2.35
420.1	2.23
420.461	2.4
420.822	2.25
421.184	2.29
421.545	2.26
421.906	2.16
422.267	2.18
422.629	2.19
422.99	2.2
423.351	2.32
423.712	2.19
424.073	2.3
424.434	2.37
424.795	2.39
425.155	2.27
425.516	2.28
425.877	2.29
426.238	2.2
426.598	2.19
426.959	2.23
427.32	2.37
427.68	2.39
428.041	2.45
428.401	2.1
428.761	2.36
429.122	2.21
429.482	2.42
429.842	2.25
430.202	2.53
430.563	2.54
430.923	2.44
431.283	2.26
431.643	2.28
432.003	2.48
432.363	2.34
432.722	2.47
433.082	2.38
433.442	2.38
433.802	2.47
434.161	2.25
434.521	2.42
434.881	2.55
435.24	2.33
435.6	2.38
435.959	2.41
436.319	2.34
436.678	2.46
437.037	2.34
437.396	2.47
437.756	2.44
438.115	2.35
438.474	2.27
438.833	2.43
439.192	2.4
439.551	2.35
439.91	2.48
440.269	2.41
440.628	2.64
440.987	2.44
441.345	2.35
441.704	2.39
442.063	2.39
442.421	2.41
442.78	2.31
443.138	2.5
443.497	2.4
443.855	2.48
444.214	2.31
444.572	2.56
444.93	2.42
445.288	2.45
445.647	2.63
446.005	2.65
446.363	2.55
446.721	2.48
447.079	2.45
447.437	2.46
447.795	2.5
448.153	2.3
448.51	2.45
448.868	2.44
449.226	2.38
449.584	2.4
449.941	2.54
450.299	2.41
450.656	2.52
451.014	2.6
451.371	2.54
451.729	2.55
452.086	2.56
452.443	2.48
452.801	2.72
453.158	2.55
453.515	2.54
453.872	2.42
454.229	2.4
454.586	2.47
454.943	2.63
455.3	2.54
455.657	2.61
456.014	2.52
456.371	2.53
456.727	2.7
457.084	2.38
457.441	2.74
457.797	2.57
458.154	2.55
458.51	2.43
458.867	2.49
459.223	2.61
459.58	2.52
459.936	2.64
460.292	2.71
460.648	2.63
461.005	2.44
461.361	2.52
461.717	2.43
462.073	2.48
462.429	2.48
462.785	2.46
463.141	2.41
463.496	2.52
463.852	2.75
464.208	2.62
464.564	2.59
464.919	2.52
465.275	2.58
465.631	2.48
465.986	2.7
466.342	2.74
466.697	2.53
467.052	2.71
467.408	2.62
467.763	2.68
468.118	2.66
468.473	2.73
468.829	2.7
469.184	2.57
469.539	2.63
469.894	2.77
470.249	2.77
470.603	2.63
470.958	2.66
471.313	2.74
471.668	2.76
472.023	2.71
472.377	2.8
472.732	2.62
473.086	2.6
473.441	2.61
473.795	2.67
474.15	2.5
474.504	2.8
474.859	2.71
475.213	2.81
475.567	2.67
475.921	2.73
476.275	2.84
476.63	2.72
476.984	2.89
477.338	2.76
477.692	2.49
478.045	2.63
478.399	2.74
478.753	2.6
479.107	2.73
479.461	2.62
479.814	2.76
480.168	2.82
480.521	2.74
480.875	2.86
481.228	2.69
481.582	2.77
481.935	2.59
482.289	2.59
482.642	2.7
482.995	2.56
483.348	2.66
483.701	2.77
484.055	2.64
484.408	2.66
484.761	2.57
485.114	2.44
485.466	2.46
485.819	2.43
486.172	2.49
486.525	2.57
486.878	2.57
487.23	2.61
487.583	2.65
487.936	2.6
488.288	2.63
488.641	2.54
488.993	2.59
489.345	2.48
489.698	2.56
490.05	2.54
490.402	2.58
490.754	2.64
491.107	2.64
491.459	2.72
491.811	2.7
492.163	2.76
492.515	2.67
492.866	2.64
493.218	2.55
493.57	2.57
493.922	2.63
494.274	2.74
494.625	2.72
494.977	2.82
495.328	2.9
495.68	2.77
496.031	2.81
496.383	2.9
496.734	2.92
497.086	2.84
497.437	2.82
497.788	2.74
498.139	2.84
498.49	2.68
498.842	2.64
499.193	2.84
499.544	2.93
499.894	2.82
500.245	2.84
500.596	2.73
500.947	2.84
501.298	2.83
501.648	2.82
501.999	2.89
502.35	2.93
502.7	2.94
503.051	2.78
503.401	2.86
503.752	2.84
504.102	2.84
504.452	2.97
504.803	2.75
505.153	2.86
505.503	2.9
505.853	2.88
506.203	2.93
506.553	2.68
506.903	2.96
507.253	2.91
507.603	2.85
507.953	2.87
508.303	2.83
508.652	2.83
509.002	2.86
509.352	2.81
509.701	2.92
510.051	2.86
510.4	2.8
510.75	2.73
511.099	2.75
511.449	2.93
511.798	2.85
512.147	2.78
512.496	2.79
512.846	3.01
513.195	2.94
513.544	2.89
513.893	2.85
514.242	2.88
514.591	2.89
514.939	2.9
515.288	2.83
515.637	2.89
515.986	3.01
516.334	3.01
516.683	2.85
517.032	2.96
517.38	3
517.729	2.79
518.077	2.99
518.426	3.05
518.774	2.89
519.122	2.94
519.47	2.95
519.819	2.81
520.167	2.86
520.515	2.92
520.863	2.92
521.211	2.89
521.559	2.89
521.907	2.92
522.255	2.93
522.602	2.94
522.95	3
523.298	3.05
523.645	2.98
523.993	2.99
524.341	3.11
524.688	3
525.036	3.08
525.383	2.99
525.73	2.96
526.078	2.96
526.425	2.89
526.772	3.01
527.119	2.92
527.466	2.89
527.814	2.93
528.161	2.98
528.508	2.91
528.854	2.89
529.201	2.92
529.548	2.85
529.895	2.75
530.242	2.74
530.588	2.74
530.935	2.78
531.282	2.94
531.628	2.93
531.975	2.96
532.321	2.94
532.667	3.06
533.014	2.96
533.36	3.02
533.706	3.06
534.052	3.01
534.399	2.89
534.745	2.89
535.091	2.89
535.437	2.89
535.783	2.96
536.129	3.03
536.474	3.07
536.82	3.04
537.166	3.02
537.512	3.17
537.857	3
538.203	2.9
538.549	3.08
538.894	3.02
539.239	3.06
539.585	3.08
539.93	3.13
540.276	3.2
540.621	3.09
540.966	3.21
541.311	3.1
541.656	3.12
542.001	3.05
542.346	3.05
542.691	2.96
543.036	2.84
543.381	2.88
543.726	2.92
544.071	2.98
544.415	3.05
544.76	3.1
545.105	3.01
545.449	3.02
545.794	3.1
546.138	3.11
546.483	3.19
546.827	3.21
547.171	3.18
547.516	3.09
547.86	3.04
548.204	3.1
548.548	3.08
548.892	3.16
549.236	3.11
549.58	3.2
549.924	3.29
550.268	3.22
550.612	3.25
550.956	3.38
551.3	3.26
551.643	3.18
551.987	3.36
552.33	3.25
552.674	3.27
553.017	3.39
553.361	3.21
553.704	3.23
554.048	3.25
554.391	3.25
554.734	3.14
555.077	3.36
555.42	3.25
555.764	3.21
556.107	3.57
556.45	3.38
556.793	3.35
557.135	3.18
557.478	3.31
557.821	3.42
558.164	3.3
558.507	3.41
558.849	3.32
559.192	3.23
559.534	3.24
559.877	3.46
560.219	3.22
560.562	3.23
560.904	3.38
561.246	3.18
561.589	3.4
561.931	3.18
562.273	3.48
562.615	3.23
562.957	3.3
563.299	3.34
563.641	3.32
563.983	3.28
564.325	3.45
564.667	3.43
565.008	3.43
565.35	3.36
565.692	3.14
566.033	3.27
566.375	3.37
566.716	3.52
567.058	3.4
567.399	3.45
567.741	3.44
568.082	3.31
568.423	3.29
568.764	3.51
569.105	3.37
569.447	3.56
569.788	3.49
570.129	3.31
570.47	3.62
570.811	3.52
571.151	3.5
571.492	3.37
571.833	3.43
572.174	3.42
572.514	3.44
572.855	3.57
573.195	3.17
573.536	3.43
573.876	3.42
574.217	3.49
574.557	3.43
574.898	3.31
575.238	3.38
575.578	3.42
575.918	3.54
576.258	3.33
576.598	3.42
576.938	3.62
577.278	3.42
577.618	3.37
577.958	3.38
578.298	3.53
578.638	3.39
578.977	3.45
579.317	3.71
579.657	3.6
579.996	3.28
580.336	3.66
580.675	3.53
581.014	3.65
581.354	3.37
581.693	3.43
582.032	3.45
582.372	3.71
582.711	3.36
583.05	3.5
583.389	3.58
583.728	3.4
584.067	3.63
584.406	3.42
584.745	3.68
585.083	3.56
585.422	3.69
585.761	3.67
586.1	3.71
586.438	3.48
586.777	3.51
587.115	3.44
587.454	3.54
587.792	3.59
588.13	3.49
588.469	3.38
588.807	3.54
589.145	3.7
589.483	3.65
589.821	3.58
590.159	3.65
590.497	3.75
590.835	3.69
591.173	3.55
591.511	3.62
591.849	3.65
592.187	3.58
592.524	3.75
592.862	3.44
593.2	3.69
593.537	3.79
593.875	3.84
594.212	3.68
594.55	3.61
594.887	3.71
595.224	3.5
595.561	3.47
595.899	3.38
596.236	3.56
596.573	3.67
596.91	3.81
597.247	3.87
597.584	3.49
597.921	3.85
598.258	3.59
598.594	3.67
598.931	3.36
599.268	3.79
599.604	3.77
599.941	3.67
600.277	3.79
600.614	3.97
600.95	3.52
601.287	3.71
601.623	4.02
601.959	3.79
602.296	3.67
602.632	3.66
602.968	3.87
603.304	3.81
603.64	3.81
603.976	3.94
604.312	3.82
604.648	3.58
604.984	3.69
605.319	3.59
605.655	3.62
605.991	3.6
606.326	3.85
606.662	3.58
606.998	3.65
607.333	3.86
607.668	3.69
608.004	3.87
608.339	3.84
608.674	3.86
609.01	3.7
609.345	3.62
609.68	3.52
610.015	3.72
610.35	3.79
610.685	3.83
611.02	3.68
611.355	3.85
611.689	3.61
612.024	3.73
612.359	3.66
612.694	3.6
613.028	3.87
613.363	3.98
613.697	4.07
614.032	3.9
614.366	3.89
614.7	3.79
615.035	3.67
615.369	3.68
615.703	3.88
616.037	4.05
616.371	3.5
616.705	3.96
617.039	4.18
617.373	3.83
617.707	3.79
618.041	3.82
618.375	3.69
618.709	4.05
619.042	3.96
619.376	4.06
619.71	3.91
620.043	4.04
620.377	4.1
620.71	3.89
621.043	3.93
621.377	3.86
621.71	3.66
622.043	4.06
622.376	4.24
622.709	3.63
623.043	3.85
623.376	4.14
623.709	4.11
624.041	4.22
624.374	3.72
624.707	4.11
625.04	3.82
625.373	3.89
625.705	3.82
626.038	4.06
626.37	4.04
626.703	3.86
627.035	3.92
627.368	3.75
627.7	3.91
628.032	3.9
628.365	4.09
628.697	4.03
629.029	3.86
629.361	3.97
629.693	4.07
630.025	3.97
630.357	4.23
630.689	4
631.021	3.78
631.353	4.42
631.684	4.16
632.016	3.86
632.348	4.1
632.679	3.92
633.011	3.91
633.342	4.13
633.674	3.99
634.005	3.69
634.336	4.12
634.668	3.91
634.999	4.18
635.33	4.11
635.661	4.18
635.992	4.34
636.323	3.82
636.654	4.35
636.985	4.18
637.316	3.82
637.647	4.27
637.977	4.14
638.308	3.98
638.639	4.05
638.969	4.09
639.3	4.14
639.63	4.18
639.961	4
640.291	4.49
640.622	4.36
640.952	3.9
641.282	3.62
641.612	3.84
641.943	4.3
642.273	4.2
642.603	4.2
642.933	4.37
643.263	4.22
643.592	4.5
643.922	4.35
644.252	4.57
644.582	4.1
644.911	4.24
645.241	4.11
645.571	4.1
645.9	3.84
646.23	4.64
646.559	4.14
646.888	4.24
647.218	4.35
647.547	4.07
647.876	3.98
648.205	4.24
648.534	4.17
648.863	4.1
649.192	4.44
649.521	4.45
649.85	4.21
650.179	4.51
650.508	4.5
650.837	4.46
651.165	3.79
651.494	4.53
651.822	4.06
652.151	3.84
652.479	3.95
652.808	4.06
653.136	4.08
653.465	4.47
653.793	4.28
654.121	3.78
654.449	3.63
654.777	4.64
655.105	4.28
655.433	4.2
655.761	4.42
656.089	4.06
656.417	3.98
656.745	4.4
657.073	4.42
657.4	3.45
657.728	4.53
658.056	4.91
658.383	4.22
658.711	4.38
659.038	4.53
659.365	3.87
659.693	4.03
660.02	5
660.347	4.14
660.674	4.6
661.001	4.16
661.329	4.24
661.656	4.16
661.982	4.4
662.309	4.3
662.636	4.82
662.963	4.19
663.29	4.19
663.616	3.78
663.943	4.52
664.27	4.6
664.596	4.67
664.923	4.27
665.249	4.42
665.576	4.73
665.902	4.87
666.228	4.44
666.554	3.89
666.881	4.35
667.207	4.29
667.533	4.47
667.859	4.77
668.185	4.65
668.511	4.96
668.837	4.82
669.162	4.62
669.488	4.22
669.814	4.47
670.139	4.23
670.465	4.33
670.791	3.95
671.116	4.46
671.442	4.3
671.767	4.87
672.092	4.21
672.418	4.31
672.743	3.81
673.068	5.03
673.393	4.76
673.718	4.62
674.043	4.75
674.368	4.33
674.693	3.96
675.018	4.95
675.343	4.58
675.667	4.66
675.992	5.61
676.317	4.3
676.641	3.75
676.966	4.85
677.29	4.52
677.615	4.59
677.939	4.72
678.264	3.7
678.588	3.96
678.912	4.58
679.236	4.92
679.56	4.83
679.885	4.74
680.209	4.6
680.532	4.84
680.856	4.97
681.18	4.54
681.504	4.5
681.828	4.98
682.152	4.46
682.475	4.43
682.799	4.4
683.122	4.63
683.446	5.29
683.769	4.81
684.093	4.57
684.416	4.54
684.739	5.23
685.062	4.36
685.386	4.68
685.709	5.25
686.032	4.25
686.355	5.01
686.678	4.83
687.001	4.38
687.324	4.62
687.646	4.24
687.969	4.79
688.292	5.17
688.614	5.08
688.937	4.41
689.26	4.37
689.582	4.62
689.904	4.84
690.227	5.27
690.549	4.78
690.871	4.43
691.194	4.75
691.516	4.33
691.838	4.94
692.16	4.74
692.482	4.4
