Data from 20-11_chest_Reflection__0__45.txt Node

Date: Fri Nov 11 20:34:25 CST 2022
User: ToomeyLab
Spectrometer: FLMS14357
Trigger mode: 0
Integration Time (sec): 1.000000E-2
Scans to average: 100
Electric dark correction enabled: true
Nonlinearity correction enabled: false
Boxcar width: 0
XAxis mode: Wavelengths
Number of Pixels in Spectrum: 2048
>>>>>Begin Spectral Data<<<<<
189.047	-1400
189.435	-1400
189.823	-1400
190.211	-153.1
190.599	425.34
190.987	-173.99
191.375	-13400
191.763	374.15
192.151	-63.52
192.538	5.15
192.926	176.91
193.314	331.26
193.702	-355.88
194.089	-18.32
194.477	61
194.864	33.15
195.252	78.22
195.639	13.13
196.027	148.39
196.414	37.66
196.801	-463.37
197.189	93.09
197.576	-34.83
197.963	44.61
198.351	-60.81
198.738	5.85
199.125	65.96
199.512	49.16
199.899	-160.52
200.286	-9.1
200.673	25.52
201.06	60.28
201.447	47.04
201.833	18.84
202.22	6.33
202.607	13.5
202.994	41.98
203.38	42.01
203.767	-10.28
204.154	22.87
204.54	-1.32
204.927	47.3
205.313	5.46
205.699	-43.88
206.086	34.49
206.472	29.44
206.858	40.16
207.245	47.83
207.631	-18.83
208.017	30.74
208.403	28.71
208.789	15.16
209.175	27.62
209.561	39.18
209.947	6.72
210.333	8.62
210.719	46.4
211.105	49.97
211.491	4.4
211.876	20.95
212.262	27.62
212.648	15.51
213.034	-6.4
213.419	3.4
213.805	9.04
214.19	8.7
214.576	13.23
214.961	-22.4
215.346	-3.64
215.732	2.51
216.117	25.26
216.502	-13.39
216.888	-6.52
217.273	-5.49
217.658	0.44
218.043	1.5
218.428	12.31
218.813	15.1
219.198	32.54
219.583	12.01
219.968	-9.87
220.353	-13.99
220.738	3.24
221.122	20.29
221.507	-38.18
221.892	-0.02
222.276	2.44
222.661	30.82
223.046	-18
223.43	26.64
223.815	-3.2
224.199	11.04
224.583	-2.15
224.968	2.53
225.352	9.21
225.736	1.2
226.121	6.76
226.505	8.8
226.889	-0.08
227.273	5.01
227.657	2.56
228.041	3.84
228.425	0.79
228.809	1.75
229.193	5.75
229.577	3.92
229.961	3.12
230.344	4.27
230.728	2.11
231.112	1.84
231.495	2.93
231.879	2.21
232.263	2.04
232.646	1.49
233.03	2.97
233.413	2.64
233.797	1.89
234.18	2.63
234.563	3.05
234.946	1.2
235.33	2.6
235.713	1.01
236.096	2.68
236.479	2.15
236.862	3.24
237.245	3.16
237.628	3.75
238.011	4.72
238.394	3.6
238.777	3.74
239.16	3.85
239.543	2.64
239.925	3.13
240.308	1.87
240.691	3.75
241.073	1.48
241.456	2.05
241.838	3.58
242.221	2.21
242.603	3.42
242.986	2.6
243.368	2.51
243.75	2.82
244.133	2.62
244.515	2.5
244.897	3.24
245.279	2.37
245.661	3.12
246.043	3.08
246.425	3.49
246.807	2.97
247.189	3.05
247.571	2.36
247.953	2.85
248.335	3.19
248.717	2.93
249.098	3.16
249.48	2.61
249.862	3.14
250.243	2.84
250.625	3.17
251.006	3.17
251.388	3.25
251.769	3.5
252.151	2.33
252.532	3.36
252.913	3.92
253.295	3.24
253.676	2.8
254.057	2.41
254.438	2.86
254.819	2.36
255.2	3.69
255.581	3.13
255.962	2.99
256.343	2.22
256.724	2.13
257.105	2.3
257.486	2.49
257.867	3.81
258.247	2.86
258.628	2.49
259.009	2.27
259.389	2.07
259.77	3.37
260.15	2.91
260.531	2.58
260.911	2.28
261.292	2.88
261.672	2.42
262.052	2.6
262.432	2.66
262.813	2.75
263.193	2.75
263.573	2.33
263.953	3.6
264.333	2.5
264.713	2.61
265.093	3.14
265.473	1.96
265.853	2.62
266.233	2.63
266.612	2.27
266.992	2.15
267.372	3.15
267.752	2.94
268.131	2.54
268.511	2.47
268.89	2.54
269.27	2.83
269.649	2.08
270.029	2.55
270.408	2.47
270.787	2.49
271.167	2.11
271.546	2.02
271.925	2.52
272.304	2.68
272.683	2.37
273.062	2.13
273.441	2.61
273.82	2.56
274.199	2.01
274.578	2.43
274.957	2.45
275.336	2.75
275.715	2.37
276.093	2.21
276.472	2.65
276.851	2.08
277.229	1.98
277.608	2.92
277.986	2.48
278.365	2.14
278.743	2.2
279.122	2.98
279.5	2.76
279.878	2.82
280.257	2.58
280.635	2.14
281.013	2.67
281.391	2.36
281.769	2.35
282.147	2.32
282.525	2.35
282.903	1.99
283.281	2.75
283.659	2.51
284.037	2.35
284.415	2.25
284.792	2.65
285.17	3.03
285.548	2.32
285.925	2.13
286.303	2.39
286.68	2.8
287.058	2.89
287.435	2.26
287.813	2.62
288.19	2.21
288.567	2.68
288.945	2.76
289.322	2.82
289.699	2.02
290.076	2.97
290.453	2.83
290.83	2.66
291.207	2.94
291.584	2.67
291.961	2.67
292.338	2.79
292.715	2.97
293.092	3.3
293.469	3.16
293.845	3.01
294.222	2.77
294.599	3.53
294.975	3.03
295.352	3.53
295.728	2.75
296.105	3.21
296.481	2.52
296.858	2.84
297.234	2.95
297.61	2.77
297.986	3.18
298.363	3.47
298.739	3.27
299.115	3.43
299.491	3.39
299.867	3.17
300.243	3.39
300.619	3.06
300.995	3.37
301.371	3.84
301.746	3.71
302.122	3.27
302.498	3.61
302.874	3.69
303.249	3.37
303.625	3.44
304	3.1
304.376	3.4
304.751	3.29
305.127	2.84
305.502	3.85
305.878	3.47
306.253	3.18
306.628	2.99
307.003	3.5
307.378	3.29
307.754	3.63
308.129	3.19
308.504	3.38
308.879	3.13
309.254	3.76
309.629	2.92
310.003	3.03
310.378	3.4
310.753	3.86
311.128	3.95
311.502	3.42
311.877	3.74
312.252	3.59
312.626	3.37
313.001	3.44
313.375	3.52
313.75	3.33
314.124	3.38
314.498	3.62
314.873	3.15
315.247	4.04
315.621	3.93
315.995	3.85
316.369	3.75
316.743	3.41
317.117	3.6
317.491	3.87
317.865	3.48
318.239	4.17
318.613	3.84
318.987	3.97
319.361	3.85
319.734	3.88
320.108	3.61
320.482	4.16
320.855	3.47
321.229	3.78
321.602	3.74
321.976	3.53
322.349	4.17
322.723	4.41
323.096	3.99
323.469	4.27
323.843	3.93
324.216	3.8
324.589	4.41
324.962	4.56
325.335	3.65
325.708	3.78
326.081	3.89
326.454	3.6
326.827	3.11
327.2	4.29
327.573	4.38
327.945	4.19
328.318	3.7
328.691	4.05
329.063	3.89
329.436	3.7
329.809	3.85
330.181	3.72
330.553	3.6
330.926	3.92
331.298	4.03
331.671	3.75
332.043	3
332.415	4.1
332.787	4.2
333.159	3.99
333.532	4.67
333.904	4.02
334.276	3.84
334.648	3.33
335.02	4.04
335.391	4.31
335.763	4.02
336.135	3.52
336.507	4.08
336.879	4.05
337.25	3.53
337.622	4.23
337.993	3.69
338.365	4.27
338.736	3.83
339.108	3.82
339.479	3.61
339.851	3.9
340.222	3.56
340.593	4.29
340.964	3.85
341.336	4.07
341.707	3.77
342.078	3.67
342.449	3.77
342.82	4.09
343.191	4.27
343.562	3.86
343.933	3.72
344.303	3.78
344.674	3.85
345.045	3.59
345.416	3.78
345.786	3.86
346.157	3.88
346.527	4.04
346.898	3.15
347.268	3.75
347.639	3.79
348.009	3.68
348.38	4.07
348.75	3.86
349.12	4.49
349.49	4.1
349.861	4.23
350.231	4.08
350.601	4.06
350.971	3.97
351.341	3.96
351.711	4.02
352.081	3.97
352.45	3.78
352.82	3.58
353.19	3.95
353.56	3.66
353.929	3.8
354.299	3.61
354.669	4.14
355.038	3.91
355.408	4.02
355.777	4.13
356.147	4.08
356.516	3.91
356.885	4.12
357.254	3.86
357.624	3.62
357.993	3.77
358.362	4.03
358.731	3.53
359.1	3.76
359.469	3.22
359.838	3.91
360.207	3.99
360.576	3.98
360.945	3.95
361.314	3.58
361.682	4.03
362.051	3.96
362.42	3.71
362.788	3.93
363.157	3.82
363.525	3.64
363.894	3.85
364.262	4.28
364.631	4.15
364.999	3.88
365.367	3.79
365.735	3.92
366.104	3.74
366.472	3.83
366.84	3.54
367.208	3.7
367.576	4.19
367.944	4.24
368.312	3.69
368.68	3.82
369.048	4.12
369.416	3.76
369.783	4.24
370.151	3.71
370.519	4.01
370.886	3.85
371.254	4.06
371.621	3.84
371.989	3.81
372.356	4.02
372.724	4.44
373.091	4.11
373.458	3.88
373.826	3.98
374.193	3.68
374.56	3.85
374.927	3.9
375.294	4.1
375.661	4.23
376.028	3.61
376.395	4.18
376.762	4.05
377.129	3.81
377.496	4.02
377.863	4.34
378.229	4.2
378.596	3.76
378.963	3.97
379.329	4.01
379.696	3.91
380.062	3.99
380.429	4.15
380.795	4.27
381.161	4.25
381.528	4.03
381.894	3.91
382.26	4.25
382.626	4.31
382.993	3.74
383.359	4.2
383.725	3.87
384.091	4.25
384.457	3.97
384.823	3.9
385.188	3.95
385.554	4.18
385.92	4.04
386.286	4.08
386.651	4.01
387.017	4.31
387.383	4.08
387.748	3.97
388.114	4.07
388.479	3.89
388.845	4.12
389.21	3.99
389.575	4.18
389.94	4.26
390.306	3.78
390.671	4.29
391.036	4.19
391.401	4.02
391.766	4.22
392.131	4.3
392.496	4.12
392.861	4.09
393.226	4.2
393.591	4.02
393.956	4.05
394.32	3.95
394.685	4.12
395.05	4.14
395.414	4.13
395.779	4.13
396.143	4.22
396.508	4.35
396.872	4.28
397.236	4.17
397.601	4.14
397.965	4.15
398.329	4.16
398.694	4.2
399.058	4.14
399.422	4.32
399.786	4.18
400.15	4.16
400.514	4.41
400.878	4.2
401.242	4.32
401.605	4.49
401.969	4.34
402.333	4.14
402.697	4.27
403.06	4.52
403.424	4.1
403.787	4.34
404.151	4.19
404.514	4.23
404.878	4.3
405.241	4.22
405.604	4.36
405.968	4.39
406.331	4.2
406.694	4.22
407.057	4.32
407.42	4.23
407.783	4.4
408.146	4.48
408.509	4.43
408.872	4.37
409.235	4.54
409.598	4.27
409.961	4.51
410.323	4.08
410.686	4.35
411.049	4.28
411.411	4.29
411.774	4.34
412.136	4.36
412.499	4.35
412.861	4.43
413.223	4.19
413.586	4.24
413.948	4.67
414.31	4.58
414.672	4.38
415.035	4.38
415.397	4.43
415.759	4.18
416.121	4.32
416.483	4.25
416.845	4.23
417.206	4.39
417.568	4.41
417.93	4.25
418.292	4.16
418.653	4.51
419.015	4.24
419.377	4.41
419.738	4.4
420.1	4.41
420.461	4.48
420.822	4.26
421.184	4.28
421.545	4.36
421.906	4.33
422.267	4.24
422.629	4.18
422.99	4.34
423.351	4.21
423.712	4.24
424.073	4.39
424.434	4.31
424.795	4.45
425.155	4.25
425.516	4.36
425.877	4.33
426.238	4.25
426.598	4.3
426.959	4.26
427.32	4.35
427.68	4.43
428.041	4.48
428.401	4.12
428.761	4.52
429.122	4.33
429.482	4.52
429.842	4.49
430.202	4.57
430.563	4.67
430.923	4.51
431.283	4.41
431.643	4.36
432.003	4.58
432.363	4.41
432.722	4.58
433.082	4.62
433.442	4.47
433.802	4.6
434.161	4.51
434.521	4.58
434.881	4.64
435.24	4.59
435.6	4.42
435.959	4.5
436.319	4.42
436.678	4.58
437.037	4.62
437.396	4.53
437.756	4.45
438.115	4.47
438.474	4.39
438.833	4.61
439.192	4.61
439.551	4.55
439.91	4.76
440.269	4.57
440.628	4.68
440.987	4.63
441.345	4.58
441.704	4.48
442.063	4.61
442.421	4.59
442.78	4.45
443.138	4.57
443.497	4.44
443.855	4.57
444.214	4.49
444.572	4.66
444.93	4.69
445.288	4.66
445.647	4.87
446.005	4.87
446.363	4.82
446.721	4.59
447.079	4.67
447.437	4.51
447.795	4.59
448.153	4.63
448.51	4.56
448.868	4.63
449.226	4.64
449.584	4.55
449.941	4.68
450.299	4.59
450.656	4.71
451.014	4.68
451.371	4.63
451.729	4.69
452.086	4.78
452.443	4.8
452.801	4.77
453.158	4.71
453.515	4.77
453.872	4.76
454.229	4.79
454.586	4.73
454.943	4.99
455.3	4.83
455.657	4.78
456.014	4.86
456.371	4.9
456.727	4.92
457.084	4.63
457.441	4.96
457.797	4.91
458.154	4.69
458.51	4.82
458.867	4.77
459.223	4.88
459.58	4.9
459.936	4.94
460.292	4.85
460.648	4.78
461.005	4.8
461.361	4.83
461.717	4.79
462.073	4.82
462.429	4.74
462.785	4.7
463.141	4.8
463.496	4.89
463.852	4.88
464.208	4.87
464.564	5.08
464.919	5.05
465.275	5.01
465.631	5.02
465.986	5.12
466.342	4.96
466.697	5.05
467.052	5.06
467.408	4.94
467.763	4.95
468.118	5.11
468.473	5.04
468.829	5.08
469.184	5.12
469.539	5.19
469.894	5
470.249	5.14
470.603	5.04
470.958	5.03
471.313	5.07
471.668	5.25
472.023	5.1
472.377	5.19
472.732	5.04
473.086	5.12
473.441	5.08
473.795	5.14
474.15	5.21
474.504	5.32
474.859	5.07
475.213	5.17
475.567	5.17
475.921	5.21
476.275	5.12
476.63	5.2
476.984	5.24
477.338	5.23
477.692	5.04
478.045	5.05
478.399	5.22
478.753	4.98
479.107	5.02
479.461	5.12
479.814	5.08
480.168	5.13
480.521	5.22
480.875	5.21
481.228	5.14
481.582	5.25
481.935	5.13
482.289	5.08
482.642	5.16
482.995	5.08
483.348	5.03
483.701	5.04
484.055	4.98
484.408	5.03
484.761	5
485.114	4.84
485.466	4.81
485.819	4.83
486.172	4.86
486.525	4.9
486.878	4.97
487.23	4.98
487.583	5.09
487.936	4.99
488.288	5.02
488.641	4.97
488.993	5.01
489.345	4.93
489.698	4.91
490.05	4.95
490.402	4.99
490.754	5.09
491.107	5.02
491.459	5.12
491.811	5.21
492.163	5.25
492.515	5.21
492.866	5.12
493.218	5.02
493.57	5.05
493.922	5.09
494.274	5.15
494.625	5.17
494.977	5.24
495.328	5.28
495.68	5.31
496.031	5.37
496.383	5.37
496.734	5.41
497.086	5.5
497.437	5.41
497.788	5.3
498.139	5.36
498.49	5.34
498.842	5.32
499.193	5.35
499.544	5.41
499.894	5.36
500.245	5.39
500.596	5.45
500.947	5.46
501.298	5.5
501.648	5.43
501.999	5.48
502.35	5.55
502.7	5.49
503.051	5.44
503.401	5.59
503.752	5.49
504.102	5.58
504.452	5.55
504.803	5.38
505.153	5.41
505.503	5.69
505.853	5.63
506.203	5.65
506.553	5.46
506.903	5.47
507.253	5.48
507.603	5.59
507.953	5.62
508.303	5.46
508.652	5.59
509.002	5.65
509.352	5.47
509.701	5.61
510.051	5.52
510.4	5.68
510.75	5.51
511.099	5.52
511.449	5.61
511.798	5.59
512.147	5.56
512.496	5.5
512.846	5.76
513.195	5.69
513.544	5.58
513.893	5.62
514.242	5.56
514.591	5.71
514.939	5.75
515.288	5.66
515.637	5.73
515.986	5.62
516.334	5.72
516.683	5.66
517.032	5.72
517.38	5.71
517.729	5.76
518.077	5.79
518.426	5.84
518.774	5.7
519.122	5.83
519.47	5.74
519.819	5.71
520.167	5.71
520.515	5.63
520.863	5.8
521.211	5.74
521.559	5.64
521.907	5.84
522.255	5.76
522.602	5.9
522.95	5.82
523.298	6.03
523.645	5.94
523.993	5.93
524.341	5.96
524.688	5.86
525.036	5.94
525.383	5.91
525.73	5.87
526.078	5.77
526.425	5.88
526.772	5.89
527.119	5.79
527.466	5.82
527.814	5.79
528.161	5.95
528.508	5.91
528.854	5.79
529.201	5.81
529.548	5.75
529.895	5.72
530.242	5.67
530.588	5.66
530.935	5.68
531.282	5.75
531.628	5.78
531.975	5.85
532.321	5.84
532.667	5.94
533.014	5.93
533.36	5.99
533.706	6.01
534.052	6
534.399	5.87
534.745	5.82
535.091	5.88
535.437	5.88
535.783	5.92
536.129	5.97
536.474	5.99
536.82	5.97
537.166	6.06
537.512	6
537.857	6.02
538.203	6.01
538.549	6.16
538.894	6.11
539.239	6.05
539.585	6.07
539.93	6.19
540.276	6.33
540.621	6.16
540.966	6.28
541.311	6.23
541.656	6.28
542.001	6.2
542.346	6.17
542.691	6.07
543.036	5.99
543.381	5.99
543.726	6.07
544.071	6.14
544.415	6.13
544.76	6.19
545.105	6.19
545.449	6.13
545.794	6.3
546.138	6.25
546.483	6.3
546.827	6.42
547.171	6.42
547.516	6.34
547.86	6.24
548.204	6.41
548.548	6.27
548.892	6.33
549.236	6.4
549.58	6.43
549.924	6.58
550.268	6.62
550.612	6.55
550.956	6.68
551.3	6.56
551.643	6.68
551.987	6.67
552.33	6.71
552.674	6.58
553.017	6.82
553.361	6.83
553.704	6.79
554.048	6.57
554.391	6.7
554.734	6.65
555.077	6.78
555.42	6.75
555.764	6.92
556.107	6.87
556.45	6.89
556.793	6.83
557.135	6.74
557.478	6.89
557.821	6.85
558.164	6.82
558.507	6.92
558.849	6.8
559.192	6.93
559.534	6.89
559.877	6.95
560.219	6.85
560.562	7.02
560.904	6.91
561.246	6.93
561.589	7.01
561.931	6.79
562.273	6.91
562.615	6.96
562.957	6.97
563.299	7.12
563.641	6.92
563.983	6.98
564.325	7.04
564.667	7.13
565.008	7.28
565.35	7.11
565.692	7
566.033	6.99
566.375	7.08
566.716	7.05
567.058	7.07
567.399	7.31
567.741	7.29
568.082	6.99
568.423	7.13
568.764	7.14
569.105	6.99
569.447	7.26
569.788	7.3
570.129	7.07
570.47	7.33
570.811	7.31
571.151	7.35
571.492	7.43
571.833	7.25
572.174	7.4
572.514	7.49
572.855	7.5
573.195	7.14
573.536	7.38
573.876	7.42
574.217	7.47
574.557	7.31
574.898	7.49
575.238	7.53
575.578	7.48
575.918	7.48
576.258	7.42
576.598	7.42
576.938	7.4
577.278	7.36
577.618	7.54
577.958	7.51
578.298	7.54
578.638	7.57
578.977	7.65
579.317	7.75
579.657	7.75
579.996	7.63
580.336	7.68
580.675	7.82
581.014	7.59
581.354	7.52
581.693	7.54
582.032	7.74
582.372	7.84
582.711	7.7
583.05	7.81
583.389	7.83
583.728	7.88
584.067	7.73
584.406	7.74
584.745	7.95
585.083	7.92
585.422	7.72
585.761	7.8
586.1	8.03
586.438	7.82
586.777	7.95
587.115	7.98
587.454	7.95
587.792	8.08
588.13	7.88
588.469	7.92
588.807	7.94
589.145	8.07
589.483	8.21
589.821	7.95
590.159	8.05
590.497	8.09
590.835	8.29
591.173	8.29
591.511	7.91
591.849	8.1
592.187	7.96
592.524	8.09
592.862	7.97
593.2	8.19
593.537	8.11
593.875	8.5
594.212	8.2
594.55	8.17
594.887	8.2
595.224	8.06
595.561	8.04
595.899	7.99
596.236	8.31
596.573	8.22
596.91	8.31
597.247	8.23
597.584	8.11
597.921	8.17
598.258	8.15
598.594	8.24
598.931	8.01
599.268	8.14
599.604	8.21
599.941	8.22
600.277	8.52
600.614	8.49
600.95	8.27
601.287	8.32
601.623	8.75
601.959	8.65
602.296	8.34
602.632	8.55
602.968	8.65
603.304	8.57
603.64	8.53
603.976	8.54
604.312	8.69
604.648	8.36
604.984	8.32
605.319	8.48
605.655	8.66
605.991	8.39
606.326	8.66
606.662	8.47
606.998	8.51
607.333	8.71
607.668	8.52
608.004	8.78
608.339	8.7
608.674	8.78
609.01	8.78
609.345	8.8
609.68	8.73
610.015	8.57
610.35	8.6
610.685	8.74
611.02	8.74
611.355	8.8
611.689	8.75
612.024	8.78
612.359	8.64
612.694	8.73
613.028	9.01
613.363	8.76
613.697	9.13
614.032	9
614.366	8.65
614.7	9.01
615.035	8.88
615.369	8.97
615.703	9.05
616.037	9.35
616.371	9.11
616.705	8.98
617.039	9.24
617.373	8.9
617.707	9.3
618.041	9.05
618.375	9.04
618.709	9.11
619.042	9.38
619.376	9.27
619.71	9.52
620.043	9.69
620.377	9.25
620.71	9.15
621.043	9.16
621.377	9.27
621.71	9.39
622.043	9.52
622.376	9.35
622.709	9.05
623.043	9.48
623.376	9.43
623.709	9.56
624.041	9.61
624.374	9.41
624.707	9.46
625.04	9.25
625.373	9.35
625.705	9.18
626.038	9.44
626.37	9.38
626.703	9.61
627.035	9.19
627.368	9.19
627.7	9.44
628.032	9.67
628.365	9.81
628.697	9.56
629.029	9.44
629.361	9.44
629.693	9.68
630.025	9.73
630.357	9.45
630.689	9.57
631.021	9.75
631.353	9.8
631.684	9.4
632.016	9.82
632.348	9.42
632.679	9.53
633.011	9.88
633.342	9.89
633.674	9.89
634.005	9.92
634.336	9.76
634.668	9.78
634.999	9.85
635.33	9.94
635.661	10.06
635.992	10.02
636.323	9.65
636.654	10.03
636.985	10.33
637.316	9.85
637.647	10.24
637.977	9.95
638.308	10.07
638.639	10.02
638.969	10.05
639.3	10.48
639.63	10.26
639.961	10.01
640.291	10.49
640.622	10.22
640.952	10.34
641.282	10.19
641.612	10.13
641.943	10.54
642.273	10.4
642.603	10.71
642.933	10.34
643.263	9.85
643.592	10.48
643.922	10.61
644.252	10.51
644.582	10.4
644.911	10.06
645.241	10.5
645.571	9.87
645.9	10.7
646.23	10.93
646.559	10.58
646.888	10.34
647.218	10.41
647.547	10.38
647.876	10.46
648.205	10.63
648.534	10.22
648.863	10.32
649.192	10.2
649.521	10.19
649.85	10.82
650.179	10.31
650.508	10.54
650.837	10.91
651.165	10.29
651.494	11.11
651.822	10.7
652.151	10.6
652.479	10.25
652.808	10.25
653.136	10.67
653.465	10.53
653.793	10.87
654.121	10.59
654.449	10.17
654.777	10.98
655.105	10.64
655.433	10.77
655.761	10.58
656.089	10.93
656.417	10.75
656.745	11.15
657.073	10.67
657.4	10.38
657.728	11.17
658.056	10.98
658.383	10.78
658.711	11.2
659.038	11.01
659.365	10.65
659.693	10.88
660.02	11.76
660.347	10.9
660.674	11.06
661.001	10.69
661.329	11
661.656	11.19
661.982	11.1
662.309	10.76
662.636	11.22
662.963	11.17
663.29	11.24
663.616	10.36
663.943	10.81
664.27	11.14
664.596	11.16
664.923	11.04
665.249	11.57
665.576	11.15
665.902	10.93
666.228	11.52
666.554	11.02
666.881	11.13
667.207	11.22
667.533	11.46
667.859	11.55
668.185	11.97
668.511	11.26
668.837	11.65
669.162	11.69
669.488	11.52
669.814	11.29
670.139	11.44
670.465	11.04
670.791	10.94
671.116	11.27
671.442	11.81
671.767	11.89
672.092	11.39
672.418	11.65
672.743	11.32
673.068	11.72
673.393	12.55
673.718	11.75
674.043	11.79
674.368	11.87
674.693	11.46
675.018	11.94
675.343	11.81
675.667	11.48
675.992	12.42
676.317	12.1
676.641	11.43
676.966	11.99
677.29	11.4
677.615	11.8
677.939	11.65
678.264	11.8
678.588	11.68
678.912	12.11
679.236	12.4
679.56	11.9
679.885	11.79
680.209	11.68
680.532	12.44
680.856	12.66
681.18	11.73
681.504	11.73
681.828	12.13
682.152	12.13
682.475	11.96
682.799	11.59
683.122	11.69
683.446	12.52
683.769	12.19
684.093	12.17
684.416	11.63
684.739	12.89
685.062	11.95
685.386	12.14
685.709	12.28
686.032	11.79
686.355	11.9
686.678	12.52
687.001	12.01
687.324	12.21
687.646	11.77
687.969	12.57
688.292	12.99
688.614	12.32
688.937	11.69
