Data from 20-11_crown_Reflection__4__54.txt Node

Date: Fri Nov 11 20:36:47 CST 2022
User: ToomeyLab
Spectrometer: FLMS14357
Trigger mode: 0
Integration Time (sec): 1.000000E-2
Scans to average: 100
Electric dark correction enabled: true
Nonlinearity correction enabled: false
Boxcar width: 0
XAxis mode: Wavelengths
Number of Pixels in Spectrum: 2048
>>>>>Begin Spectral Data<<<<<
189.047	606.59
189.435	606.59
189.823	606.59
190.211	71.1
190.599	-2.95
190.987	188.24
191.375	-30666.67
191.763	337.41
192.151	-146.2
192.538	-20.91
192.926	-99.28
193.314	124.55
193.702	-116.25
194.089	257.67
194.477	60.96
194.864	85.74
195.252	97.9
195.639	42.34
196.027	-199.41
196.414	-346.62
196.801	-147.8
197.189	161.94
197.576	33.14
197.963	19.42
198.351	-79.39
198.738	-11.43
199.125	40.93
199.512	2.88
199.899	-71.01
200.286	0.57
200.673	33.37
201.06	15.2
201.447	42.33
201.833	-32.59
202.22	-44.88
202.607	10.53
202.994	8.85
203.38	55.59
203.767	33.79
204.154	-5.48
204.54	-28.94
204.927	12.88
205.313	14.42
205.699	-13.44
206.086	39.89
206.472	15.22
206.858	35.01
207.245	31.29
207.631	-4.33
208.017	23.53
208.403	19.59
208.789	-42.57
209.175	45.32
209.561	53.99
209.947	8.32
210.333	15.11
210.719	-0.96
211.105	33.77
211.491	21.24
211.876	-1.99
212.262	20.78
212.648	-14.4
213.034	-6.64
213.419	-2.84
213.805	3.48
214.19	2.16
214.576	5.84
214.961	-18.6
215.346	9.4
215.732	-3.35
216.117	15.1
216.502	12.78
216.888	-17.61
217.273	-7.49
217.658	-37.67
218.043	8.63
218.428	24.87
218.813	16.65
219.198	11.47
219.583	10.36
219.968	-0.21
220.353	-1.17
220.738	4.77
221.122	-2.22
221.507	-23.89
221.892	-10.42
222.276	7.12
222.661	21.47
223.046	0.33
223.43	-12.96
223.815	8.01
224.199	9.76
224.583	-4.92
224.968	-4.95
225.352	6.02
225.736	0.45
226.121	-2.69
226.505	3.82
226.889	-2.49
227.273	7.52
227.657	-6.85
228.041	4.48
228.425	2.04
228.809	3.5
229.193	6.27
229.577	2.14
229.961	2.29
230.344	2.23
230.728	1.66
231.112	1.37
231.495	1.61
231.879	1.22
232.263	1.32
232.646	-0.19
233.03	2.13
233.413	2.06
233.797	3.54
234.18	-0.04
234.563	2.7
234.946	0.63
235.33	2.1
235.713	1.02
236.096	0.02
236.479	0.71
236.862	3.63
237.245	1.89
237.628	1.78
238.011	2.8
238.394	2.32
238.777	3.45
239.16	3.56
239.543	1.41
239.925	3.41
240.308	0.26
240.691	4.44
241.073	2.63
241.456	1.97
241.838	2.98
242.221	2.35
242.603	3.26
242.986	1.53
243.368	1.64
243.75	1.89
244.133	1.98
244.515	1.89
244.897	1.99
245.279	1.37
245.661	1.74
246.043	1.57
246.425	2.64
246.807	1.94
247.189	1.86
247.571	1.64
247.953	1.76
248.335	1.85
248.717	1.91
249.098	2.06
249.48	1.69
249.862	2.11
250.243	2.02
250.625	1.99
251.006	3.07
251.388	2.33
251.769	3.18
252.151	2.43
252.532	1.79
252.913	2.68
253.295	2.61
253.676	1.36
254.057	1.64
254.438	1.53
254.819	1.46
255.2	2.76
255.581	2.09
255.962	0.72
256.343	1.92
256.724	2.11
257.105	1.39
257.486	2.21
257.867	3.05
258.247	0.95
258.628	2.03
259.009	1.71
259.389	1.43
259.77	2.3
260.15	1.69
260.531	2.2
260.911	1.54
261.292	1.73
261.672	1.5
262.052	1.59
262.432	1.77
262.813	1.87
263.193	2.1
263.573	1.93
263.953	1.95
264.333	1.56
264.713	1.31
265.093	2.14
265.473	0.91
265.853	1.62
266.233	1.07
266.612	1.31
266.992	1.5
267.372	2.07
267.752	1.41
268.131	1.46
268.511	1.77
268.89	1.64
269.27	1.67
269.649	1.7
270.029	1.72
270.408	1.87
270.787	1.75
271.167	1.72
271.546	2.14
271.925	2.33
272.304	1.87
272.683	1.92
273.062	1.81
273.441	1.57
273.82	1.5
274.199	1.14
274.578	1.73
274.957	1.69
275.336	2.03
275.715	2
276.093	1.34
276.472	2.08
276.851	1.42
277.229	1.4
277.608	1.87
277.986	1.86
278.365	1.47
278.743	1.38
279.122	1.93
279.5	1.47
279.878	1.78
280.257	2.01
280.635	1.63
281.013	1.65
281.391	2.09
281.769	1.23
282.147	1.45
282.525	1.26
282.903	1.56
283.281	1.71
283.659	2.06
284.037	1.98
284.415	1.68
284.792	1.31
285.17	2.42
285.548	1.35
285.925	1.56
286.303	1.12
286.68	2
287.058	1.69
287.435	1.55
287.813	1.97
288.19	1.65
288.567	1.53
288.945	1.85
289.322	1.88
289.699	1.25
290.076	2.14
290.453	1.7
290.83	1.3
291.207	1.39
291.584	1.65
291.961	1.54
292.338	1.79
292.715	1.68
293.092	1.46
293.469	1.7
293.845	1.62
294.222	1.4
294.599	1.87
294.975	1.63
295.352	1.75
295.728	1.28
296.105	1.5
296.481	1.54
296.858	1.6
297.234	1.38
297.61	1.68
297.986	1.85
298.363	1.68
298.739	1.73
299.115	1.72
299.491	2.01
299.867	1.6
300.243	2.02
300.619	1.74
300.995	1.84
301.371	2.55
301.746	2.16
302.122	2.18
302.498	1.96
302.874	1.9
303.249	1.59
303.625	1.62
304	1.56
304.376	1.83
304.751	1.4
305.127	1.65
305.502	2.16
305.878	1.73
306.253	2
306.628	1.95
307.003	1.83
307.378	1.62
307.754	2.43
308.129	1.94
308.504	2.3
308.879	1.84
309.254	2.22
309.629	1.64
310.003	1.95
310.378	2.05
310.753	2.34
311.128	2.13
311.502	1.84
311.877	1.86
312.252	1.89
312.626	1.76
313.001	1.83
313.375	1.78
313.75	1.76
314.124	1.47
314.498	1.67
314.873	1.67
315.247	2.03
315.621	1.63
315.995	1.78
316.369	1.94
316.743	1.77
317.117	1.97
317.491	1.67
317.865	1.89
318.239	1.57
318.613	2.25
318.987	2.06
319.361	1.85
319.734	2.04
320.108	1.98
320.482	2.47
320.855	1.52
321.229	1.78
321.602	2.15
321.976	1.89
322.349	1.89
322.723	2.51
323.096	1.99
323.469	1.66
323.843	2.24
324.216	1.73
324.589	2.08
324.962	2.12
325.335	2.01
325.708	2.06
326.081	2.21
326.454	1.73
326.827	2.08
327.2	2.73
327.573	2.49
327.945	1.98
328.318	1.71
328.691	2.19
329.063	2.3
329.436	1.99
329.809	2.28
330.181	1.74
330.553	1.73
330.926	2.05
331.298	2.47
331.671	1.94
332.043	1.46
332.415	1.98
332.787	2.27
333.159	1.79
333.532	2.09
333.904	2.2
334.276	1.93
334.648	1.7
335.02	1.86
335.391	2.32
335.763	2.18
336.135	1.58
336.507	2.23
336.879	2.24
337.25	2.2
337.622	2.33
337.993	2.37
338.365	2.04
338.736	1.8
339.108	1.97
339.479	2.09
339.851	1.88
340.222	2.19
340.593	2.6
340.964	2.2
341.336	2.35
341.707	2.05
342.078	1.77
342.449	2.15
342.82	2.05
343.191	2.18
343.562	1.72
343.933	1.99
344.303	1.67
344.674	1.87
345.045	1.88
345.416	1.75
345.786	1.79
346.157	1.78
346.527	2.16
346.898	1.36
347.268	1.61
347.639	2.04
348.009	1.79
348.38	2.17
348.75	1.69
349.12	2.54
349.49	2.5
349.861	1.91
350.231	2.2
350.601	1.82
350.971	2.14
351.341	2.31
351.711	2.15
352.081	2.16
352.45	2.18
352.82	1.6
353.19	2.21
353.56	2.12
353.929	1.95
354.299	2.34
354.669	2.24
355.038	2
355.408	2.21
355.777	2.1
356.147	2.23
356.516	1.82
356.885	1.99
357.254	1.76
357.624	1.83
357.993	2.35
358.362	2.14
358.731	1.41
359.1	1.85
359.469	1.98
359.838	1.93
360.207	2.18
360.576	2.05
360.945	2.07
361.314	1.71
361.682	2.11
362.051	1.83
362.42	2.2
362.788	2.12
363.157	2
363.525	1.83
363.894	1.84
364.262	2.15
364.631	2.28
364.999	2
365.367	2.27
365.735	1.96
366.104	1.97
366.472	1.88
366.84	1.59
367.208	1.81
367.576	2.28
367.944	2.21
368.312	2.22
368.68	2.06
369.048	2.14
369.416	2.28
369.783	2.29
370.151	2.08
370.519	2.25
370.886	1.98
371.254	2.31
371.621	2.03
371.989	2.11
372.356	2.36
372.724	2.28
373.091	2.26
373.458	2.27
373.826	1.99
374.193	2.06
374.56	2.13
374.927	1.99
375.294	1.97
375.661	2.19
376.028	1.96
376.395	2.2
376.762	2.32
377.129	2.14
377.496	2.07
377.863	2
378.229	2.25
378.596	2.03
378.963	2.14
379.329	2.06
379.696	1.94
380.062	2.15
380.429	2.38
380.795	2.45
381.161	2.42
381.528	1.82
381.894	2.32
382.26	2.37
382.626	2.36
382.993	2.15
383.359	2.31
383.725	1.95
384.091	2.13
384.457	2.34
384.823	2.06
385.188	2.27
385.554	2.03
385.92	1.9
386.286	2.21
386.651	2.17
387.017	2.05
387.383	2.05
387.748	2.1
388.114	2.2
388.479	2.11
388.845	2.31
389.21	2.07
389.575	2.15
389.94	2.05
390.306	2.18
390.671	2.13
391.036	2.28
391.401	2.31
391.766	2.45
392.131	2.25
392.496	2.16
392.861	2.17
393.226	2.12
393.591	2.2
393.956	2.16
394.32	2.21
394.685	2.2
395.05	2.37
395.414	2.23
395.779	2.14
396.143	2.17
396.508	2.2
396.872	2.13
397.236	2.08
397.601	2.09
397.965	2.1
398.329	2.03
398.694	2.32
399.058	2.32
399.422	2.36
399.786	2.05
400.15	2.28
400.514	2.17
400.878	2.31
401.242	2.17
401.605	2.35
401.969	2.24
402.333	2.04
402.697	1.98
403.06	2.37
403.424	1.95
403.787	2.29
404.151	2.34
404.514	2.3
404.878	2.26
405.241	1.96
405.604	2.15
405.968	2.16
406.331	1.96
406.694	2.13
407.057	2.22
407.42	2.47
407.783	2.22
408.146	2.21
408.509	2.39
408.872	2.52
409.235	2.36
409.598	2.38
409.961	2.25
410.323	2.07
410.686	2.27
411.049	1.91
411.411	2.16
411.774	2.29
412.136	2.28
412.499	2.3
412.861	2.13
413.223	2.17
413.586	2.27
413.948	2.57
414.31	2.41
414.672	2.24
415.035	2.41
415.397	2.11
415.759	2.23
416.121	2.23
416.483	2.18
416.845	2.36
417.206	2.03
417.568	2.37
417.93	2.26
418.292	2.1
418.653	2.28
419.015	2.22
419.377	2.32
419.738	2.33
420.1	2.19
420.461	2.19
420.822	2.15
421.184	2.13
421.545	2.26
421.906	2.18
422.267	2.14
422.629	2.1
422.99	2.22
423.351	2.21
423.712	2.14
424.073	2.28
424.434	2.29
424.795	2.18
425.155	2.26
425.516	2.28
425.877	2.19
426.238	2.16
426.598	2.09
426.959	2.23
427.32	2.24
427.68	2.39
428.041	2.37
428.401	2.14
428.761	2.21
429.122	2.1
429.482	2.24
429.842	2.25
430.202	2.23
430.563	2.43
430.923	2.54
431.283	2.26
431.643	2.25
432.003	2.54
432.363	2.25
432.722	2.4
433.082	2.31
433.442	2.39
433.802	2.35
434.161	2.34
434.521	2.22
434.881	2.41
435.24	2.28
435.6	2.26
435.959	2.38
436.319	2.23
436.678	2.45
437.037	2.38
437.396	2.37
437.756	2.3
438.115	2.29
438.474	2.37
438.833	2.18
439.192	2.48
439.551	2.24
439.91	2.42
440.269	2.21
440.628	2.3
440.987	2.17
441.345	2.27
441.704	2.31
442.063	2.31
442.421	2.26
442.78	2.18
443.138	2.35
443.497	2.3
443.855	2.34
444.214	2.25
444.572	2.37
444.93	2.27
445.288	2.37
445.647	2.46
446.005	2.44
446.363	2.47
446.721	2.31
447.079	2.33
447.437	2.22
447.795	2.36
448.153	2.32
448.51	2.32
448.868	2.31
449.226	2.28
449.584	2.32
449.941	2.33
450.299	2.26
450.656	2.38
451.014	2.4
451.371	2.28
451.729	2.34
452.086	2.2
452.443	2.4
452.801	2.56
453.158	2.34
453.515	2.38
453.872	2.38
454.229	2.38
454.586	2.31
454.943	2.45
455.3	2.27
455.657	2.44
456.014	2.45
456.371	2.48
456.727	2.44
457.084	2.21
457.441	2.61
457.797	2.44
458.154	2.46
458.51	2.52
458.867	2.36
459.223	2.49
459.58	2.41
459.936	2.47
460.292	2.45
460.648	2.42
461.005	2.35
461.361	2.36
461.717	2.37
462.073	2.46
462.429	2.41
462.785	2.38
463.141	2.33
463.496	2.44
463.852	2.62
464.208	2.45
464.564	2.37
464.919	2.38
465.275	2.27
465.631	2.49
465.986	2.55
466.342	2.48
466.697	2.44
467.052	2.47
467.408	2.53
467.763	2.3
468.118	2.48
468.473	2.57
468.829	2.44
469.184	2.49
469.539	2.5
469.894	2.54
470.249	2.51
470.603	2.36
470.958	2.5
471.313	2.52
471.668	2.64
472.023	2.35
472.377	2.56
472.732	2.39
473.086	2.33
473.441	2.56
473.795	2.5
474.15	2.58
474.504	2.54
474.859	2.49
475.213	2.67
475.567	2.51
475.921	2.59
476.275	2.55
476.63	2.49
476.984	2.51
477.338	2.54
477.692	2.38
478.045	2.46
478.399	2.58
478.753	2.42
479.107	2.44
479.461	2.45
479.814	2.48
480.168	2.47
480.521	2.53
480.875	2.56
481.228	2.48
481.582	2.46
481.935	2.36
482.289	2.41
482.642	2.45
482.995	2.4
483.348	2.46
483.701	2.47
484.055	2.43
484.408	2.45
484.761	2.27
485.114	2.27
485.466	2.29
485.819	2.28
486.172	2.31
486.525	2.39
486.878	2.4
487.23	2.41
487.583	2.41
487.936	2.44
488.288	2.42
488.641	2.38
488.993	2.41
489.345	2.36
489.698	2.37
490.05	2.35
490.402	2.38
490.754	2.38
491.107	2.35
491.459	2.45
491.811	2.5
492.163	2.47
492.515	2.45
492.866	2.46
493.218	2.39
493.57	2.33
493.922	2.4
494.274	2.4
494.625	2.47
494.977	2.58
495.328	2.5
495.68	2.46
496.031	2.55
496.383	2.5
496.734	2.63
497.086	2.54
497.437	2.57
497.788	2.45
498.139	2.5
498.49	2.47
498.842	2.43
499.193	2.61
499.544	2.56
499.894	2.61
500.245	2.56
500.596	2.64
500.947	2.49
501.298	2.58
501.648	2.51
501.999	2.6
502.35	2.69
502.7	2.52
503.051	2.59
503.401	2.57
503.752	2.59
504.102	2.63
504.452	2.53
504.803	2.59
505.153	2.47
505.503	2.57
505.853	2.61
506.203	2.58
506.553	2.45
506.903	2.46
507.253	2.58
507.603	2.55
507.953	2.63
508.303	2.54
508.652	2.55
509.002	2.62
509.352	2.56
509.701	2.6
510.051	2.58
510.4	2.6
510.75	2.56
511.099	2.46
511.449	2.62
511.798	2.62
512.147	2.48
512.496	2.61
512.846	2.7
513.195	2.65
513.544	2.45
513.893	2.52
514.242	2.51
514.591	2.62
514.939	2.63
515.288	2.68
515.637	2.6
515.986	2.61
516.334	2.59
516.683	2.47
517.032	2.6
517.38	2.55
517.729	2.68
518.077	2.64
518.426	2.64
518.774	2.49
519.122	2.63
519.47	2.65
519.819	2.56
520.167	2.56
520.515	2.55
520.863	2.6
521.211	2.56
521.559	2.49
521.907	2.61
522.255	2.56
522.602	2.71
522.95	2.68
523.298	2.67
523.645	2.63
523.993	2.65
524.341	2.72
524.688	2.65
525.036	2.6
525.383	2.65
525.73	2.64
526.078	2.63
526.425	2.63
526.772	2.55
527.119	2.52
527.466	2.62
527.814	2.61
528.161	2.65
528.508	2.61
528.854	2.53
529.201	2.59
529.548	2.54
529.895	2.43
530.242	2.42
530.588	2.45
530.935	2.46
531.282	2.54
531.628	2.55
531.975	2.56
532.321	2.51
532.667	2.65
533.014	2.59
533.36	2.59
533.706	2.63
534.052	2.6
534.399	2.59
534.745	2.54
535.091	2.53
535.437	2.57
535.783	2.54
536.129	2.6
536.474	2.69
536.82	2.58
537.166	2.69
537.512	2.68
537.857	2.58
538.203	2.59
538.549	2.65
538.894	2.59
539.239	2.65
539.585	2.62
539.93	2.69
540.276	2.78
540.621	2.66
540.966	2.79
541.311	2.63
541.656	2.73
542.001	2.67
542.346	2.62
542.691	2.56
543.036	2.46
543.381	2.52
543.726	2.52
544.071	2.59
544.415	2.58
544.76	2.66
545.105	2.6
545.449	2.61
545.794	2.71
546.138	2.65
546.483	2.74
546.827	2.67
547.171	2.66
547.516	2.53
547.86	2.53
548.204	2.7
548.548	2.6
548.892	2.56
549.236	2.71
549.58	2.71
549.924	2.84
550.268	2.69
550.612	2.76
550.956	2.96
551.3	2.77
551.643	2.79
551.987	2.91
552.33	2.8
552.674	2.77
553.017	2.88
553.361	2.88
553.704	2.74
554.048	2.83
554.391	2.7
554.734	2.6
555.077	2.83
555.42	2.72
555.764	2.84
556.107	2.81
556.45	2.84
556.793	2.77
557.135	2.71
557.478	2.78
557.821	2.8
558.164	2.82
558.507	2.78
558.849	2.78
559.192	2.86
559.534	2.75
559.877	2.95
560.219	2.79
560.562	2.72
560.904	2.83
561.246	2.47
561.589	2.82
561.931	2.62
562.273	2.73
562.615	2.75
562.957	2.83
563.299	2.74
563.641	2.61
563.983	2.83
564.325	2.67
564.667	2.91
565.008	2.93
565.35	2.82
565.692	2.44
566.033	2.73
566.375	2.93
566.716	2.89
567.058	2.85
567.399	2.91
567.741	2.87
568.082	2.85
568.423	2.88
568.764	2.85
569.105	2.61
569.447	2.8
569.788	2.7
570.129	2.77
570.47	2.88
570.811	2.92
571.151	2.99
571.492	2.96
571.833	2.78
572.174	2.98
572.514	2.84
572.855	2.88
573.195	2.57
573.536	2.81
573.876	2.78
574.217	2.86
574.557	2.89
574.898	2.77
575.238	2.81
575.578	2.87
575.918	2.92
576.258	2.81
576.598	2.9
576.938	2.84
577.278	2.77
577.618	2.8
577.958	2.95
578.298	2.91
578.638	2.78
578.977	2.99
579.317	3.03
579.657	2.92
579.996	2.88
580.336	2.81
580.675	2.85
581.014	2.94
581.354	2.81
581.693	2.84
582.032	2.81
582.372	2.8
582.711	2.87
583.05	2.58
583.389	2.75
583.728	2.9
584.067	2.84
584.406	2.99
584.745	3.15
585.083	2.78
585.422	3.01
585.761	2.92
586.1	2.86
586.438	2.81
586.777	2.93
587.115	2.96
587.454	2.67
587.792	2.78
588.13	2.93
588.469	2.7
588.807	2.81
589.145	2.93
589.483	2.98
589.821	2.88
590.159	2.97
590.497	3.17
590.835	3.09
591.173	2.88
591.511	2.93
591.849	2.7
592.187	2.96
592.524	2.84
592.862	2.8
593.2	2.9
593.537	2.9
593.875	3.2
594.212	2.89
594.55	3.09
594.887	2.97
595.224	2.99
595.561	2.82
595.899	2.83
596.236	2.81
596.573	2.8
596.91	2.93
597.247	2.92
597.584	2.95
597.921	2.98
598.258	2.89
598.594	2.96
598.931	2.73
599.268	2.78
599.604	2.88
599.941	2.88
600.277	2.87
600.614	3.14
600.95	2.94
601.287	3.03
601.623	3.19
601.959	2.99
602.296	2.84
602.632	2.9
602.968	3.06
603.304	2.98
603.64	3.15
603.976	3.2
604.312	3.07
604.648	2.98
604.984	2.92
605.319	3.15
605.655	2.95
605.991	2.95
606.326	3.12
606.662	2.91
606.998	2.86
607.333	2.97
607.668	2.94
608.004	2.97
608.339	2.78
608.674	2.91
609.01	2.97
609.345	2.9
609.68	2.91
610.015	2.97
610.35	2.81
610.685	3.25
611.02	2.86
611.355	2.97
611.689	2.94
612.024	2.65
612.359	2.97
612.694	2.8
613.028	3.06
613.363	3.04
613.697	3.28
614.032	3.12
614.366	2.89
614.7	2.95
615.035	2.97
615.369	2.79
615.703	2.91
616.037	3.1
616.371	2.99
616.705	3.04
617.039	3.05
617.373	2.85
617.707	2.94
618.041	3.44
618.375	2.8
618.709	3.17
619.042	3.14
619.376	2.98
619.71	3.17
620.043	3.07
620.377	3.16
620.71	2.99
621.043	2.76
621.377	3.06
621.71	3.06
622.043	3.06
622.376	3.14
622.709	3.02
623.043	3.02
623.376	3.25
623.709	2.97
624.041	3.34
624.374	2.84
624.707	3.44
625.04	3.06
625.373	2.86
625.705	2.92
626.038	3.24
626.37	2.94
626.703	2.99
627.035	2.94
627.368	2.73
627.7	2.97
628.032	3.26
628.365	3.09
628.697	3.01
629.029	3.21
629.361	2.93
629.693	3.12
630.025	3.05
630.357	3.14
630.689	3.28
631.021	3.17
631.353	3.11
631.684	3.17
632.016	3.11
632.348	3.15
632.679	2.74
633.011	3.2
633.342	2.83
633.674	2.93
634.005	2.95
634.336	3.4
634.668	3.32
634.999	3.25
635.33	3.02
635.661	3.1
635.992	3.08
636.323	3.1
636.654	3.47
636.985	2.98
637.316	3.13
637.647	3.59
637.977	3.28
638.308	2.95
638.639	2.92
638.969	3
639.3	3.24
639.63	3.31
639.961	3.08
640.291	3.59
640.622	3.55
640.952	3.15
641.282	3.42
641.612	2.94
641.943	3.59
642.273	2.86
642.603	3.18
642.933	3.25
643.263	3.06
643.592	3.3
643.922	3.25
644.252	3.47
644.582	3.26
644.911	2.9
645.241	3.37
645.571	2.62
645.9	3.3
646.23	3.14
646.559	2.75
646.888	3.36
647.218	3.03
647.547	3.11
647.876	3.27
648.205	3.45
648.534	2.99
648.863	3.09
649.192	2.8
649.521	2.87
649.85	3.15
650.179	3.35
650.508	3.66
650.837	3.58
651.165	3.46
651.494	3.39
651.822	3.09
652.151	2.76
652.479	2.85
652.808	2.91
653.136	2.85
653.465	3.41
653.793	3.09
654.121	3.29
654.449	3.05
654.777	3.71
655.105	3.2
655.433	3.59
655.761	3.11
656.089	3.11
656.417	2.63
656.745	3.46
657.073	3.53
657.4	3.32
657.728	3.75
658.056	3.43
658.383	3.54
658.711	3.26
659.038	3.62
659.365	3.3
659.693	2.99
660.02	3.92
660.347	3.4
660.674	3.26
661.001	3.3
661.329	3.1
661.656	3.21
661.982	3.64
662.309	3.42
662.636	3.4
662.963	3.2
663.29	3.12
663.616	3
663.943	3.23
664.27	3.22
664.596	3.81
664.923	3.26
665.249	4.03
665.576	3.98
665.902	3.41
666.228	3.72
666.554	3.6
666.881	3.43
667.207	3.39
667.533	3.83
667.859	3.46
668.185	3.48
668.511	2.99
668.837	3.7
669.162	3.19
669.488	3.41
669.814	3.26
670.139	3.52
670.465	2.64
670.791	3.16
671.116	3.24
671.442	3.28
671.767	3.55
672.092	3.09
672.418	2.97
672.743	3.43
673.068	3.27
673.393	3.78
673.718	4.1
674.043	3.72
674.368	3.31
674.693	2.35
675.018	3.28
675.343	3.94
675.667	3.93
675.992	4.19
676.317	3.12
676.641	2.6
676.966	3.98
677.29	3.44
677.615	3.41
677.939	2.92
678.264	3.64
678.588	3.03
678.912	3.56
679.236	3.42
679.56	3.84
679.885	3.68
680.209	3.48
680.532	3.64
680.856	3.91
681.18	3.88
681.504	3.4
681.828	3.2
682.152	3.58
682.475	3.35
682.799	3.2
683.122	3.91
683.446	3.99
683.769	4.15
684.093	3.25
684.416	3.28
684.739	4.04
685.062	3.48
685.386	3.93
685.709	3.65
686.032	3.67
686.355	3.48
686.678	3.36
687.001	3.58
687.324	3.24
687.646	3.25
687.969	3.6
688.292	4.54
688.614	3.15
688.937	3.78
689.26	3.42
689.582	2.99
689.904	3.59
690.227	3.85
690.549	3.53
690.871	3.01
691.194	2.76
691.516	2.95
691.838	4.36
692.16	3.57
692.482	3.12
