Data from 20-11_crown_Reflection__1__51.txt Node

Date: Fri Nov 11 20:36:13 CST 2022
User: ToomeyLab
Spectrometer: FLMS14357
Trigger mode: 0
Integration Time (sec): 1.000000E-2
Scans to average: 100
Electric dark correction enabled: true
Nonlinearity correction enabled: false
Boxcar width: 0
XAxis mode: Wavelengths
Number of Pixels in Spectrum: 2048
>>>>>Begin Spectral Data<<<<<
189.047	29.67
189.435	29.67
189.823	29.67
190.211	-29.65
190.599	-66.3
190.987	550.77
191.375	109700
191.763	61.9
192.151	89.98
192.538	-99.78
192.926	210.82
193.314	372.1
193.702	-166.31
194.089	174.83
194.477	72.52
194.864	55.2
195.252	40.87
195.639	-26.21
196.027	-197.95
196.414	48.81
196.801	-321.91
197.189	27.15
197.576	60.45
197.963	-11.55
198.351	-17.48
198.738	13.33
199.125	45.43
199.512	50.46
199.899	-169.65
200.286	-11.41
200.673	5.93
201.06	40.81
201.447	8.94
201.833	11.76
202.22	-51.78
202.607	-7.59
202.994	26.4
203.38	-0.74
203.767	28.25
204.154	27.02
204.54	-16.86
204.927	3.2
205.313	3.62
205.699	-36.38
206.086	18.34
206.472	22.28
206.858	25.31
207.245	34.37
207.631	-41.64
208.017	2.42
208.403	8.98
208.789	-22.3
209.175	21.33
209.561	31.86
209.947	12.07
210.333	-19.71
210.719	-16.67
211.105	27.43
211.491	13.45
211.876	42.61
212.262	45.62
212.648	-22.46
213.034	-1.37
213.419	-52.53
213.805	12.9
214.19	-19.29
214.576	4.11
214.961	6.25
215.346	-14.34
215.732	-4.63
216.117	5.71
216.502	-12.54
216.888	-1.83
217.273	5.83
217.658	-17.03
218.043	-9.36
218.428	-20.4
218.813	-13.48
219.198	-5.31
219.583	12.22
219.968	-20.54
220.353	-26.38
220.738	-38.65
221.122	17.79
221.507	-29.77
221.892	-13.3
222.276	-1.75
222.661	3.94
223.046	-20.16
223.43	-3.57
223.815	7.54
224.199	-6.16
224.583	-0.21
224.968	-13.03
225.352	-1.64
225.736	0.05
226.121	-9.51
226.505	-2.31
226.889	-2.66
227.273	1.07
227.657	-3.03
228.041	-0.9
228.425	3.66
228.809	0.29
229.193	5.35
229.577	-0.23
229.961	2.11
230.344	1.42
230.728	1.05
231.112	0.26
231.495	1.52
231.879	-0.41
232.263	1
232.646	-0.07
233.03	1.83
233.413	1.05
233.797	1.69
234.18	0.63
234.563	2.35
234.946	2.66
235.33	0.64
235.713	-0.2
236.096	0.34
236.479	0.62
236.862	3.01
237.245	1.64
237.628	1.31
238.011	1.72
238.394	1.02
238.777	2.16
239.16	3.56
239.543	0.42
239.925	1.51
240.308	1.2
240.691	2.14
241.073	1.39
241.456	1.18
241.838	1.31
242.221	2.04
242.603	1.46
242.986	0.62
243.368	1.42
243.75	1.5
244.133	1.52
244.515	1.44
244.897	2.06
245.279	0.58
245.661	1.16
246.043	1.12
246.425	2.36
246.807	0.87
247.189	1.01
247.571	1.69
247.953	1.4
248.335	1.68
248.717	1.62
249.098	1.8
249.48	1.38
249.862	1.75
250.243	1.47
250.625	1.41
251.006	2.35
251.388	2.22
251.769	1.5
252.151	1.85
252.532	0.57
252.913	2.09
253.295	1.12
253.676	0.86
254.057	1.12
254.438	1.34
254.819	1.39
255.2	2.01
255.581	1.48
255.962	1.08
256.343	0.5
256.724	1.48
257.105	1.36
257.486	1.01
257.867	2.53
258.247	0.02
258.628	1.29
259.009	1.54
259.389	1.32
259.77	2.2
260.15	1.39
260.531	1.53
260.911	1.5
261.292	1.7
261.672	1.33
262.052	1.46
262.432	1.42
262.813	1.84
263.193	1.25
263.573	1.39
263.953	2.15
264.333	1.2
264.713	1.44
265.093	1.83
265.473	1.04
265.853	1.48
266.233	1.24
266.612	1.7
266.992	1.64
267.372	1.56
267.752	1.43
268.131	1.46
268.511	1.62
268.89	1.37
269.27	1.44
269.649	0.97
270.029	1.83
270.408	1.29
270.787	1.41
271.167	1.16
271.546	0.91
271.925	1.44
272.304	1.09
272.683	1.16
273.062	1.28
273.441	1.42
273.82	1.47
274.199	1.25
274.578	1.36
274.957	1.61
275.336	2.12
275.715	1.55
276.093	1.13
276.472	1.28
276.851	1.08
277.229	1.62
277.608	1.19
277.986	1.73
278.365	0.59
278.743	1.12
279.122	1.69
279.5	1.43
279.878	1.72
280.257	1.57
280.635	1.31
281.013	1.16
281.391	1.37
281.769	1.32
282.147	1.03
282.525	1.23
282.903	0.81
283.281	1.4
283.659	1.21
284.037	1.56
284.415	1.36
284.792	1
285.17	1.47
285.548	1.36
285.925	1.16
286.303	1.12
286.68	1.76
287.058	1.28
287.435	1.48
287.813	1.69
288.19	1.3
288.567	1.26
288.945	1.72
289.322	1.68
289.699	0.89
290.076	1.59
290.453	1.84
290.83	1.14
291.207	0.77
291.584	1.53
291.961	1.19
292.338	1.26
292.715	1.64
293.092	1.77
293.469	1
293.845	1.15
294.222	1.13
294.599	1.26
294.975	1.15
295.352	2.16
295.728	1.3
296.105	1.36
296.481	0.63
296.858	1.33
297.234	0.94
297.61	0.88
297.986	1.89
298.363	1.64
298.739	1.59
299.115	1.74
299.491	1.69
299.867	1.48
300.243	1.28
300.619	1.85
300.995	1.79
301.371	2.15
301.746	1.74
302.122	1.55
302.498	1.64
302.874	1.27
303.249	1.34
303.625	1.58
304	1.31
304.376	1.71
304.751	1.32
305.127	1.88
305.502	1.95
305.878	1.85
306.253	1.66
306.628	1.47
307.003	1.5
307.378	1.64
307.754	2.65
308.129	1.53
308.504	1.8
308.879	1.71
309.254	2.23
309.629	1.66
310.003	1.53
310.378	1.5
310.753	2.07
311.128	2.04
311.502	1.85
311.877	1.57
312.252	1.66
312.626	1.74
313.001	1.28
313.375	1.64
313.75	1.79
314.124	1.38
314.498	1.41
314.873	1.71
315.247	1.93
315.621	2.04
315.995	1.94
316.369	1.56
316.743	1.66
317.117	1.88
317.491	1.4
317.865	1.66
318.239	1.45
318.613	1.89
318.987	1.61
319.361	1.58
319.734	2.1
320.108	1.32
320.482	2.57
320.855	1.69
321.229	1.57
321.602	1.66
321.976	1.52
322.349	2.25
322.723	2.3
323.096	1.76
323.469	2.06
323.843	2.13
324.216	0.99
324.589	2.22
324.962	2.25
325.335	1.63
325.708	1.71
326.081	1.95
326.454	1.56
326.827	1.38
327.2	2.22
327.573	2.48
327.945	1.7
328.318	1.51
328.691	2.03
329.063	1.73
329.436	1.56
329.809	1.4
330.181	1.48
330.553	1.27
330.926	2.03
331.298	1.94
331.671	1.89
332.043	1.33
332.415	1.56
332.787	2.4
333.159	1.58
333.532	2.12
333.904	2
334.276	1.91
334.648	1.84
335.02	1.61
335.391	2.06
335.763	1.64
336.135	1.28
336.507	1.76
336.879	2.04
337.25	1.66
337.622	2.12
337.993	1.64
338.365	2.22
338.736	2.29
339.108	1.87
339.479	1.68
339.851	1.9
340.222	1.81
340.593	2.12
340.964	2.08
341.336	1.77
341.707	1.29
342.078	1.34
342.449	1.68
342.82	1.93
343.191	1.87
343.562	1.92
343.933	1.7
344.303	1.6
344.674	2.08
345.045	1.97
345.416	2.28
345.786	1.17
346.157	1.63
346.527	2
346.898	1.35
347.268	1.68
347.639	1.7
348.009	1.81
348.38	2.34
348.75	1.7
349.12	2.53
349.49	2.16
349.861	1.67
350.231	2.06
350.601	1.95
350.971	1.93
351.341	1.94
351.711	2.09
352.081	2.07
352.45	2
352.82	1.53
353.19	2.1
353.56	1.72
353.929	1.88
354.299	2.07
354.669	1.94
355.038	1.77
355.408	1.74
355.777	1.92
356.147	1.91
356.516	1.82
356.885	2.02
357.254	1.95
357.624	1.47
357.993	1.76
358.362	1.92
358.731	1.44
359.1	1.59
359.469	1.53
359.838	1.72
360.207	2.07
360.576	1.99
360.945	1.93
361.314	1.59
361.682	1.79
362.051	1.71
362.42	1.95
362.788	1.91
363.157	1.72
363.525	1.79
363.894	1.72
364.262	1.83
364.631	2.09
364.999	1.8
365.367	1.77
365.735	1.96
366.104	1.87
366.472	1.84
366.84	1.77
367.208	1.99
367.576	1.92
367.944	2.02
368.312	1.98
368.68	1.83
369.048	1.92
369.416	2.04
369.783	2
370.151	1.86
370.519	1.84
370.886	1.84
371.254	2.12
371.621	1.67
371.989	1.72
372.356	1.98
372.724	1.97
373.091	2.01
373.458	1.94
373.826	1.73
374.193	1.83
374.56	1.62
374.927	1.87
375.294	2.01
375.661	2.19
376.028	1.67
376.395	2.23
376.762	2.15
377.129	1.74
377.496	1.83
377.863	2.01
378.229	1.83
378.596	1.76
378.963	1.92
379.329	1.95
379.696	2.05
380.062	1.92
380.429	2.06
380.795	2.22
381.161	2.04
381.528	1.96
381.894	1.79
382.26	2
382.626	2.07
382.993	2.11
383.359	2.27
383.725	1.62
384.091	1.98
384.457	1.8
384.823	1.79
385.188	2.01
385.554	2.05
385.92	1.81
386.286	1.85
386.651	2.07
387.017	1.82
387.383	1.98
387.748	1.67
388.114	1.9
388.479	1.71
388.845	1.83
389.21	1.75
389.575	1.96
389.94	1.93
390.306	1.86
390.671	2.1
391.036	2.09
391.401	1.78
391.766	2.15
392.131	1.75
392.496	2.18
392.861	2.13
393.226	1.93
393.591	1.91
393.956	1.94
394.32	2.1
394.685	1.96
395.05	2.18
395.414	2.17
395.779	2.03
396.143	1.83
396.508	2.08
396.872	2.11
397.236	1.93
397.601	1.94
397.965	2.01
398.329	2.1
398.694	2.12
399.058	1.85
399.422	2.24
399.786	2
400.15	1.98
400.514	2
400.878	2.12
401.242	1.97
401.605	2.27
401.969	2.17
402.333	1.94
402.697	1.95
403.06	2.22
403.424	1.9
403.787	2.1
404.151	1.99
404.514	1.9
404.878	2.06
405.241	1.83
405.604	1.94
405.968	2.09
406.331	1.7
406.694	2.05
407.057	2
407.42	2.17
407.783	1.93
408.146	1.97
408.509	2.12
408.872	2.04
409.235	2.18
409.598	2.08
409.961	2.11
410.323	2.03
410.686	2.01
411.049	1.92
411.411	2.09
411.774	2.02
412.136	1.85
412.499	2.08
412.861	2.07
413.223	1.83
413.586	2.04
413.948	2.28
414.31	2.21
414.672	2.07
415.035	1.97
415.397	1.96
415.759	1.95
416.121	1.99
416.483	2
416.845	2.01
417.206	1.91
417.568	1.98
417.93	2.05
418.292	1.87
418.653	1.96
419.015	2.1
419.377	2.18
419.738	2.22
420.1	2.18
420.461	2.15
420.822	1.98
421.184	1.99
421.545	2.05
421.906	2.05
422.267	1.97
422.629	1.94
422.99	2.05
423.351	2.03
423.712	1.98
424.073	2.1
424.434	2.1
424.795	2.11
425.155	2
425.516	2.14
425.877	2.09
426.238	1.98
426.598	1.99
426.959	2.04
427.32	2.1
427.68	2.14
428.041	2.17
428.401	1.97
428.761	2.2
429.122	1.96
429.482	2.21
429.842	2.01
430.202	2.14
430.563	2.19
430.923	2.15
431.283	2.01
431.643	2.04
432.003	2.24
432.363	2.17
432.722	2.31
433.082	2.05
433.442	2.21
433.802	2.13
434.161	2.13
434.521	2.08
434.881	2.33
435.24	2.06
435.6	2.07
435.959	2.12
436.319	1.97
436.678	2.27
437.037	2.21
437.396	2.22
437.756	2.15
438.115	2
438.474	2.08
438.833	2.16
439.192	2.09
439.551	2.13
439.91	2.26
440.269	2.12
440.628	2.24
440.987	2.17
441.345	2.22
441.704	2.08
442.063	2.15
442.421	2.06
442.78	2.06
443.138	2.07
443.497	2.1
443.855	2.21
444.214	2.03
444.572	2.14
444.93	2.05
445.288	2.2
445.647	2.25
446.005	2.19
446.363	2.17
446.721	2.24
447.079	2.17
447.437	2.15
447.795	2.17
448.153	2.12
448.51	2.2
448.868	2.16
449.226	2.11
449.584	2.18
449.941	2.07
450.299	2.09
450.656	2.18
451.014	2.23
451.371	2.19
451.729	2.17
452.086	2.12
452.443	2.16
452.801	2.19
453.158	2.12
453.515	2.17
453.872	2.27
454.229	2.08
454.586	2.21
454.943	2.32
455.3	2.24
455.657	2.11
456.014	2.27
456.371	2.38
456.727	2.24
457.084	2.06
457.441	2.46
457.797	2.28
458.154	2.19
458.51	2.16
458.867	2.13
459.223	2.29
459.58	2.2
459.936	2.09
460.292	2.22
460.648	2.22
461.005	2.24
461.361	2.14
461.717	2.13
462.073	2.16
462.429	2.17
462.785	2.08
463.141	2.22
463.496	2.18
463.852	2.24
464.208	2.23
464.564	2.12
464.919	2.21
465.275	2.07
465.631	2.41
465.986	2.36
466.342	2.18
466.697	2.17
467.052	2.2
467.408	2.25
467.763	2.09
468.118	2.36
468.473	2.31
468.829	2.35
469.184	2.26
469.539	2.3
469.894	2.34
470.249	2.39
470.603	2.19
470.958	2.36
471.313	2.43
471.668	2.41
472.023	2.25
472.377	2.43
472.732	2.31
473.086	2.19
473.441	2.09
473.795	2.16
474.15	2.23
474.504	2.34
474.859	2.22
475.213	2.32
475.567	2.41
475.921	2.48
476.275	2.3
476.63	2.27
476.984	2.29
477.338	2.41
477.692	2.21
478.045	2.13
478.399	2.36
478.753	2.16
479.107	2.25
479.461	2.3
479.814	2.39
480.168	2.33
480.521	2.43
480.875	2.36
481.228	2.23
481.582	2.36
481.935	2.22
482.289	2.16
482.642	2.39
482.995	2.18
483.348	2.18
483.701	2.29
484.055	2.3
484.408	2.27
484.761	2.19
485.114	2.17
485.466	2.1
485.819	2.12
486.172	2.15
486.525	2.22
486.878	2.23
487.23	2.2
487.583	2.26
487.936	2.2
488.288	2.28
488.641	2.2
488.993	2.24
489.345	2.18
489.698	2.16
490.05	2.2
490.402	2.23
490.754	2.29
491.107	2.22
491.459	2.2
491.811	2.31
492.163	2.24
492.515	2.22
492.866	2.26
493.218	2.22
493.57	2.23
493.922	2.26
494.274	2.29
494.625	2.29
494.977	2.38
495.328	2.34
495.68	2.35
496.031	2.41
496.383	2.47
496.734	2.43
497.086	2.35
497.437	2.34
497.788	2.28
498.139	2.27
498.49	2.24
498.842	2.28
499.193	2.4
499.544	2.38
499.894	2.29
500.245	2.28
500.596	2.41
500.947	2.35
501.298	2.37
501.648	2.3
501.999	2.36
502.35	2.6
502.7	2.32
503.051	2.38
503.401	2.42
503.752	2.39
504.102	2.28
504.452	2.32
504.803	2.41
505.153	2.3
505.503	2.44
505.853	2.34
506.203	2.43
506.553	2.29
506.903	2.4
507.253	2.48
507.603	2.42
507.953	2.32
508.303	2.29
508.652	2.38
509.002	2.42
509.352	2.39
509.701	2.4
510.051	2.27
510.4	2.44
510.75	2.29
511.099	2.33
511.449	2.39
511.798	2.32
512.147	2.29
512.496	2.23
512.846	2.52
513.195	2.38
513.544	2.37
513.893	2.26
514.242	2.3
514.591	2.42
514.939	2.45
515.288	2.34
515.637	2.39
515.986	2.49
516.334	2.38
516.683	2.38
517.032	2.34
517.38	2.4
517.729	2.55
518.077	2.43
518.426	2.57
518.774	2.5
519.122	2.43
519.47	2.29
519.819	2.4
520.167	2.33
520.515	2.37
520.863	2.38
521.211	2.35
521.559	2.31
521.907	2.45
522.255	2.35
522.602	2.46
522.95	2.51
523.298	2.53
523.645	2.42
523.993	2.44
524.341	2.48
524.688	2.51
525.036	2.46
525.383	2.5
525.73	2.43
526.078	2.35
526.425	2.4
526.772	2.38
527.119	2.31
527.466	2.41
527.814	2.37
528.161	2.42
528.508	2.37
528.854	2.38
529.201	2.36
529.548	2.35
529.895	2.27
530.242	2.29
530.588	2.28
530.935	2.28
531.282	2.37
531.628	2.37
531.975	2.39
532.321	2.35
532.667	2.47
533.014	2.38
533.36	2.43
533.706	2.46
534.052	2.42
534.399	2.41
534.745	2.34
535.091	2.37
535.437	2.34
535.783	2.35
536.129	2.42
536.474	2.5
536.82	2.46
537.166	2.46
537.512	2.41
537.857	2.41
538.203	2.41
538.549	2.43
538.894	2.41
539.239	2.4
539.585	2.49
539.93	2.49
540.276	2.63
540.621	2.55
540.966	2.51
541.311	2.47
541.656	2.45
542.001	2.47
542.346	2.46
542.691	2.36
543.036	2.29
543.381	2.37
543.726	2.32
544.071	2.46
544.415	2.5
544.76	2.41
545.105	2.36
545.449	2.37
545.794	2.51
546.138	2.39
546.483	2.46
546.827	2.52
547.171	2.51
547.516	2.37
547.86	2.47
548.204	2.52
548.548	2.42
548.892	2.47
549.236	2.47
549.58	2.54
549.924	2.6
550.268	2.61
550.612	2.59
550.956	2.82
551.3	2.5
551.643	2.48
551.987	2.53
552.33	2.46
552.674	2.54
553.017	2.56
553.361	2.61
553.704	2.61
554.048	2.45
554.391	2.51
554.734	2.51
555.077	2.68
555.42	2.44
555.764	2.51
556.107	2.73
556.45	2.57
556.793	2.59
557.135	2.56
557.478	2.4
557.821	2.67
558.164	2.58
558.507	2.69
558.849	2.57
559.192	2.55
559.534	2.54
559.877	2.57
560.219	2.61
560.562	2.5
560.904	2.73
561.246	2.52
561.589	2.63
561.931	2.51
562.273	2.57
562.615	2.58
562.957	2.58
563.299	2.52
563.641	2.48
563.983	2.53
564.325	2.48
564.667	2.57
565.008	2.66
565.35	2.48
565.692	2.32
566.033	2.59
566.375	2.65
566.716	2.64
567.058	2.58
567.399	2.73
567.741	2.54
568.082	2.58
568.423	2.56
568.764	2.77
569.105	2.62
569.447	2.76
569.788	2.65
570.129	2.51
570.47	2.54
570.811	2.56
571.151	2.62
571.492	2.61
571.833	2.62
572.174	2.75
572.514	2.62
572.855	2.66
573.195	2.47
573.536	2.76
573.876	2.62
574.217	2.68
574.557	2.5
574.898	2.62
575.238	2.54
575.578	2.62
575.918	2.72
576.258	2.67
576.598	2.54
576.938	2.64
577.278	2.66
577.618	2.7
577.958	2.61
578.298	2.58
578.638	2.61
578.977	2.7
579.317	2.63
579.657	2.66
579.996	2.64
580.336	2.58
580.675	2.8
581.014	2.61
581.354	2.67
581.693	2.59
582.032	2.56
582.372	2.83
582.711	2.69
583.05	2.51
583.389	2.69
583.728	2.49
584.067	2.63
584.406	2.6
584.745	2.79
585.083	2.33
585.422	2.47
585.761	2.82
586.1	2.58
586.438	2.86
586.777	2.73
587.115	2.56
587.454	2.7
587.792	2.62
588.13	2.51
588.469	2.52
588.807	2.65
589.145	2.97
589.483	2.76
589.821	2.73
590.159	2.6
590.497	2.84
590.835	2.64
591.173	2.75
591.511	2.5
591.849	2.68
592.187	2.75
592.524	2.46
592.862	2.67
593.2	2.68
593.537	2.74
593.875	2.79
594.212	2.67
594.55	2.73
594.887	2.81
595.224	2.56
595.561	2.53
595.899	2.67
596.236	2.54
596.573	2.67
596.91	2.64
597.247	2.76
597.584	2.78
597.921	2.83
598.258	2.58
598.594	2.69
598.931	2.66
599.268	2.48
599.604	2.74
599.941	2.64
600.277	2.64
600.614	2.69
600.95	2.63
601.287	2.71
601.623	3.03
601.959	2.74
602.296	2.6
602.632	2.68
602.968	2.76
603.304	2.77
603.64	2.92
603.976	2.8
604.312	2.83
604.648	2.48
604.984	2.79
605.319	2.84
605.655	2.62
605.991	2.61
606.326	2.89
606.662	2.67
606.998	2.61
607.333	2.82
607.668	2.81
608.004	2.82
608.339	2.58
608.674	2.76
609.01	2.81
609.345	2.73
609.68	2.88
610.015	2.82
610.35	2.65
610.685	2.79
611.02	2.56
611.355	2.79
611.689	2.46
612.024	2.64
612.359	2.57
612.694	2.57
613.028	2.59
613.363	2.77
613.697	2.92
614.032	2.85
614.366	2.68
614.7	2.63
615.035	2.8
615.369	2.73
615.703	2.67
616.037	2.9
616.371	2.82
616.705	2.82
617.039	2.71
617.373	2.63
617.707	2.75
618.041	2.95
618.375	2.54
618.709	3.13
619.042	3.2
619.376	2.83
619.71	2.94
620.043	2.7
620.377	2.61
620.71	2.78
621.043	2.58
621.377	2.86
621.71	2.58
622.043	2.78
622.376	2.98
622.709	2.77
623.043	2.75
623.376	2.9
623.709	2.79
624.041	2.96
624.374	2.3
624.707	3.02
625.04	2.48
625.373	2.59
625.705	2.84
626.038	2.82
626.37	2.9
626.703	3
627.035	2.96
627.368	2.53
627.7	2.66
628.032	2.85
628.365	3.1
628.697	2.61
629.029	2.9
629.361	2.9
629.693	2.87
630.025	2.77
630.357	2.84
630.689	2.61
631.021	2.8
631.353	2.98
631.684	2.71
632.016	2.76
632.348	2.61
632.679	2.8
633.011	2.89
633.342	3.06
633.674	2.41
634.005	2.53
634.336	2.63
634.668	2.77
634.999	2.93
635.33	2.74
635.661	2.92
635.992	2.75
636.323	2.88
636.654	3.09
636.985	2.62
637.316	2.69
637.647	2.88
637.977	2.94
638.308	3.02
638.639	2.66
638.969	2.8
639.3	3
639.63	3.15
639.961	2.88
640.291	2.81
640.622	3.26
640.952	2.85
641.282	2.38
641.612	2.82
641.943	2.8
642.273	2.79
642.603	2.96
642.933	3.53
643.263	2.88
643.592	2.99
643.922	3.29
644.252	3.1
644.582	3.02
644.911	2.69
645.241	2.59
645.571	2.92
645.9	3.01
646.23	3.12
646.559	3.06
646.888	3.14
647.218	2.87
647.547	2.84
647.876	2.92
648.205	2.61
648.534	2.9
648.863	2.77
649.192	2.45
649.521	2.74
649.85	2.8
650.179	2.95
650.508	2.88
650.837	3.11
651.165	2.94
651.494	3.34
651.822	2.8
652.151	2.64
652.479	2.27
652.808	2.97
653.136	2.83
653.465	3.44
653.793	3.17
654.121	3.12
654.449	2.42
654.777	2.78
655.105	2.82
655.433	3.09
655.761	3.13
656.089	2.89
656.417	2.79
656.745	2.98
657.073	3.08
657.4	2.98
657.728	3.39
658.056	3.45
658.383	2.95
658.711	2.93
659.038	2.7
659.365	2.73
659.693	3.07
660.02	3.06
660.347	3.38
660.674	2.73
661.001	3.19
661.329	2.83
661.656	2.82
661.982	3.3
662.309	2.99
662.636	3.19
662.963	2.88
663.29	2.65
663.616	2.23
663.943	3.2
664.27	2.79
664.596	3.36
664.923	2.8
665.249	3.15
665.576	3.39
665.902	3.38
666.228	3.62
666.554	2.59
666.881	3.29
667.207	3.41
667.533	3.1
667.859	2.8
668.185	3.21
668.511	2.52
668.837	3.63
669.162	3.17
669.488	3.7
669.814	3.22
670.139	3.2
670.465	2.97
670.791	3.05
671.116	3.5
671.442	3.15
671.767	3.53
672.092	2.98
672.418	3.26
672.743	2.34
673.068	2.99
673.393	3.59
673.718	3.21
674.043	3.36
674.368	3.66
674.693	2.82
675.018	3.07
675.343	3.42
675.667	3.45
675.992	4.33
676.317	2.99
676.641	2.32
676.966	3.07
677.29	2.92
677.615	3.07
677.939	2.88
678.264	3.23
678.588	2.98
678.912	3.03
679.236	2.98
679.56	3.02
679.885	2.69
680.209	2.65
680.532	3.27
680.856	3.63
681.18	3.31
681.504	2.61
681.828	3.31
682.152	3.08
682.475	3.08
682.799	2.74
683.122	2.67
683.446	3.36
683.769	3.37
684.093	3.42
684.416	3.38
684.739	3.5
685.062	2.6
685.386	3.29
685.709	3.33
686.032	3.31
686.355	3.02
686.678	3
687.001	2.85
687.324	3.03
687.646	3.24
687.969	3.66
688.292	4.13
688.614	3.12
688.937	2.78
689.26	2.23
689.582	3.34
689.904	3.28
690.227	3.02
690.549	3.17
690.871	3.04
691.194	2.87
691.516	2.69
691.838	3
692.16	3.19
692.482	3.32
692.804	3.59
