Data from 20-11_forehead_Reflection__0__55.txt Node

Date: Fri Nov 11 20:37:13 CST 2022
User: ToomeyLab
Spectrometer: FLMS14357
Trigger mode: 0
Integration Time (sec): 1.000000E-2
Scans to average: 100
Electric dark correction enabled: true
Nonlinearity correction enabled: false
Boxcar width: 0
XAxis mode: Wavelengths
Number of Pixels in Spectrum: 2048
>>>>>Begin Spectral Data<<<<<
189.047	-1346.7
189.435	-1346.7
189.823	-1346.7
190.211	74.57
190.599	-146.43
190.987	492.41
191.375	34083.33
191.763	1158.16
192.151	39.61
192.538	-30.83
192.926	23.3
193.314	300.66
193.702	194.65
194.089	220.78
194.477	37.21
194.864	45.53
195.252	186.32
195.639	-71.17
196.027	345.31
196.414	-415.63
196.801	-321.54
197.189	32.54
197.576	24.3
197.963	-73.03
198.351	12.2
198.738	16.53
199.125	22.46
199.512	53.92
199.899	-64.15
200.286	17.53
200.673	51.1
201.06	67.89
201.447	-4.17
201.833	74.67
202.22	19.11
202.607	12.15
202.994	29.96
203.38	51.38
203.767	33.88
204.154	24.27
204.54	-8.41
204.927	14.66
205.313	26.47
205.699	27.35
206.086	59.66
206.472	49.53
206.858	34.28
207.245	38.59
207.631	-17.47
208.017	32.8
208.403	23.39
208.789	25.09
209.175	8.76
209.561	43.37
209.947	-1.03
210.333	3.2
210.719	46.41
211.105	56.98
211.491	47.46
211.876	0.8
212.262	61.68
212.648	7.42
213.034	27.51
213.419	-10.66
213.805	23.71
214.19	18.77
214.576	28.57
214.961	-0.51
215.346	-2.82
215.732	-5.5
216.117	30.2
216.502	0.37
216.888	-4.84
217.273	9.72
217.658	10.57
218.043	27.72
218.428	5.48
218.813	7.3
219.198	34.21
219.583	18.15
219.968	17.22
220.353	-12.19
220.738	-12.32
221.122	30.16
221.507	11.02
221.892	-11.36
222.276	12.56
222.661	17.49
223.046	2.85
223.43	4.65
223.815	1.67
224.199	13.67
224.583	9.54
224.968	2.61
225.352	10.33
225.736	-0.11
226.121	8.46
226.505	4.87
226.889	-0.26
227.273	10.19
227.657	2.74
228.041	5.48
228.425	4.9
228.809	11.09
229.193	7.57
229.577	7.14
229.961	6.56
230.344	5.93
230.728	4.79
231.112	4.25
231.495	6.09
231.879	5.43
232.263	3.03
232.646	6.25
233.03	5.47
233.413	4.84
233.797	7.65
234.18	5.09
234.563	6.59
234.946	2.34
235.33	5.63
235.713	5.35
236.096	5.33
236.479	4.13
236.862	7.03
237.245	4.64
237.628	6.09
238.011	5.92
238.394	5.7
238.777	7.71
239.16	7.49
239.543	4.99
239.925	7.67
240.308	4.56
240.691	6
241.073	5.27
241.456	4.17
241.838	6.35
242.221	6.05
242.603	4.65
242.986	5.45
243.368	5.03
243.75	4.9
244.133	5.13
244.515	4.5
244.897	5.57
245.279	4.51
245.661	5.31
246.043	5.32
246.425	6.62
246.807	4.49
247.189	4.61
247.571	5.16
247.953	4.56
248.335	4.94
248.717	5.18
249.098	5
249.48	4.77
249.862	5.27
250.243	4.95
250.625	5.04
251.006	5.5
251.388	5.04
251.769	6.02
252.151	5.22
252.532	5.72
252.913	6.16
253.295	4.91
253.676	4.34
254.057	4.99
254.438	4.84
254.819	5.59
255.2	5.82
255.581	5.5
255.962	4.93
256.343	4.58
256.724	6
257.105	5.05
257.486	5.3
257.867	5.11
258.247	4.41
258.628	4.57
259.009	5.09
259.389	4.19
259.77	5.36
260.15	4.71
260.531	4.9
260.911	4.76
261.292	4.79
261.672	4.56
262.052	4.56
262.432	4.91
262.813	4.72
263.193	4.26
263.573	5.19
263.953	5.26
264.333	4.98
264.713	5.02
265.093	5.5
265.473	4.76
265.853	4.54
266.233	4.68
266.612	4.71
266.992	4.6
267.372	5.66
267.752	4.55
268.131	4.56
268.511	4.53
268.89	4.83
269.27	4.69
269.649	4.41
270.029	5
270.408	4.76
270.787	4.83
271.167	4.26
271.546	4.31
271.925	4.89
272.304	4.81
272.683	4.75
273.062	4.23
273.441	4.39
273.82	4.74
274.199	4.21
274.578	4.46
274.957	4.88
275.336	4.73
275.715	5.06
276.093	4.11
276.472	4.07
276.851	4.56
277.229	4.44
277.608	4.46
277.986	4.72
278.365	3.75
278.743	4.5
279.122	5.3
279.5	5.03
279.878	4.46
280.257	4.74
280.635	4.58
281.013	4.5
281.391	4.8
281.769	4.75
282.147	4.91
282.525	3.9
282.903	4.36
283.281	4.7
283.659	4.88
284.037	4.33
284.415	4.22
284.792	4.61
285.17	4.71
285.548	4.16
285.925	4.53
286.303	4.43
286.68	5.09
287.058	4.7
287.435	4.59
287.813	4.69
288.19	4.62
288.567	4.28
288.945	4.87
289.322	4.87
289.699	3.94
290.076	4.86
290.453	4.83
290.83	4.76
291.207	4.68
291.584	4.59
291.961	4.77
292.338	4.71
292.715	4.73
293.092	4.97
293.469	4.29
293.845	4.61
294.222	4.5
294.599	5.18
294.975	4.72
295.352	5.24
295.728	4.76
296.105	4.8
296.481	4.71
296.858	4.76
297.234	4.95
297.61	4.84
297.986	5.18
298.363	5.3
298.739	5.13
299.115	5.25
299.491	5.21
299.867	5.16
300.243	5.36
300.619	5.34
300.995	5.37
301.371	5.84
301.746	5.88
302.122	5.36
302.498	5.32
302.874	5.45
303.249	5.53
303.625	5.42
304	5.58
304.376	5.69
304.751	5.65
305.127	5.52
305.502	6.02
305.878	5.93
306.253	5.9
306.628	5.66
307.003	5.69
307.378	5.77
307.754	6.26
308.129	6.25
308.504	5.98
308.879	5.85
309.254	6.09
309.629	5.93
310.003	5.97
310.378	6.28
310.753	6.32
311.128	6.43
311.502	6.2
311.877	6.15
312.252	6.24
312.626	6.34
313.001	6.1
313.375	6.51
313.75	6.07
314.124	6.16
314.498	6.38
314.873	6.31
315.247	6.73
315.621	6.38
315.995	6.95
316.369	6.33
316.743	6.68
317.117	7.38
317.491	7.01
317.865	6.15
318.239	6.95
318.613	6.44
318.987	7.13
319.361	6.91
319.734	7.12
320.108	6.68
320.482	7.7
320.855	6.87
321.229	6.86
321.602	7.08
321.976	7.35
322.349	7.31
322.723	7.66
323.096	7.31
323.469	6.89
323.843	7.41
324.216	6.83
324.589	7.46
324.962	7.88
325.335	7.22
325.708	7.83
326.081	7.4
326.454	6.94
326.827	7.38
327.2	7.59
327.573	8.17
327.945	7.56
328.318	7.66
328.691	7.49
329.063	7.66
329.436	7.68
329.809	7.24
330.181	7.47
330.553	7.4
330.926	7.68
331.298	7.32
331.671	7.42
332.043	7.79
332.415	8.15
332.787	8.02
333.159	7.78
333.532	7.99
333.904	8.37
334.276	7.74
334.648	7.5
335.02	7.93
335.391	8.19
335.763	8.12
336.135	7.94
336.507	8.07
336.879	8.05
337.25	7.88
337.622	8.55
337.993	8.18
338.365	8.05
338.736	7.79
339.108	8.18
339.479	7.99
339.851	8.51
340.222	8.07
340.593	8.89
340.964	8.22
341.336	8.78
341.707	8.71
342.078	7.9
342.449	8.71
342.82	8.81
343.191	8.9
343.562	8.28
343.933	8.57
344.303	8.2
344.674	8.29
345.045	8.65
345.416	8.82
345.786	8.29
346.157	8.53
346.527	8.86
346.898	8.35
347.268	8.45
347.639	8.71
348.009	8.75
348.38	9.24
348.75	9.05
349.12	9.51
349.49	8.88
349.861	9.09
350.231	9
350.601	9.4
350.971	9.34
351.341	9.49
351.711	8.77
352.081	9.04
352.45	9.14
352.82	9.1
353.19	9.29
353.56	8.89
353.929	9.36
354.299	9.5
354.669	9.4
355.038	9.32
355.408	9.47
355.777	9.7
356.147	9.65
356.516	9.22
356.885	9.64
357.254	9.36
357.624	9.35
357.993	9.8
358.362	9.67
358.731	9.37
359.1	9.3
359.469	9.5
359.838	9.67
360.207	9.78
360.576	10.21
360.945	9.5
361.314	9.42
361.682	9.52
362.051	9.74
362.42	10.1
362.788	9.91
363.157	9.84
363.525	9.71
363.894	9.76
364.262	10.13
364.631	10.25
364.999	10.27
365.367	10.04
365.735	9.87
366.104	10.16
366.472	9.93
366.84	9.59
367.208	10.34
367.576	10.55
367.944	10.53
368.312	10.27
368.68	10.36
369.048	10.46
369.416	10.69
369.783	10.52
370.151	10.56
370.519	10.8
370.886	10.33
371.254	10.62
371.621	10.35
371.989	10.59
372.356	10.82
372.724	10.88
373.091	10.82
373.458	10.43
373.826	10.69
374.193	10.58
374.56	10.71
374.927	10.86
375.294	11.05
375.661	11.38
376.028	10.81
376.395	10.77
376.762	11.17
377.129	11.2
377.496	11.44
377.863	11.2
378.229	10.97
378.596	11.32
378.963	11.1
379.329	11.08
379.696	11.16
380.062	11.29
380.429	11.45
380.795	11.46
381.161	11.55
381.528	11.26
381.894	11.44
382.26	11.76
382.626	11.72
382.993	11.47
383.359	11.68
383.725	11.35
384.091	11.53
384.457	11.56
384.823	11.61
385.188	11.87
385.554	11.71
385.92	11.51
386.286	11.63
386.651	11.81
387.017	11.88
387.383	11.89
387.748	11.81
388.114	11.94
388.479	11.58
388.845	11.9
389.21	11.71
389.575	12.19
389.94	11.82
390.306	11.81
390.671	11.93
391.036	12.16
391.401	12.06
391.766	12.23
392.131	12.17
392.496	12.07
392.861	12.33
393.226	12.17
393.591	12.06
393.956	12.35
394.32	12.36
394.685	12.27
395.05	12.43
395.414	12.31
395.779	12.52
396.143	12.34
396.508	12.61
396.872	12.53
397.236	12.27
397.601	12.7
397.965	12.73
398.329	12.61
398.694	12.77
399.058	12.78
399.422	12.86
399.786	12.83
400.15	12.8
400.514	12.74
400.878	12.85
401.242	12.97
401.605	12.94
401.969	13.1
402.333	12.81
402.697	13.22
403.06	12.83
403.424	12.78
403.787	13.21
404.151	12.97
404.514	13.34
404.878	13
405.241	13.03
405.604	13.11
405.968	13.15
406.331	12.95
406.694	13.26
407.057	13.13
407.42	13.2
407.783	13.44
408.146	13.46
408.509	13.54
408.872	13.52
409.235	13.66
409.598	13.54
409.961	13.52
410.323	13.57
410.686	13.52
411.049	13.49
411.411	13.62
411.774	13.6
412.136	13.54
412.499	13.66
412.861	13.87
413.223	13.57
413.586	13.78
413.948	13.92
414.31	14.01
414.672	13.88
415.035	13.94
415.397	13.74
415.759	13.64
416.121	13.94
416.483	13.82
416.845	13.76
417.206	13.79
417.568	13.98
417.93	13.72
418.292	13.85
418.653	14.1
419.015	13.99
419.377	14
419.738	14.07
420.1	13.92
420.461	14.08
420.822	14.08
421.184	14.03
421.545	14.1
421.906	14
422.267	13.99
422.629	13.9
422.99	13.95
423.351	14.05
423.712	14.24
424.073	14.3
424.434	14.34
424.795	14.34
425.155	14.29
425.516	14.27
425.877	14.35
426.238	14.41
426.598	14.27
426.959	14.42
427.32	14.52
427.68	14.71
428.041	14.75
428.401	14.66
428.761	14.88
429.122	14.71
429.482	14.92
429.842	14.93
430.202	14.93
430.563	15.01
430.923	14.89
431.283	14.75
431.643	15.14
432.003	15.19
432.363	15.23
432.722	15.4
433.082	15.19
433.442	15.23
433.802	15.38
434.161	15.17
434.521	15.24
434.881	15.42
435.24	15.35
435.6	15.35
435.959	15.4
436.319	15.31
436.678	15.37
437.037	15.55
437.396	15.61
437.756	15.68
438.115	15.57
438.474	15.64
438.833	15.8
439.192	15.83
439.551	15.6
439.91	15.86
440.269	15.76
440.628	15.98
440.987	15.89
441.345	15.78
441.704	15.86
442.063	15.84
442.421	15.77
442.78	15.71
443.138	15.98
443.497	15.81
443.855	15.98
444.214	16.09
444.572	16.24
444.93	16.3
445.288	16.21
445.647	16.45
446.005	16.35
446.363	16.34
446.721	16.11
447.079	16.17
447.437	16.19
447.795	16.13
448.153	16.06
448.51	16.14
448.868	16.24
449.226	16.19
449.584	16.31
449.941	16.68
450.299	16.47
450.656	16.65
451.014	16.77
451.371	16.6
451.729	16.77
452.086	16.67
452.443	16.91
452.801	17.03
453.158	17.04
453.515	16.8
453.872	17
454.229	16.92
454.586	16.85
454.943	17.12
455.3	17.07
455.657	17.06
456.014	17.14
456.371	17.15
456.727	17.37
457.084	17.1
457.441	17.38
457.797	17.36
458.154	17.34
458.51	17.46
458.867	17.2
459.223	17.58
459.58	17.51
459.936	17.35
460.292	17.51
460.648	17.52
461.005	17.25
461.361	17.29
461.717	17.3
462.073	17.38
462.429	17.4
462.785	17.47
463.141	17.63
463.496	17.67
463.852	17.78
464.208	17.87
464.564	17.79
464.919	17.85
465.275	17.84
465.631	17.96
465.986	18.33
466.342	18.01
466.697	18.03
467.052	18.28
467.408	17.99
467.763	17.99
468.118	18.26
468.473	18.26
468.829	18.38
469.184	18.36
469.539	18.36
469.894	18.47
470.249	18.33
470.603	18.48
470.958	18.49
471.313	18.66
471.668	18.58
472.023	18.5
472.377	18.67
472.732	18.52
473.086	18.54
473.441	18.72
473.795	18.7
474.15	18.66
474.504	18.72
474.859	18.65
475.213	18.94
475.567	19.05
475.921	18.94
476.275	18.98
476.63	19.01
476.984	19.12
477.338	19
477.692	18.94
478.045	19.04
478.399	19.2
478.753	19.13
479.107	19.15
479.461	19.07
479.814	19.11
480.168	19.27
480.521	19.31
480.875	19.28
481.228	19.16
481.582	19.44
481.935	19.22
482.289	19.34
482.642	19.26
482.995	19.21
483.348	19.18
483.701	19.16
484.055	19.1
484.408	19.03
484.761	18.85
485.114	18.65
485.466	18.51
485.819	18.6
486.172	18.71
486.525	18.93
486.878	19.02
487.23	19.09
487.583	19.28
487.936	19.33
488.288	19.32
488.641	19.11
488.993	19.06
489.345	19.07
489.698	19.13
490.05	19.18
490.402	19.28
490.754	19.42
491.107	19.55
491.459	19.84
491.811	19.83
492.163	19.93
492.515	19.69
492.866	19.62
493.218	19.46
493.57	19.44
493.922	19.64
494.274	19.81
494.625	19.99
494.977	20.26
495.328	20.22
495.68	20.32
496.031	20.54
496.383	20.66
496.734	20.51
497.086	20.58
497.437	20.77
497.788	20.59
498.139	20.54
498.49	20.55
498.842	20.58
499.193	20.76
499.544	20.84
499.894	20.69
500.245	20.79
500.596	20.94
500.947	20.87
501.298	21.08
501.648	21.01
501.999	21.25
502.35	21.29
502.7	21.16
503.051	21.21
503.401	21.31
503.752	21.27
504.102	21.34
504.452	21.39
504.803	21.29
505.153	21.53
505.503	21.32
505.853	21.56
506.203	21.62
506.553	21.47
506.903	21.69
507.253	21.54
507.603	21.69
507.953	21.72
508.303	21.6
508.652	21.84
509.002	21.78
509.352	21.78
509.701	21.85
510.051	21.81
510.4	21.78
510.75	21.63
511.099	21.72
511.449	21.88
511.798	21.85
512.147	21.86
512.496	21.85
512.846	22.13
513.195	22.12
513.544	21.94
513.893	22.09
514.242	22.06
514.591	22.15
514.939	22.3
515.288	22.38
515.637	22.34
515.986	22.64
516.334	22.52
516.683	22.3
517.032	22.59
517.38	22.58
517.729	22.6
518.077	22.58
518.426	22.58
518.774	22.75
519.122	22.62
519.47	22.37
519.819	22.54
520.167	22.33
520.515	22.4
520.863	22.53
521.211	22.58
521.559	22.62
521.907	22.8
522.255	23.08
522.602	22.89
522.95	23.08
523.298	23.26
523.645	23.19
523.993	23.01
524.341	23.28
524.688	23.32
525.036	23.3
525.383	23.45
525.73	23.33
526.078	23.39
526.425	23.18
526.772	23.21
527.119	23.01
527.466	23.06
527.814	23.08
528.161	23.2
528.508	23.17
528.854	23.16
529.201	23.16
529.548	23.02
529.895	22.84
530.242	22.73
530.588	22.82
530.935	23.03
531.282	23.13
531.628	23.15
531.975	23.38
532.321	23.53
532.667	23.68
533.014	23.76
533.36	23.79
533.706	23.84
534.052	23.87
534.399	23.68
534.745	23.52
535.091	23.53
535.437	23.63
535.783	23.79
536.129	23.85
536.474	23.97
536.82	24.22
537.166	24.31
537.512	24.21
537.857	24.23
538.203	24.13
538.549	24.14
538.894	24.36
539.239	24.49
539.585	24.55
539.93	24.67
540.276	24.96
540.621	24.86
540.966	25.02
541.311	24.9
541.656	24.95
542.001	24.8
542.346	24.58
542.691	24.31
543.036	24.27
543.381	24.4
543.726	24.43
544.071	24.6
544.415	24.67
544.76	24.64
545.105	24.81
545.449	25.01
545.794	25.15
546.138	25.22
546.483	25.29
546.827	25.48
547.171	25.34
547.516	25.43
547.86	25.53
548.204	25.33
548.548	25.51
548.892	25.43
549.236	25.53
549.58	25.67
549.924	26.03
550.268	25.97
550.612	26.19
550.956	26.35
551.3	26.2
551.643	26.22
551.987	26.34
552.33	26.43
552.674	26.4
553.017	26.42
553.361	26.41
553.704	26.57
554.048	26.47
554.391	26.44
554.734	26.44
555.077	26.64
555.42	26.54
555.764	26.67
556.107	26.73
556.45	26.61
556.793	26.76
557.135	26.97
557.478	27.01
557.821	26.91
558.164	26.92
558.507	27.09
558.849	27.17
559.192	27.11
559.534	27.07
559.877	27.26
560.219	27.38
560.562	27.28
560.904	27.32
561.246	27.25
561.589	27.45
561.931	27.44
562.273	27.46
562.615	27.42
562.957	27.59
563.299	27.68
563.641	27.26
563.983	27.69
564.325	27.76
564.667	27.84
565.008	27.76
565.35	27.81
565.692	27.76
566.033	27.87
566.375	27.87
566.716	28.02
567.058	27.99
567.399	27.9
567.741	28.22
568.082	27.99
568.423	27.93
568.764	28.1
569.105	27.99
569.447	28.2
569.788	28.33
570.129	28.12
570.47	28.14
570.811	28.39
571.151	28.54
571.492	28.6
571.833	28.5
572.174	28.64
572.514	28.4
572.855	28.65
573.195	28.6
573.536	28.52
573.876	28.73
574.217	28.65
574.557	28.69
574.898	28.73
575.238	28.82
575.578	28.85
575.918	28.96
576.258	29.02
576.598	28.92
576.938	28.9
577.278	28.99
577.618	28.93
577.958	29.11
578.298	29.09
578.638	29.3
578.977	29.29
579.317	29.43
579.657	29.38
579.996	29.73
580.336	29.51
580.675	29.64
581.014	29.65
581.354	29.55
581.693	29.7
582.032	29.69
582.372	30.03
582.711	30.11
583.05	29.99
583.389	30.16
583.728	30.05
584.067	29.94
584.406	29.76
584.745	29.96
585.083	30
585.422	30.23
585.761	30.07
586.1	30.14
586.438	30.37
586.777	30.43
587.115	30.48
587.454	30.16
587.792	30.45
588.13	30.5
588.469	30.53
588.807	30.68
589.145	30.87
589.483	30.74
589.821	30.85
590.159	30.63
590.497	30.81
590.835	30.89
591.173	30.84
591.511	30.85
591.849	30.79
592.187	30.59
592.524	30.77
592.862	30.98
593.2	31.2
593.537	31.08
593.875	31.21
594.212	31.43
594.55	31.37
594.887	31.45
595.224	31.44
595.561	31.31
595.899	30.91
596.236	31.3
596.573	31.35
596.91	31.49
597.247	31.43
597.584	31.35
597.921	31.33
598.258	31.37
598.594	31.27
598.931	31.19
599.268	31.48
599.604	31.31
599.941	31.65
600.277	31.63
600.614	31.68
600.95	31.78
601.287	32.03
601.623	32.34
601.959	31.89
602.296	31.91
602.632	32.04
602.968	32.02
603.304	32.48
603.64	32.11
603.976	32.42
604.312	32.22
604.648	31.75
604.984	32.22
605.319	32.23
605.655	32.14
605.991	31.95
606.326	32.19
606.662	32.15
606.998	31.99
607.333	32.33
607.668	32.37
608.004	32.38
608.339	32.49
608.674	32.72
609.01	32.8
609.345	32.5
609.68	32.77
610.015	33.12
610.35	32.61
610.685	32.82
611.02	32.61
611.355	32.81
611.689	32.89
612.024	32.67
612.359	32.83
612.694	33.21
613.028	32.8
613.363	33.09
613.697	33.47
614.032	33.24
614.366	32.82
614.7	33.49
615.035	33.28
615.369	33.11
615.703	33.4
616.037	33.7
616.371	33.64
616.705	33.4
617.039	33.55
617.373	33.44
617.707	33.87
618.041	33.52
618.375	33.68
618.709	34.28
619.042	33.62
619.376	33.98
619.71	34.04
620.043	34.16
620.377	33.89
620.71	34.15
621.043	33.95
621.377	33.9
621.71	33.89
622.043	34.36
622.376	34.32
622.709	33.84
623.043	34.27
623.376	34.45
623.709	34.17
624.041	33.9
624.374	34.03
624.707	34.65
625.04	34.38
625.373	34.34
625.705	34.59
626.038	34.29
626.37	34.64
626.703	34.25
627.035	34.49
627.368	34.02
627.7	34.48
628.032	34.75
628.365	34.99
628.697	34.83
629.029	34.71
629.361	34.93
629.693	34.63
630.025	34.68
630.357	34.89
630.689	34.85
631.021	35
631.353	35.12
631.684	34.93
632.016	35.17
632.348	35.44
632.679	35.24
633.011	35.55
633.342	35.27
633.674	35.63
634.005	35.96
634.336	35.33
634.668	35.29
634.999	35.21
635.33	35.32
635.661	35.76
635.992	35.55
636.323	35.71
636.654	35.6
636.985	35.89
637.316	36.09
637.647	35.9
637.977	35.59
638.308	35.82
638.639	35.51
638.969	35.86
639.3	35.62
639.63	36.22
639.961	35.53
640.291	35.91
640.622	36.06
640.952	36.16
641.282	35.78
641.612	35.72
641.943	36.49
642.273	36.08
642.603	36.29
642.933	36.34
643.263	36.11
643.592	36.47
643.922	36.14
644.252	35.95
644.582	36.55
644.911	36.08
645.241	36.85
645.571	36.57
645.9	36.79
646.23	36.86
646.559	36.64
646.888	36.57
647.218	37.02
647.547	36.87
647.876	36.54
648.205	36.92
648.534	36.86
648.863	37.02
649.192	36.91
649.521	36.63
649.85	37.14
650.179	37.05
650.508	36.92
650.837	37.21
651.165	36.64
651.494	37.38
651.822	36.77
652.151	37.08
652.479	37.2
652.808	37.13
653.136	37.07
653.465	37.1
653.793	37.45
654.121	37.09
654.449	37.1
654.777	37.53
655.105	37.51
655.433	37.22
655.761	37.92
656.089	37.75
656.417	37.43
656.745	37.71
657.073	37.63
657.4	38.12
657.728	37.69
658.056	37.52
658.383	37.84
658.711	37.56
659.038	37.51
659.365	37.37
659.693	37.42
660.02	37.92
660.347	38
660.674	37.82
661.001	37.92
661.329	37.6
661.656	38.35
661.982	38.23
662.309	38.3
662.636	37.95
662.963	38.06
663.29	38.9
663.616	37.62
663.943	37.84
664.27	38.76
664.596	38.11
664.923	38.45
665.249	38.54
665.576	38.86
665.902	38.55
666.228	39.26
666.554	38.13
666.881	38.39
667.207	38.51
667.533	38.48
667.859	38.94
668.185	38.85
668.511	38.62
668.837	39.22
669.162	39.05
669.488	38.8
669.814	39.43
670.139	38.66
670.465	38.74
670.791	38.6
671.116	39.06
671.442	39.26
671.767	39.46
672.092	38.83
