Data from 20-11_crown_Reflection__2__52.txt Node

Date: Fri Nov 11 20:36:27 CST 2022
User: ToomeyLab
Spectrometer: FLMS14357
Trigger mode: 0
Integration Time (sec): 1.000000E-2
Scans to average: 100
Electric dark correction enabled: true
Nonlinearity correction enabled: false
Boxcar width: 0
XAxis mode: Wavelengths
Number of Pixels in Spectrum: 2048
>>>>>Begin Spectral Data<<<<<
189.047	-2956.04
189.435	-2956.04
189.823	-2956.04
190.211	-300.67
190.599	148.83
190.987	437.77
191.375	-4333.33
191.763	-72.11
192.151	-120.12
192.538	-5.88
192.926	109.96
193.314	256.53
193.702	116.51
194.089	-45.32
194.477	20.83
194.864	40.36
195.252	69.6
195.639	60.36
196.027	113.2
196.414	-648.26
196.801	-24.27
197.189	35.96
197.576	57.82
197.963	-25.04
198.351	-41.09
198.738	-9.39
199.125	63.93
199.512	18.79
199.899	-120.3
200.286	-6.12
200.673	-21.13
201.06	8.53
201.447	10.52
201.833	-27.62
202.22	-19.8
202.607	-1.47
202.994	22.74
203.38	24.94
203.767	-0.63
204.154	20.93
204.54	-29.9
204.927	-13.13
205.313	2.03
205.699	-24.23
206.086	40.56
206.472	20.81
206.858	17.02
207.245	29.66
207.631	15.06
208.017	1.7
208.403	18.56
208.789	36.51
209.175	-10.78
209.561	38.67
209.947	3.46
210.333	-13.98
210.719	0.57
211.105	24.55
211.491	-9.68
211.876	17.33
212.262	25.61
212.648	-13.86
213.034	-2.03
213.419	-40.56
213.805	-18.9
214.19	-8.2
214.576	-6.81
214.961	-41.5
215.346	-19.82
215.732	-8.76
216.117	30.95
216.502	0.47
216.888	5.58
217.273	23.97
217.658	9.51
218.043	10.47
218.428	-7.83
218.813	-4.93
219.198	-8.78
219.583	22.52
219.968	6.93
220.353	-28.87
220.738	-10.4
221.122	-17.7
221.507	-2.86
221.892	-21.52
222.276	8.09
222.661	4.56
223.046	-12.08
223.43	-13.98
223.815	8.16
224.199	13
224.583	-2.87
224.968	-10.76
225.352	5.11
225.736	-3.57
226.121	1.14
226.505	-4.64
226.889	-4.33
227.273	-0.56
227.657	-1.68
228.041	-3.39
228.425	-0.03
228.809	3.25
229.193	3.73
229.577	2.68
229.961	3.3
230.344	2.43
230.728	1.73
231.112	1.43
231.495	2.12
231.879	2.21
232.263	1.77
232.646	2.09
233.03	2.17
233.413	1.61
233.797	3.74
234.18	0.61
234.563	-0.03
234.946	1.01
235.33	3.29
235.713	1.23
236.096	1.87
236.479	1.38
236.862	3.04
237.245	1.94
237.628	3.3
238.011	3.29
238.394	3.09
238.777	1.36
239.16	4.36
239.543	2.69
239.925	2.54
240.308	2.45
240.691	3.04
241.073	1.49
241.456	1.2
241.838	3.7
242.221	1.26
242.603	2.54
242.986	1.06
243.368	1.76
243.75	1.94
244.133	2.38
244.515	1.78
244.897	2.69
245.279	1.74
245.661	2.5
246.043	1.98
246.425	2.35
246.807	2.71
247.189	1.88
247.571	1.96
247.953	2.39
248.335	2.15
248.717	2.2
249.098	2.5
249.48	2.02
249.862	2.68
250.243	2.2
250.625	1.99
251.006	2.73
251.388	2.43
251.769	1.82
252.151	2.16
252.532	2.31
252.913	2.71
253.295	2.16
253.676	1.28
254.057	1.78
254.438	2.39
254.819	1.39
255.2	2.29
255.581	2.16
255.962	0.17
256.343	0.58
256.724	1.89
257.105	2.15
257.486	1.13
257.867	2.42
258.247	1.05
258.628	0.98
259.009	1.7
259.389	1.35
259.77	2.21
260.15	1.81
260.531	1.58
260.911	2.01
261.292	2.23
261.672	1.73
262.052	1.82
262.432	2.34
262.813	1.9
263.193	1.45
263.573	1.98
263.953	2.87
264.333	1.54
264.713	1.67
265.093	2.37
265.473	0.8
265.853	1.81
266.233	1.88
266.612	2.02
266.992	1.69
267.372	2.04
267.752	1.83
268.131	1.64
268.511	1.89
268.89	1.59
269.27	1.78
269.649	1.58
270.029	2.37
270.408	1.63
270.787	1.9
271.167	1.46
271.546	1.83
271.925	2.09
272.304	1.6
272.683	1.93
273.062	1.97
273.441	1.76
273.82	2.05
274.199	1.71
274.578	1.77
274.957	1.85
275.336	1.95
275.715	2.08
276.093	1.88
276.472	2.11
276.851	1.62
277.229	1.36
277.608	1.94
277.986	1.91
278.365	1.66
278.743	1.31
279.122	2.04
279.5	1.72
279.878	1.94
280.257	1.78
280.635	1.7
281.013	1.69
281.391	1.89
281.769	1.69
282.147	1.71
282.525	1.3
282.903	1.49
283.281	1.6
283.659	1.98
284.037	1.86
284.415	1.39
284.792	1.96
285.17	1.83
285.548	1.5
285.925	1.17
286.303	1.57
286.68	2.05
287.058	1.86
287.435	1.53
287.813	1.72
288.19	1.86
288.567	1.71
288.945	2.24
289.322	1.98
289.699	1.07
290.076	2.27
290.453	1.66
290.83	1.41
291.207	1.53
291.584	1.74
291.961	1.62
292.338	1.73
292.715	1.79
293.092	1.97
293.469	1.91
293.845	1.74
294.222	1.39
294.599	2.04
294.975	1.82
295.352	1.41
295.728	1.5
296.105	1.41
296.481	1.38
296.858	1.22
297.234	1.72
297.61	1.17
297.986	1.74
298.363	1.61
298.739	1.53
299.115	2.02
299.491	1.99
299.867	1.45
300.243	1.59
300.619	1.71
300.995	1.48
301.371	2.1
301.746	1.86
302.122	1.53
302.498	1.87
302.874	1.63
303.249	1.59
303.625	1.32
304	1.31
304.376	1.57
304.751	1.29
305.127	1.7
305.502	1.75
305.878	2.05
306.253	1.44
306.628	2.01
307.003	1.85
307.378	1.31
307.754	2.05
308.129	1.8
308.504	1.65
308.879	2.13
309.254	1.9
309.629	1.31
310.003	1.68
310.378	1.9
310.753	1.72
311.128	1.99
311.502	1.87
311.877	2.01
312.252	1.71
312.626	1.6
313.001	1.07
313.375	1.41
313.75	1.38
314.124	1.25
314.498	1.59
314.873	1.48
315.247	2.03
315.621	1.58
315.995	1.68
316.369	1.93
316.743	1.68
317.117	1.64
317.491	1.68
317.865	1.01
318.239	1.8
318.613	1.89
318.987	1.33
319.361	1.6
319.734	2.15
320.108	1.59
320.482	2.38
320.855	1.96
321.229	1.59
321.602	1.73
321.976	1.57
322.349	1.82
322.723	1.98
323.096	1.84
323.469	1.98
323.843	2.01
324.216	2.1
324.589	2.38
324.962	2.21
325.335	1.35
325.708	1.7
326.081	1.82
326.454	1.67
326.827	1.92
327.2	1.92
327.573	2.28
327.945	1.63
328.318	1.55
328.691	2.03
329.063	2.08
329.436	1.39
329.809	2
330.181	1.6
330.553	1.27
330.926	1.55
331.298	1.9
331.671	1.61
332.043	1.5
332.415	1.84
332.787	2.32
333.159	1.72
333.532	1.69
333.904	2.37
334.276	1.64
334.648	1.49
335.02	1.68
335.391	2.16
335.763	1.82
336.135	1.78
336.507	1.73
336.879	1.82
337.25	1.87
337.622	1.63
337.993	1.72
338.365	1.83
338.736	2.18
339.108	1.75
339.479	1.49
339.851	2.03
340.222	1.83
340.593	1.99
340.964	2.11
341.336	2.01
341.707	1.35
342.078	1.75
342.449	2.3
342.82	2.01
343.191	2.03
343.562	1.93
343.933	1.61
344.303	1.68
344.674	1.91
345.045	1.73
345.416	1.95
345.786	1.7
346.157	1.81
346.527	1.91
346.898	1.46
347.268	1.55
347.639	1.16
348.009	1.69
348.38	2.17
348.75	1.76
349.12	2.13
349.49	2.45
349.861	2.33
350.231	1.92
350.601	1.61
350.971	2.05
351.341	2.06
351.711	1.86
352.081	1.85
352.45	1.8
352.82	1.54
353.19	1.91
353.56	2.02
353.929	2.18
354.299	2.03
354.669	2.04
355.038	1.93
355.408	1.93
355.777	2.38
356.147	2.12
356.516	1.8
356.885	2.03
357.254	2.25
357.624	1.4
357.993	1.77
358.362	2.12
358.731	1.54
359.1	1.77
359.469	1.73
359.838	1.87
360.207	2.28
360.576	2.06
360.945	2.37
361.314	1.89
361.682	2.08
362.051	1.9
362.42	1.97
362.788	2.2
363.157	1.98
363.525	1.76
363.894	1.87
364.262	2.1
364.631	2.15
364.999	2
365.367	2.05
365.735	1.79
366.104	2.06
366.472	1.69
366.84	1.67
367.208	1.61
367.576	2.25
367.944	2.2
368.312	1.8
368.68	1.98
369.048	1.93
369.416	2.13
369.783	2.45
370.151	2.41
370.519	2.15
370.886	2.03
371.254	2.37
371.621	1.8
371.989	1.8
372.356	2.19
372.724	2.35
373.091	2.17
373.458	2.11
373.826	1.97
374.193	1.88
374.56	2.24
374.927	1.67
375.294	2.05
375.661	2.31
376.028	1.62
376.395	1.99
376.762	2.26
377.129	1.86
377.496	1.89
377.863	2.09
378.229	2.12
378.596	1.92
378.963	1.99
379.329	2.27
379.696	2.16
380.062	2.11
380.429	1.98
380.795	2.51
381.161	2.02
381.528	2.08
381.894	2.42
382.26	2.46
382.626	2.11
382.993	2.07
383.359	2.21
383.725	1.8
384.091	2.24
384.457	2.22
384.823	1.94
385.188	2.12
385.554	1.97
385.92	2.13
386.286	2.1
386.651	2.15
387.017	1.96
387.383	2.2
387.748	2.01
388.114	2.29
388.479	2.03
388.845	2.06
389.21	2.05
389.575	2.09
389.94	2.08
390.306	1.92
390.671	2.31
391.036	2.29
391.401	2.16
391.766	2.44
392.131	2.18
392.496	2.07
392.861	2.03
393.226	2.29
393.591	2.23
393.956	2.06
394.32	2.35
394.685	2.22
395.05	2.42
395.414	2.08
395.779	2.2
396.143	1.97
396.508	2.16
396.872	2.51
397.236	2.2
397.601	2.06
397.965	2.12
398.329	2.08
398.694	2.35
399.058	2.1
399.422	2.18
399.786	2.11
400.15	2.15
400.514	2.32
400.878	2.19
401.242	2.35
401.605	2.37
401.969	2.19
402.333	2.27
402.697	2.48
403.06	2.37
403.424	2.06
403.787	2.43
404.151	2.1
404.514	2.14
404.878	2.2
405.241	2.14
405.604	2.25
405.968	2.2
406.331	2.01
406.694	2.25
407.057	2.29
407.42	2.32
407.783	2.34
408.146	2.25
408.509	2.28
408.872	2.28
409.235	2.41
409.598	2.28
409.961	2.25
410.323	2.25
410.686	2.24
411.049	2.17
411.411	2.24
411.774	2.24
412.136	2.28
412.499	2.43
412.861	2.34
413.223	2.02
413.586	2.21
413.948	2.46
414.31	2.38
414.672	2.47
415.035	2.23
415.397	2.06
415.759	2.11
416.121	2.13
416.483	1.98
416.845	2.25
417.206	2.19
417.568	2.1
417.93	2.1
418.292	2.12
418.653	2.31
419.015	2.32
419.377	2.28
419.738	2.3
420.1	2.16
420.461	2.28
420.822	2.18
421.184	2.19
421.545	2.3
421.906	2.31
422.267	2.15
422.629	2.15
422.99	2.26
423.351	2.16
423.712	2.17
424.073	2.31
424.434	2.33
424.795	2.29
425.155	2.16
425.516	2.22
425.877	2.17
426.238	2.23
426.598	2.21
426.959	2.17
427.32	2.26
427.68	2.23
428.041	2.31
428.401	2.14
428.761	2.35
429.122	2.2
429.482	2.37
429.842	2.32
430.202	2.27
430.563	2.33
430.923	2.38
431.283	2.19
431.643	2.22
432.003	2.41
432.363	2.28
432.722	2.42
433.082	2.21
433.442	2.38
433.802	2.25
434.161	2.39
434.521	2.28
434.881	2.42
435.24	2.29
435.6	2.11
435.959	2.26
436.319	2.21
436.678	2.39
437.037	2.25
437.396	2.31
437.756	2.39
438.115	2.19
438.474	2.07
438.833	2.32
439.192	2.43
439.551	2.24
439.91	2.35
440.269	2.27
440.628	2.34
440.987	2.33
441.345	2.32
441.704	2.3
442.063	2.2
442.421	2.25
442.78	2.19
443.138	2.31
443.497	2.24
443.855	2.34
444.214	2.19
444.572	2.32
444.93	2.35
445.288	2.3
445.647	2.29
446.005	2.33
446.363	2.34
446.721	2.35
447.079	2.39
447.437	2.2
447.795	2.29
448.153	2.21
448.51	2.27
448.868	2.29
449.226	2.32
449.584	2.26
449.941	2.2
450.299	2.22
450.656	2.39
451.014	2.41
451.371	2.4
451.729	2.32
452.086	2.42
452.443	2.35
452.801	2.39
453.158	2.34
453.515	2.34
453.872	2.16
454.229	2.18
454.586	2.26
454.943	2.35
455.3	2.39
455.657	2.41
456.014	2.34
456.371	2.38
456.727	2.52
457.084	2.05
457.441	2.49
457.797	2.31
458.154	2.43
458.51	2.35
458.867	2.3
459.223	2.41
459.58	2.33
459.936	2.35
460.292	2.37
460.648	2.35
461.005	2.29
461.361	2.29
461.717	2.24
462.073	2.24
462.429	2.26
462.785	2.29
463.141	2.29
463.496	2.31
463.852	2.51
464.208	2.28
464.564	2.33
464.919	2.24
465.275	2.3
465.631	2.31
465.986	2.41
466.342	2.45
466.697	2.4
467.052	2.45
467.408	2.25
467.763	2.21
468.118	2.21
468.473	2.44
468.829	2.42
469.184	2.38
469.539	2.43
469.894	2.37
470.249	2.54
470.603	2.25
470.958	2.35
471.313	2.33
471.668	2.4
472.023	2.19
472.377	2.44
472.732	2.16
473.086	2.28
473.441	2.29
473.795	2.31
474.15	2.4
474.504	2.43
474.859	2.25
475.213	2.52
475.567	2.41
475.921	2.39
476.275	2.29
476.63	2.4
476.984	2.33
477.338	2.45
477.692	2.23
478.045	2.33
478.399	2.39
478.753	2.22
479.107	2.31
479.461	2.29
479.814	2.2
480.168	2.3
480.521	2.49
480.875	2.37
481.228	2.28
481.582	2.34
481.935	2.29
482.289	2.29
482.642	2.39
482.995	2.29
483.348	2.22
483.701	2.34
484.055	2.31
484.408	2.27
484.761	2.21
485.114	2.17
485.466	2.11
485.819	2.11
486.172	2.15
486.525	2.24
486.878	2.21
487.23	2.19
487.583	2.26
487.936	2.27
488.288	2.27
488.641	2.18
488.993	2.17
489.345	2.12
489.698	2.17
490.05	2.16
490.402	2.24
490.754	2.21
491.107	2.16
491.459	2.25
491.811	2.29
492.163	2.33
492.515	2.28
492.866	2.19
493.218	2.13
493.57	2.15
493.922	2.19
494.274	2.24
494.625	2.26
494.977	2.36
495.328	2.36
495.68	2.3
496.031	2.29
496.383	2.3
496.734	2.23
497.086	2.28
497.437	2.4
497.788	2.27
498.139	2.3
498.49	2.28
498.842	2.21
499.193	2.28
499.544	2.32
499.894	2.27
500.245	2.31
500.596	2.41
500.947	2.22
501.298	2.35
501.648	2.29
501.999	2.38
502.35	2.33
502.7	2.41
503.051	2.32
503.401	2.4
503.752	2.27
504.102	2.19
504.452	2.44
504.803	2.25
505.153	2.18
505.503	2.22
505.853	2.34
506.203	2.39
506.553	2.24
506.903	2.21
507.253	2.23
507.603	2.38
507.953	2.33
508.303	2.23
508.652	2.33
509.002	2.25
509.352	2.26
509.701	2.39
510.051	2.28
510.4	2.39
510.75	2.25
511.099	2.25
511.449	2.26
511.798	2.21
512.147	2.24
512.496	2.22
512.846	2.44
513.195	2.25
513.544	2.22
513.893	2.2
514.242	2.23
514.591	2.31
514.939	2.26
515.288	2.28
515.637	2.37
515.986	2.26
516.334	2.29
516.683	2.16
517.032	2.28
517.38	2.33
517.729	2.3
518.077	2.31
518.426	2.41
518.774	2.27
519.122	2.32
519.47	2.23
519.819	2.22
520.167	2.28
520.515	2.32
520.863	2.31
521.211	2.26
521.559	2.2
521.907	2.21
522.255	2.23
522.602	2.32
522.95	2.16
523.298	2.34
523.645	2.37
523.993	2.42
524.341	2.33
524.688	2.31
525.036	2.25
525.383	2.2
525.73	2.19
526.078	2.17
526.425	2.25
526.772	2.22
527.119	2.2
527.466	2.22
527.814	2.22
528.161	2.28
528.508	2.25
528.854	2.19
529.201	2.19
529.548	2.17
529.895	2.09
530.242	2.05
530.588	2.09
530.935	2.13
531.282	2.18
531.628	2.2
531.975	2.19
532.321	2.22
532.667	2.28
533.014	2.27
533.36	2.12
533.706	2.27
534.052	2.26
534.399	2.18
534.745	2.11
535.091	2.16
535.437	2.09
535.783	2.11
536.129	2.19
536.474	2.29
536.82	2.18
537.166	2.22
537.512	2.16
537.857	2.21
538.203	2.14
538.549	2.24
538.894	2.25
539.239	2.22
539.585	2.23
539.93	2.26
540.276	2.29
540.621	2.39
540.966	2.34
541.311	2.16
541.656	2.32
542.001	2.15
542.346	2.22
542.691	2.14
543.036	2.09
543.381	2.09
543.726	2.05
544.071	2.11
544.415	2.17
544.76	2.19
545.105	2.1
545.449	2.13
545.794	2.22
546.138	2.21
546.483	2.22
546.827	2.18
547.171	2.27
547.516	2.15
547.86	2.17
548.204	2.18
548.548	2.1
548.892	2.22
549.236	2.22
549.58	2.26
549.924	2.34
550.268	2.26
550.612	2.21
550.956	2.36
551.3	2.23
551.643	2.18
551.987	2.29
552.33	2.06
552.674	2.16
553.017	2.23
553.361	2.22
553.704	2.22
554.048	2.2
554.391	2.29
554.734	2.21
555.077	2.26
555.42	2.16
555.764	2.17
556.107	2.25
556.45	2.32
556.793	2.34
557.135	2.34
557.478	2.25
557.821	2.3
558.164	2.15
558.507	2.22
558.849	2.19
559.192	2.23
559.534	2.23
559.877	2.33
560.219	2.32
560.562	2.16
560.904	2.34
561.246	2.02
561.589	2.33
561.931	2.14
562.273	2.17
562.615	2.15
562.957	2.26
563.299	2.06
563.641	2.07
563.983	2.13
564.325	2.01
564.667	2.33
565.008	2.32
565.35	2.12
565.692	2.04
566.033	2.26
566.375	2.28
566.716	2.25
567.058	2.26
567.399	2.38
567.741	2.2
568.082	2.08
568.423	2.21
568.764	2.27
569.105	2.12
569.447	2.32
569.788	2.33
570.129	2.1
570.47	2.13
570.811	2.18
571.151	2.36
571.492	2.15
571.833	2.16
572.174	2.12
572.514	2.2
572.855	2.23
573.195	1.98
573.536	2.21
573.876	2.3
574.217	2.21
574.557	2.12
574.898	2.21
575.238	2.18
575.578	2.24
575.918	2.37
576.258	2.23
576.598	2.24
576.938	2.23
577.278	2.05
577.618	2.26
577.958	2.17
578.298	2.2
578.638	2.18
578.977	2.27
579.317	2.14
579.657	2.36
579.996	2.17
580.336	2.23
580.675	2.06
581.014	2.25
581.354	2.07
581.693	2.13
582.032	2.2
582.372	2.22
582.711	2.1
583.05	2.17
583.389	2.08
583.728	2.14
584.067	2.2
584.406	2.08
584.745	2.25
585.083	1.94
585.422	2.06
585.761	2.18
586.1	2.14
586.438	2.17
586.777	2.21
587.115	2.2
587.454	1.88
587.792	2.05
588.13	2.16
588.469	2.2
588.807	2.17
589.145	2.18
589.483	2.42
589.821	2.25
590.159	2.23
590.497	2.27
590.835	2.22
591.173	2.11
591.511	2.14
591.849	2.01
592.187	2.1
592.524	1.93
592.862	2.06
593.2	2.03
593.537	2.25
593.875	2.4
594.212	1.93
594.55	2.11
594.887	2.18
595.224	2
595.561	2.15
595.899	1.9
596.236	2.09
596.573	2.18
596.91	2.19
597.247	2.16
597.584	2.14
597.921	2.25
598.258	2.14
598.594	2.17
598.931	1.93
599.268	2.25
599.604	2.21
599.941	2.01
600.277	2.09
600.614	2.22
600.95	1.99
601.287	2.09
601.623	2.61
601.959	2.14
602.296	2.15
602.632	2.09
602.968	2.27
603.304	2.2
603.64	2.26
603.976	2.35
604.312	2.04
604.648	2.12
604.984	2.08
605.319	2.11
605.655	2.1
605.991	2.02
606.326	2.33
606.662	1.97
606.998	1.96
607.333	2.06
607.668	2.24
608.004	2.08
608.339	2.27
608.674	2.23
609.01	2.08
609.345	2.17
609.68	2.07
610.015	2.35
610.35	1.94
610.685	2.13
611.02	2.01
611.355	2.2
611.689	2.05
612.024	2.01
612.359	2.02
612.694	1.87
613.028	2.23
613.363	2.19
613.697	2.41
614.032	2.13
614.366	2.16
614.7	1.73
615.035	1.95
615.369	1.94
615.703	2.06
616.037	2.13
616.371	2.1
616.705	2.18
617.039	2.24
617.373	2.1
617.707	2
618.041	2.24
618.375	1.99
618.709	2.24
619.042	2.36
619.376	2.3
619.71	2.23
620.043	2.12
620.377	2.24
620.71	2.18
621.043	1.95
621.377	2.12
621.71	1.85
622.043	2.03
622.376	2.15
622.709	1.83
623.043	2.08
623.376	2.3
623.709	2.27
624.041	2.08
624.374	2.04
624.707	2.03
625.04	2.2
625.373	1.59
625.705	2.22
626.038	2.01
626.37	1.94
626.703	2
627.035	1.93
627.368	1.97
627.7	2
628.032	2.03
628.365	2.07
628.697	2.1
629.029	2.07
629.361	1.83
629.693	2.08
630.025	2.09
630.357	2.11
630.689	2.02
631.021	1.95
631.353	2.17
631.684	2.02
632.016	2.35
632.348	2.06
632.679	2.04
633.011	2.27
633.342	2.18
633.674	2.03
634.005	2.06
634.336	2.21
634.668	1.97
634.999	1.87
635.33	1.96
635.661	2.14
635.992	2.3
636.323	1.82
636.654	2.39
636.985	2.12
637.316	1.92
637.647	2.41
637.977	2.22
638.308	2.15
638.639	2.17
638.969	1.63
639.3	2.13
639.63	2.39
639.961	2.07
640.291	2.11
640.622	2.14
640.952	1.9
641.282	2
641.612	2.08
641.943	2.19
642.273	2.29
642.603	2.29
642.933	2.2
643.263	2.16
643.592	2.21
643.922	2.1
644.252	2.26
644.582	2.36
644.911	1.65
645.241	2.02
645.571	1.94
645.9	2.51
646.23	2.27
646.559	2.23
646.888	2.31
647.218	1.95
647.547	1.98
647.876	2.33
648.205	2.1
648.534	1.92
648.863	2.16
649.192	2.03
649.521	1.86
649.85	1.93
650.179	1.74
650.508	1.68
650.837	2.26
651.165	1.82
651.494	2.25
651.822	2.02
652.151	2.1
652.479	1.71
652.808	1.72
653.136	2.25
653.465	2.58
653.793	2.03
654.121	2.05
654.449	1.51
654.777	2.4
655.105	1.76
655.433	1.87
655.761	2.09
656.089	1.91
656.417	1.53
656.745	2.28
657.073	2.23
657.4	1.73
657.728	2.18
658.056	2.24
658.383	1.78
658.711	1.96
659.038	1.96
659.365	1.63
659.693	2.06
660.02	2.59
660.347	2.3
660.674	2.06
661.001	2.13
661.329	1.75
661.656	2
661.982	2.51
662.309	2.09
662.636	2.47
662.963	2.18
663.29	2.19
663.616	1.47
663.943	2.29
664.27	2.36
664.596	2.17
664.923	2.38
665.249	2.34
665.576	2.2
665.902	2.42
666.228	2.47
666.554	1.93
666.881	1.9
667.207	2.36
667.533	2.2
667.859	2.44
668.185	2.32
668.511	1.73
668.837	2.15
669.162	2.1
669.488	1.81
669.814	1.86
670.139	1.81
670.465	1.92
670.791	2.01
671.116	2.27
671.442	2.6
671.767	2.53
672.092	2.38
672.418	1.81
672.743	2.12
673.068	2.04
673.393	2.72
673.718	1.62
674.043	2.36
674.368	1.84
674.693	1.29
675.018	1.77
675.343	1.77
675.667	2.43
675.992	2.75
676.317	1.69
676.641	1.83
676.966	2.39
677.29	2.07
677.615	1.8
677.939	1.96
678.264	2.08
678.588	1.42
678.912	1.87
679.236	2.67
679.56	2.33
679.885	1.67
680.209	1.76
680.532	2.57
680.856	2.75
681.18	2.19
681.504	1.5
681.828	2.18
682.152	2.11
682.475	2.05
682.799	2
683.122	1.88
683.446	2.56
683.769	2.05
684.093	1.89
684.416	1.87
684.739	2.38
685.062	1.88
685.386	2.26
685.709	2.08
686.032	1.71
686.355	1.79
686.678	2.14
687.001	2.26
687.324	1.77
687.646	1.85
687.969	2.42
688.292	2.86
688.614	1.69
688.937	1.64
689.26	1.32
689.582	2.17
689.904	1.67
690.227	2.69
690.549	2.21
690.871	2.26
691.194	2.2
691.516	1.53
691.838	2.17
692.16	2.45
