Data from 20-11_forehead_Reflection__1__56.txt Node

Date: Fri Nov 11 20:37:24 CST 2022
User: ToomeyLab
Spectrometer: FLMS14357
Trigger mode: 0
Integration Time (sec): 1.000000E-2
Scans to average: 100
Electric dark correction enabled: true
Nonlinearity correction enabled: false
Boxcar width: 0
XAxis mode: Wavelengths
Number of Pixels in Spectrum: 2048
>>>>>Begin Spectral Data<<<<<
189.047	-341.21
189.435	-341.21
189.823	-341.21
190.211	-30.96
190.599	-113.35
190.987	701.39
191.375	-6083.33
191.763	-96.94
192.151	46.46
192.538	58.71
192.926	334.56
193.314	368.08
193.702	-75.23
194.089	309.21
194.477	44.36
194.864	71.11
195.252	131.64
195.639	-59.11
196.027	654.11
196.414	-261.52
196.801	-153.65
197.189	59.17
197.576	-44.61
197.963	102.17
198.351	-6.08
198.738	-18.82
199.125	23.82
199.512	97.25
199.899	-78.86
200.286	57.08
200.673	-6.99
201.06	70.38
201.447	50.77
201.833	82.09
202.22	31.35
202.607	32.95
202.994	28.53
203.38	28.79
203.767	44.57
204.154	18.83
204.54	33.34
204.927	46.67
205.313	-4.64
205.699	-61.61
206.086	71.24
206.472	13.51
206.858	42.54
207.245	35.56
207.631	-2.82
208.017	1.53
208.403	27.14
208.789	29.41
209.175	27.56
209.561	48.66
209.947	24.65
210.333	54.13
210.719	8.2
211.105	27.84
211.491	5.13
211.876	33.64
212.262	12.47
212.648	24.21
213.034	-8.2
213.419	-25.26
213.805	38.08
214.19	5.95
214.576	14.94
214.961	-22.47
215.346	0.38
215.732	0.63
216.117	23.52
216.502	7.19
216.888	-17.49
217.273	27.46
217.658	25.57
218.043	35.2
218.428	14.19
218.813	16.74
219.198	32.05
219.583	7.66
219.968	0.86
220.353	4.52
220.738	-33.39
221.122	8.57
221.507	-22.38
221.892	-5
222.276	18.96
222.661	18.22
223.046	-8.43
223.43	-3.69
223.815	-1.67
224.199	22.56
224.583	-5.67
224.968	-8.33
225.352	7.21
225.736	-2.52
226.121	5.81
226.505	-4.3
226.889	-7.73
227.273	5.69
227.657	-3.72
228.041	-3.04
228.425	-4.02
228.809	4.39
229.193	5.68
229.577	2.97
229.961	0.9
230.344	1.92
230.728	1.8
231.112	0.33
231.495	1.12
231.879	-0.92
232.263	1.92
232.646	0.87
233.03	2.07
233.413	2.31
233.797	1.53
234.18	0.51
234.563	3.69
234.946	0.77
235.33	3.81
235.713	1.31
236.096	0.15
236.479	0.65
236.862	2.69
237.245	0.18
237.628	3.42
238.011	3.53
238.394	2.64
238.777	3.47
239.16	0.94
239.543	3.39
239.925	2.7
240.308	2.16
240.691	3.67
241.073	0.73
241.456	1.63
241.838	2.35
242.221	0.51
242.603	2.15
242.986	1.11
243.368	1.46
243.75	1.96
244.133	1.52
244.515	1.23
244.897	1.88
245.279	1.05
245.661	2.42
246.043	2.12
246.425	2.9
246.807	1.88
247.189	0.68
247.571	1.56
247.953	1.09
248.335	1.65
248.717	1.64
249.098	1.63
249.48	1.06
249.862	1.67
250.243	1.78
250.625	1.78
251.006	3.03
251.388	2.55
251.769	1.56
252.151	1.97
252.532	1.97
252.913	1.96
253.295	1.86
253.676	0.89
254.057	1.13
254.438	1.34
254.819	1.14
255.2	2.37
255.581	2.84
255.962	0.96
256.343	0.76
256.724	1.58
257.105	1.43
257.486	0.49
257.867	2.55
258.247	-0.41
258.628	1.43
259.009	1.49
259.389	1.19
259.77	2.21
260.15	1.47
260.531	1.48
260.911	1.34
261.292	1.55
261.672	1.34
262.052	1.49
262.432	1.52
262.813	1.87
263.193	1.15
263.573	1.5
263.953	1.83
264.333	1.65
264.713	1.65
265.093	1.83
265.473	1.85
265.853	1.8
266.233	1.78
266.612	0.72
266.992	1.65
267.372	1.97
267.752	1.26
268.131	1.2
268.511	1.27
268.89	1.24
269.27	1.32
269.649	1.3
270.029	1.95
270.408	1.61
270.787	1.75
271.167	1.53
271.546	1.51
271.925	1.6
272.304	1.72
272.683	1.42
273.062	1.53
273.441	1.65
273.82	1.37
274.199	1.55
274.578	1.35
274.957	1.66
275.336	1.65
275.715	1.52
276.093	1.23
276.472	1.21
276.851	1.11
277.229	0.91
277.608	2.05
277.986	2
278.365	0.95
278.743	1.92
279.122	2.41
279.5	1.57
279.878	1.54
280.257	1.61
280.635	1.7
281.013	2.12
281.391	1.73
281.769	1.26
282.147	1.45
282.525	1.21
282.903	0.99
283.281	1.46
283.659	1.64
284.037	1.68
284.415	1.34
284.792	1.32
285.17	1.64
285.548	1.09
285.925	1.2
286.303	1.53
286.68	1.89
287.058	1.61
287.435	1.48
287.813	1.58
288.19	1.23
288.567	1.42
288.945	1.53
289.322	1.97
289.699	1.08
290.076	2.18
290.453	1.26
290.83	1.17
291.207	1.67
291.584	1.6
291.961	1.28
292.338	1.87
292.715	1.87
293.092	2.17
293.469	2.18
293.845	1.95
294.222	1.26
294.599	2.5
294.975	1.88
295.352	1.96
295.728	1.65
296.105	1.6
296.481	1.37
296.858	1.97
297.234	1.98
297.61	1.51
297.986	2
298.363	1.86
298.739	2.09
299.115	1.99
299.491	1.9
299.867	2.05
300.243	1.77
300.619	2.27
300.995	1.78
301.371	2.75
301.746	2.52
302.122	2.51
302.498	2.36
302.874	1.94
303.249	1.53
303.625	1.8
304	1.61
304.376	2.18
304.751	2.35
305.127	2.57
305.502	2.68
305.878	2.66
306.253	2.36
306.628	1.87
307.003	2.44
307.378	2.09
307.754	2.85
308.129	2.73
308.504	2.64
308.879	2.6
309.254	2.92
309.629	2.12
310.003	2.13
310.378	2.62
310.753	3.29
311.128	3
311.502	2.92
311.877	2.44
312.252	2.68
312.626	2.56
313.001	2.32
313.375	2.37
313.75	2.56
314.124	2.21
314.498	2.61
314.873	2.78
315.247	2.6
315.621	2.84
315.995	2.71
316.369	2.63
316.743	2.89
317.117	2.62
317.491	3.02
317.865	2.75
318.239	3.15
318.613	3.04
318.987	3.07
319.361	2.75
319.734	3.23
320.108	2.74
320.482	3.14
320.855	2.88
321.229	2.91
321.602	3.18
321.976	2.65
322.349	3.39
322.723	3.84
323.096	3.22
323.469	3.17
323.843	2.84
324.216	2.97
324.589	3.87
324.962	3.84
325.335	2.96
325.708	3.48
326.081	3.58
326.454	2.97
326.827	2.83
327.2	3.8
327.573	4.35
327.945	3.66
328.318	3.17
328.691	3.31
329.063	3.42
329.436	3.05
329.809	3.27
330.181	3.44
330.553	2.96
330.926	3.6
331.298	3.77
331.671	3.73
332.043	3.36
332.415	4.05
332.787	3.85
333.159	3.64
333.532	4.1
333.904	4.18
334.276	3.52
334.648	3.52
335.02	3.75
335.391	3.77
335.763	3.81
336.135	3.64
336.507	3.91
336.879	4.3
337.25	3.63
337.622	4.46
337.993	3.97
338.365	3.96
338.736	3.98
339.108	4.23
339.479	3.8
339.851	3.96
340.222	3.92
340.593	3.93
340.964	3.8
341.336	4.34
341.707	4.14
342.078	3.84
342.449	4.67
342.82	4.47
343.191	4.33
343.562	3.9
343.933	3.62
344.303	3.95
344.674	4.03
345.045	3.88
345.416	4.32
345.786	4.04
346.157	4.07
346.527	4.29
346.898	3.77
347.268	4
347.639	4.34
348.009	4.25
348.38	4.32
348.75	4.55
349.12	4.61
349.49	4.55
349.861	4.04
350.231	4.76
350.601	4.24
350.971	4.35
351.341	4.57
351.711	4.53
352.081	4.77
352.45	4.39
352.82	4.54
353.19	4.63
353.56	4.68
353.929	4.52
354.299	4.61
354.669	4.89
355.038	4.15
355.408	4.83
355.777	4.58
356.147	4.79
356.516	4.75
356.885	4.74
357.254	4.48
357.624	4.08
357.993	4.75
358.362	4.83
358.731	4.17
359.1	4.63
359.469	4.45
359.838	4.47
360.207	4.72
360.576	4.88
360.945	4.92
361.314	4.56
361.682	4.63
362.051	4.95
362.42	4.84
362.788	4.78
363.157	4.83
363.525	4.68
363.894	4.72
364.262	5.13
364.631	4.99
364.999	5.18
365.367	4.96
365.735	5.03
366.104	5.04
366.472	4.99
366.84	4.82
367.208	4.86
367.576	5.25
367.944	5.28
368.312	4.98
368.68	5.09
369.048	5.23
369.416	5.14
369.783	5.41
370.151	5.51
370.519	5.55
370.886	5.33
371.254	5.48
371.621	5.04
371.989	5.2
372.356	5.57
372.724	5.54
373.091	5.56
373.458	5.25
373.826	5.35
374.193	5.15
374.56	5.46
374.927	5.23
375.294	5.79
375.661	5.36
376.028	5.22
376.395	5.63
376.762	5.75
377.129	5.35
377.496	5.91
377.863	5.69
378.229	5.96
378.596	5.6
378.963	5.67
379.329	5.62
379.696	5.72
380.062	5.69
380.429	5.88
380.795	6.03
381.161	5.65
381.528	5.91
381.894	5.79
382.26	6.12
382.626	5.86
382.993	5.77
383.359	6.2
383.725	5.81
384.091	6.14
384.457	6.08
384.823	5.67
385.188	5.77
385.554	6.02
385.92	5.8
386.286	5.97
386.651	6.07
387.017	6.03
387.383	6.15
387.748	6.42
388.114	6.04
388.479	5.81
388.845	6.12
389.21	6.08
389.575	6.18
389.94	6.14
390.306	6.14
390.671	6.3
391.036	6.1
391.401	6.19
391.766	6.22
392.131	6.55
392.496	6.28
392.861	6.24
393.226	6.3
393.591	6.35
393.956	6.4
394.32	6.56
394.685	6.48
395.05	6.64
395.414	6.59
395.779	6.55
396.143	6.48
396.508	6.6
396.872	6.61
397.236	6.51
397.601	6.48
397.965	6.61
398.329	6.68
398.694	6.84
399.058	6.85
399.422	6.76
399.786	6.47
400.15	6.71
400.514	6.68
400.878	6.6
401.242	6.64
401.605	6.92
401.969	6.71
402.333	6.83
402.697	6.82
403.06	7.12
403.424	6.75
403.787	7
404.151	6.93
404.514	6.96
404.878	7.01
405.241	6.97
405.604	6.92
405.968	6.93
406.331	6.8
406.694	6.97
407.057	7.09
407.42	7.24
407.783	7.28
408.146	7.19
408.509	7.12
408.872	7.04
409.235	7.16
409.598	7.36
409.961	7.39
410.323	7.29
410.686	7.38
411.049	7.25
411.411	7.31
411.774	7.19
412.136	7.33
412.499	7.44
412.861	7.51
413.223	7.25
413.586	7.61
413.948	7.82
414.31	7.46
414.672	7.53
415.035	7.65
415.397	7.54
415.759	7.34
416.121	7.52
416.483	7.6
416.845	7.65
417.206	7.39
417.568	7.5
417.93	7.41
418.292	7.41
418.653	7.66
419.015	7.46
419.377	7.59
419.738	7.74
420.1	7.58
420.461	7.54
420.822	7.58
421.184	7.59
421.545	7.65
421.906	7.53
422.267	7.52
422.629	7.45
422.99	7.66
423.351	7.71
423.712	7.59
424.073	7.67
424.434	7.81
424.795	7.77
425.155	7.72
425.516	7.71
425.877	7.88
426.238	7.75
426.598	7.78
426.959	7.8
427.32	7.91
427.68	8.02
428.041	8.21
428.401	7.86
428.761	8.12
429.122	8.04
429.482	8.31
429.842	8.2
430.202	8.38
430.563	8.43
430.923	8.35
431.283	8.31
431.643	8.3
432.003	8.47
432.363	8.3
432.722	8.67
433.082	8.44
433.442	8.43
433.802	8.49
434.161	8.4
434.521	8.48
434.881	8.47
435.24	8.51
435.6	8.56
435.959	8.51
436.319	8.56
436.678	8.7
437.037	8.69
437.396	8.64
437.756	8.7
438.115	8.77
438.474	8.58
438.833	8.65
439.192	8.84
439.551	8.8
439.91	8.81
440.269	8.92
440.628	8.98
440.987	8.83
441.345	8.78
441.704	8.88
442.063	8.88
442.421	8.87
442.78	8.72
443.138	8.81
443.497	8.95
443.855	9.05
444.214	8.93
444.572	9.13
444.93	9.24
445.288	9.09
445.647	9.18
446.005	9.2
446.363	9.16
446.721	9.18
447.079	9.22
447.437	8.97
447.795	9.21
448.153	9.05
448.51	9.16
448.868	9.2
449.226	9.12
449.584	9.2
449.941	9.22
450.299	9.35
450.656	9.48
451.014	9.44
451.371	9.47
451.729	9.39
452.086	9.65
452.443	9.71
452.801	9.72
453.158	9.6
453.515	9.75
453.872	9.59
454.229	9.68
454.586	9.66
454.943	9.8
455.3	9.73
455.657	9.79
456.014	9.91
456.371	9.88
456.727	10.06
457.084	9.66
457.441	10.01
457.797	9.9
458.154	9.87
458.51	9.98
458.867	9.83
459.223	10.11
459.58	9.95
459.936	10.02
460.292	10.16
460.648	10.08
461.005	10.04
461.361	9.84
461.717	9.85
462.073	9.93
462.429	10.03
462.785	10.05
463.141	10.01
463.496	10.24
463.852	10.27
464.208	10.28
464.564	10.42
464.919	10.38
465.275	10.34
465.631	10.58
465.986	10.56
466.342	10.51
466.697	10.49
467.052	10.69
467.408	10.63
467.763	10.5
468.118	10.6
468.473	10.61
468.829	10.68
469.184	10.78
469.539	10.66
469.894	10.78
470.249	10.73
470.603	10.77
470.958	10.67
471.313	10.97
471.668	10.81
472.023	10.76
472.377	10.89
472.732	10.86
473.086	10.78
473.441	10.85
473.795	11.05
474.15	11
474.504	11.14
474.859	11.02
475.213	11.06
475.567	11.11
475.921	11.18
476.275	11.15
476.63	11.15
476.984	11.37
477.338	11.28
477.692	11.02
478.045	11.15
478.399	11.33
478.753	11.15
479.107	11.25
479.461	11.34
479.814	11.1
480.168	11.23
480.521	11.43
480.875	11.39
481.228	11.26
481.582	11.37
481.935	11.3
482.289	11.37
482.642	11.39
482.995	11.39
483.348	11.28
483.701	11.29
484.055	11.3
484.408	11.24
484.761	11.01
485.114	10.78
485.466	10.7
485.819	10.72
486.172	10.79
486.525	10.97
486.878	11.1
487.23	11.22
487.583	11.35
487.936	11.32
488.288	11.35
488.641	11.26
488.993	11.11
489.345	11.13
489.698	11.19
490.05	11.24
490.402	11.26
490.754	11.39
491.107	11.42
491.459	11.64
491.811	11.73
492.163	11.8
492.515	11.71
492.866	11.55
493.218	11.44
493.57	11.36
493.922	11.47
494.274	11.63
494.625	11.82
494.977	12.02
495.328	12.04
495.68	12.18
496.031	12.17
496.383	12.37
496.734	12.23
497.086	12.3
497.437	12.35
497.788	12.28
498.139	12.23
498.49	12.21
498.842	12.23
499.193	12.35
499.544	12.43
499.894	12.44
500.245	12.39
500.596	12.6
500.947	12.45
501.298	12.67
501.648	12.58
501.999	12.67
502.35	12.83
502.7	12.81
503.051	12.85
503.401	12.81
503.752	12.73
504.102	12.8
504.452	13.01
504.803	12.84
505.153	12.91
505.503	12.94
505.853	13
506.203	13.02
506.553	12.86
506.903	12.94
507.253	13.03
507.603	12.99
507.953	13.18
508.303	13.01
508.652	13.14
509.002	13.13
509.352	13.05
509.701	13.17
510.051	13.18
510.4	13.14
510.75	13
511.099	13
511.449	13.11
511.798	13.16
512.147	13.12
512.496	13.1
512.846	13.42
513.195	13.28
513.544	13.29
513.893	13.27
514.242	13.34
514.591	13.41
514.939	13.5
515.288	13.39
515.637	13.52
515.986	13.54
516.334	13.64
516.683	13.68
517.032	13.75
517.38	13.66
517.729	13.68
518.077	13.75
518.426	13.72
518.774	13.58
519.122	13.71
519.47	13.71
519.819	13.65
520.167	13.44
520.515	13.55
520.863	13.59
521.211	13.6
521.559	13.69
521.907	13.69
522.255	13.82
522.602	13.91
522.95	13.92
523.298	14.09
523.645	14.11
523.993	14.16
524.341	14.19
524.688	14.05
525.036	14.26
525.383	14.11
525.73	14.16
526.078	14.05
526.425	14.03
526.772	13.96
527.119	13.9
527.466	13.89
527.814	13.87
528.161	14.08
528.508	13.98
528.854	13.98
529.201	14.05
529.548	13.82
529.895	13.66
530.242	13.55
530.588	13.61
530.935	13.7
531.282	13.81
531.628	13.82
531.975	13.99
532.321	14.19
532.667	14.32
533.014	14.37
533.36	14.4
533.706	14.45
534.052	14.33
534.399	14.27
534.745	14.1
535.091	14.05
535.437	14.09
535.783	14.24
536.129	14.48
536.474	14.55
536.82	14.66
537.166	14.72
537.512	14.72
537.857	14.66
538.203	14.62
538.549	14.52
538.894	14.73
539.239	14.82
539.585	14.88
539.93	14.94
540.276	15.18
540.621	15.29
540.966	15.2
541.311	15.1
541.656	15.13
542.001	15.04
542.346	14.97
542.691	14.63
543.036	14.54
543.381	14.57
543.726	14.6
544.071	14.78
544.415	14.86
544.76	14.94
545.105	14.94
545.449	15.1
545.794	15.33
546.138	15.23
546.483	15.44
546.827	15.46
547.171	15.33
547.516	15.29
547.86	15.54
548.204	15.3
548.548	15.36
548.892	15.47
549.236	15.63
549.58	15.71
549.924	15.8
550.268	15.81
550.612	16.01
550.956	16.16
551.3	16
551.643	16.04
551.987	16.24
552.33	16.42
552.674	16.09
553.017	16.28
553.361	16.31
553.704	16.23
554.048	16.22
554.391	16.22
554.734	16.11
555.077	16.31
555.42	16.28
555.764	16.37
556.107	16.37
556.45	16.5
556.793	16.58
557.135	16.38
557.478	16.54
557.821	16.67
558.164	16.53
558.507	16.5
558.849	16.74
559.192	16.64
559.534	16.64
559.877	16.82
560.219	16.96
560.562	16.76
560.904	16.86
561.246	16.82
561.589	17.05
561.931	16.68
562.273	16.83
562.615	16.9
562.957	16.83
563.299	16.87
563.641	16.75
563.983	16.9
564.325	17.07
564.667	17.14
565.008	17.19
565.35	17.13
565.692	17.06
566.033	17.04
566.375	17.07
566.716	17.24
567.058	17.13
567.399	17.09
567.741	17.18
568.082	17.02
568.423	17.02
568.764	17.18
569.105	17.03
569.447	17.22
569.788	17.43
570.129	17.41
570.47	17.38
570.811	17.33
571.151	17.64
571.492	17.62
571.833	17.35
572.174	17.62
572.514	17.57
572.855	17.61
573.195	17.44
573.536	17.49
573.876	17.6
574.217	17.68
574.557	17.54
574.898	17.57
575.238	17.73
575.578	17.71
575.918	17.84
576.258	17.71
576.598	17.86
576.938	17.81
577.278	17.72
577.618	17.86
577.958	17.84
578.298	18
578.638	18.05
578.977	18.19
579.317	18.2
579.657	18.23
579.996	18.05
580.336	18.09
580.675	18.41
581.014	18.39
581.354	18.35
581.693	18.17
582.032	18.3
582.372	18.48
582.711	18.55
583.05	18.34
583.389	18.44
583.728	18.71
584.067	18.6
584.406	18.51
584.745	18.65
585.083	18.64
585.422	18.28
585.761	18.4
586.1	18.72
586.438	18.75
586.777	18.89
587.115	18.86
587.454	18.75
587.792	18.88
588.13	19.04
588.469	18.68
588.807	18.8
589.145	18.88
589.483	19
589.821	19.1
590.159	18.76
590.497	19.11
590.835	19.12
591.173	19.02
591.511	18.94
591.849	19.05
592.187	19.2
592.524	18.94
592.862	19.09
593.2	19.34
593.537	19.15
593.875	19.38
594.212	19.45
594.55	19.29
594.887	19.3
595.224	19.21
595.561	19.14
595.899	19.17
596.236	19.16
596.573	19.14
596.91	19.25
597.247	19.46
597.584	19.41
597.921	19.5
598.258	19.34
598.594	19.11
598.931	19.02
599.268	19.34
599.604	19.48
599.941	19.46
600.277	19.33
600.614	19.83
600.95	19.21
601.287	19.87
601.623	20.08
601.959	19.73
602.296	19.57
602.632	19.73
602.968	19.84
603.304	20.08
603.64	19.83
603.976	20.02
604.312	19.89
604.648	19.86
604.984	19.84
605.319	19.78
605.655	19.8
605.991	19.6
606.326	19.94
606.662	19.69
606.998	19.57
607.333	19.95
607.668	19.92
608.004	20.1
608.339	20.16
608.674	20.19
609.01	20.3
609.345	20.23
609.68	20.31
610.015	20.1
610.35	20.24
610.685	19.92
611.02	20.19
611.355	20.17
611.689	20.13
612.024	20.32
612.359	20.31
612.694	20.45
613.028	20.35
613.363	20.54
613.697	20.84
614.032	20.57
614.366	20.56
614.7	20.83
615.035	20.52
615.369	20.45
615.703	20.77
616.037	21.01
616.371	21.25
616.705	20.82
617.039	21.16
617.373	20.75
617.707	20.85
618.041	20.79
618.375	20.97
618.709	21.1
619.042	20.91
619.376	20.92
619.71	21.34
620.043	21.05
620.377	21.3
620.71	21.19
621.043	21.11
621.377	21.17
621.71	21.06
622.043	21.3
622.376	21.46
622.709	21.25
623.043	21.31
623.376	21.33
623.709	21.43
624.041	21.72
624.374	21.31
624.707	21.3
625.04	21.34
625.373	21.04
625.705	21.37
626.038	21.53
626.37	21.52
626.703	21.41
627.035	21.65
627.368	21.04
627.7	21.41
628.032	21.68
628.365	21.55
628.697	21.42
629.029	21.47
629.361	21.56
629.693	21.54
630.025	21.71
630.357	21.58
630.689	21.63
631.021	21.53
631.353	22.06
631.684	21.64
632.016	21.69
632.348	21.65
632.679	21.66
633.011	22.2
633.342	22.01
633.674	21.6
634.005	21.84
634.336	21.97
634.668	21.85
634.999	22.13
635.33	22.07
635.661	22.14
635.992	21.87
636.323	21.77
636.654	21.72
636.985	22.08
637.316	22.23
637.647	22.89
637.977	22.59
638.308	22.38
638.639	22.39
638.969	22.46
639.3	22.61
639.63	22.53
639.961	22.14
640.291	22.7
640.622	22.66
640.952	22.46
641.282	22.37
641.612	22.33
641.943	22.93
642.273	22.17
642.603	22.78
642.933	22.89
643.263	22.54
643.592	22.91
643.922	22.55
644.252	22.74
644.582	22.72
644.911	22.45
645.241	23.13
645.571	22.65
645.9	22.82
646.23	22.89
646.559	22.94
646.888	23.05
647.218	23.07
647.547	23.65
647.876	23.06
648.205	22.76
648.534	22.85
648.863	23.17
649.192	22.78
649.521	23.02
649.85	23.45
650.179	23.01
650.508	23.43
650.837	24.17
651.165	23.23
651.494	23.82
651.822	23.12
652.151	22.97
652.479	23.25
652.808	22.74
653.136	22.9
653.465	23.33
653.793	23.57
654.121	23.3
654.449	22.73
654.777	23.67
655.105	22.89
655.433	23.59
655.761	23.84
656.089	24.03
656.417	23.48
656.745	23.38
657.073	23.62
657.4	23.25
657.728	23.63
658.056	23.5
658.383	23.77
658.711	23.59
659.038	23.25
659.365	23.23
659.693	23.62
660.02	24.18
660.347	23.72
660.674	23.94
661.001	23.4
661.329	23.68
661.656	23.85
661.982	23.93
662.309	23.65
662.636	24.02
662.963	23.56
663.29	23.78
663.616	23.59
663.943	23.76
664.27	24.27
664.596	24.3
664.923	23.72
665.249	24.69
665.576	24.62
665.902	23.93
666.228	24.8
666.554	24.13
666.881	24.36
667.207	24.93
667.533	24.64
667.859	24.8
668.185	24.52
668.511	24.34
668.837	24.42
669.162	24.16
669.488	24.28
669.814	24.43
670.139	24.69
670.465	24.44
670.791	24.34
671.116	24.45
671.442	24.76
671.767	24.28
672.092	24.22
672.418	24.57
672.743	24.16
673.068	24.86
673.393	25.03
673.718	24.87
674.043	24.75
674.368	25.15
674.693	24.19
675.018	24.7
675.343	24.43
675.667	25.23
675.992	25.49
676.317	25.17
676.641	24.7
676.966	25.39
677.29	25.05
