Data from 20-11_forehead_Reflection__3__58.txt Node

Date: Fri Nov 11 20:37:47 CST 2022
User: ToomeyLab
Spectrometer: FLMS14357
Trigger mode: 0
Integration Time (sec): 1.000000E-2
Scans to average: 100
Electric dark correction enabled: true
Nonlinearity correction enabled: false
Boxcar width: 0
XAxis mode: Wavelengths
Number of Pixels in Spectrum: 2048
>>>>>Begin Spectral Data<<<<<
189.047	-600
189.435	-600
189.823	-600
190.211	-95.15
190.599	-67.65
190.987	212.38
191.375	11400
191.763	961.9
192.151	40.24
192.538	-70.93
192.926	182.68
193.314	394.49
193.702	315.19
194.089	151.4
194.477	16.78
194.864	155.2
195.252	138.91
195.639	-10.89
196.027	-121.41
196.414	-424.5
196.801	-345.65
197.189	88.63
197.576	45.35
197.963	12.7
198.351	0.47
198.738	-12
199.125	1.43
199.512	55.78
199.899	-19.49
200.286	20.78
200.673	33.72
201.06	81.46
201.447	17.04
201.833	84.02
202.22	-1.45
202.607	6.83
202.994	31.76
203.38	31.96
203.767	42.4
204.154	14.7
204.54	48.74
204.927	47.41
205.313	17.54
205.699	-26.41
206.086	55.68
206.472	51.03
206.858	55.49
207.245	35.21
207.631	49.08
208.017	42.94
208.403	22.48
208.789	38.14
209.175	16.98
209.561	62.2
209.947	1.32
210.333	45.04
210.719	40.87
211.105	43.03
211.491	28.6
211.876	26.91
212.262	39.89
212.648	15.6
213.034	9.85
213.419	-26.38
213.805	33.08
214.19	26.59
214.576	26.37
214.961	17.97
215.346	39.66
215.732	-19.63
216.117	36.32
216.502	-1.01
216.888	0.47
217.273	25.09
217.658	1.15
218.043	16.13
218.428	-15.16
218.813	6.33
219.198	24.4
219.583	42.44
219.968	15.3
220.353	-22.65
220.738	7.6
221.122	29.66
221.507	-9.32
221.892	5.52
222.276	18.01
222.661	14.07
223.046	-9.41
223.43	3.07
223.815	1.9
224.199	12.87
224.583	11.64
224.968	4.98
225.352	7.59
225.736	2.34
226.121	4.78
226.505	1.33
226.889	-7.49
227.273	9.64
227.657	0.38
228.041	-2.33
228.425	4.92
228.809	3.65
229.193	7.19
229.577	4.38
229.961	3.46
230.344	2.99
230.728	1.1
231.112	0.95
231.495	2.11
231.879	1.08
232.263	3.18
232.646	0.27
233.03	2.44
233.413	2.12
233.797	1.64
234.18	1.65
234.563	2.37
234.946	1.41
235.33	2.42
235.713	2.26
236.096	1.57
236.479	1.75
236.862	4.67
237.245	3.83
237.628	2.04
238.011	2.41
238.394	4.18
238.777	2.84
239.16	4.97
239.543	2.12
239.925	2.86
240.308	2.58
240.691	4.32
241.073	1.53
241.456	-0.06
241.838	3.56
242.221	1.89
242.603	1.56
242.986	2.01
243.368	2.46
243.75	2.03
244.133	2.31
244.515	1.69
244.897	2
245.279	1.56
245.661	2.24
246.043	1.77
246.425	3.19
246.807	3.3
247.189	1.43
247.571	1.82
247.953	1.53
248.335	1.87
248.717	2.07
249.098	1.95
249.48	1.62
249.862	2.26
250.243	1.98
250.625	1.83
251.006	3.16
251.388	2.32
251.769	2.34
252.151	3.08
252.532	2.69
252.913	2.23
253.295	2.1
253.676	1.46
254.057	1.27
254.438	1.79
254.819	1.6
255.2	2.81
255.581	1.28
255.962	1.67
256.343	1.71
256.724	2.1
257.105	1.57
257.486	0.87
257.867	2.94
258.247	2.02
258.628	2.1
259.009	1.79
259.389	1.24
259.77	2.28
260.15	1.82
260.531	1.84
260.911	1.78
261.292	1.95
261.672	1.55
262.052	1.58
262.432	1.73
262.813	2.26
263.193	1.52
263.573	1.84
263.953	3.05
264.333	1.82
264.713	1.68
265.093	2.24
265.473	1.53
265.853	2.3
266.233	1.94
266.612	1.6
266.992	1.26
267.372	2.43
267.752	2.08
268.131	1.4
268.511	2.19
268.89	1.58
269.27	1.77
269.649	1.71
270.029	2.17
270.408	1.84
270.787	1.85
271.167	1.27
271.546	1.83
271.925	2.28
272.304	1.64
272.683	1.49
273.062	1.42
273.441	1.86
273.82	1.7
274.199	1.41
274.578	1.42
274.957	2.21
275.336	2.13
275.715	2.17
276.093	1.4
276.472	1.66
276.851	1.86
277.229	1.71
277.608	1.98
277.986	1.89
278.365	1.9
278.743	2
279.122	2.09
279.5	2.39
279.878	1.63
280.257	1.99
280.635	1.9
281.013	2.16
281.391	1.42
281.769	2.02
282.147	1.94
282.525	0.88
282.903	1.76
283.281	1.87
283.659	1.96
284.037	1.95
284.415	1.7
284.792	1.83
285.17	1.7
285.548	1.62
285.925	1.34
286.303	1.81
286.68	1.8
287.058	1.84
287.435	1.53
287.813	2.02
288.19	1.06
288.567	1.76
288.945	1.66
289.322	2.12
289.699	1.48
290.076	2.62
290.453	2.04
290.83	1.77
291.207	1.75
291.584	1.99
291.961	1.96
292.338	1.88
292.715	2.11
293.092	2.2
293.469	1.61
293.845	2.38
294.222	1.79
294.599	2.11
294.975	2.21
295.352	2.18
295.728	1.71
296.105	2.17
296.481	1.73
296.858	1.7
297.234	2.38
297.61	1.62
297.986	1.99
298.363	2.15
298.739	2.13
299.115	2.26
299.491	2.2
299.867	2.03
300.243	2.29
300.619	2.07
300.995	2.43
301.371	2.73
301.746	2.67
302.122	2.65
302.498	2.45
302.874	2.59
303.249	2.37
303.625	2.37
304	2.12
304.376	2.25
304.751	2.33
305.127	2.42
305.502	2.42
305.878	2.79
306.253	2.55
306.628	2.24
307.003	2.7
307.378	3.13
307.754	3.1
308.129	2.91
308.504	3.2
308.879	3.43
309.254	3.36
309.629	2.67
310.003	2.58
310.378	3.01
310.753	3.17
311.128	3.3
311.502	3.22
311.877	2.93
312.252	2.77
312.626	2.99
313.001	3.04
313.375	3.16
313.75	3.42
314.124	3.37
314.498	3.26
314.873	2.96
315.247	3.14
315.621	3.75
315.995	3.75
316.369	3.74
316.743	3.72
317.117	3.52
317.491	3.08
317.865	3.16
318.239	3.55
318.613	3.93
318.987	3.68
319.361	3.56
319.734	3.5
320.108	3.47
320.482	4.25
320.855	3.78
321.229	3.64
321.602	4
321.976	3.7
322.349	4.01
322.723	4.02
323.096	3.96
323.469	4.21
323.843	4.26
324.216	4.03
324.589	4.26
324.962	4.65
325.335	4.29
325.708	4.77
326.081	4.02
326.454	3.94
326.827	4.19
327.2	4.36
327.573	5.22
327.945	3.86
328.318	4.45
328.691	4.61
329.063	4.86
329.436	4.2
329.809	4.31
330.181	4.16
330.553	4.02
330.926	4.51
331.298	4.64
331.671	4.77
332.043	4.48
332.415	4.6
332.787	4.3
333.159	4.96
333.532	4.74
333.904	5.2
334.276	4.62
334.648	4.78
335.02	4.47
335.391	5.08
335.763	5.33
336.135	4.94
336.507	4.92
336.879	4.8
337.25	5.1
337.622	5.23
337.993	5.33
338.365	5.24
338.736	4.95
339.108	5.27
339.479	5.38
339.851	4.95
340.222	5.03
340.593	5.39
340.964	5.32
341.336	5.67
341.707	5.13
342.078	5.06
342.449	5.2
342.82	5.8
343.191	5.72
343.562	5.48
343.933	5.56
344.303	5.61
344.674	5.46
345.045	5.51
345.416	5.82
345.786	5.46
346.157	5.33
346.527	5.71
346.898	5.09
347.268	5.12
347.639	5.47
348.009	5.67
348.38	6.35
348.75	5.94
349.12	6.03
349.49	5.78
349.861	5.59
350.231	6.01
350.601	5.96
350.971	6.37
351.341	6.02
351.711	5.96
352.081	6.14
352.45	6.22
352.82	6
353.19	6.19
353.56	6.1
353.929	6.24
354.299	6.46
354.669	6.35
355.038	6.38
355.408	6.39
355.777	6.25
356.147	6.43
356.516	6.71
356.885	6.56
357.254	6.24
357.624	6.05
357.993	6.8
358.362	6.44
358.731	6.15
359.1	6.41
359.469	6.29
359.838	6.26
360.207	6.58
360.576	6.65
360.945	6.79
361.314	6.62
361.682	6.47
362.051	6.56
362.42	7.01
362.788	6.93
363.157	6.77
363.525	6.71
363.894	6.57
364.262	6.86
364.631	7.2
364.999	7.34
365.367	6.97
365.735	6.99
366.104	7.27
366.472	6.87
366.84	6.89
367.208	7.08
367.576	7.3
367.944	7.6
368.312	7.12
368.68	7.18
369.048	7.42
369.416	7.37
369.783	7.59
370.151	7.53
370.519	7.71
370.886	7.7
371.254	7.5
371.621	7.27
371.989	7.51
372.356	7.91
372.724	8
373.091	7.83
373.458	7.53
373.826	7.52
374.193	7.49
374.56	7.74
374.927	7.92
375.294	8.05
375.661	7.91
376.028	7.86
376.395	7.75
376.762	8.23
377.129	7.98
377.496	7.84
377.863	8.04
378.229	8.23
378.596	7.83
378.963	8.27
379.329	8.29
379.696	8.22
380.062	8.26
380.429	8.49
380.795	8.44
381.161	8.6
381.528	8.17
381.894	8.48
382.26	8.57
382.626	8.36
382.993	8.36
383.359	8.49
383.725	8.47
384.091	8.62
384.457	8.62
384.823	8.59
385.188	8.84
385.554	8.81
385.92	8.47
386.286	8.43
386.651	8.62
387.017	8.67
387.383	8.75
387.748	8.66
388.114	8.97
388.479	8.61
388.845	8.77
389.21	8.91
389.575	9.09
389.94	8.99
390.306	8.69
390.671	9.07
391.036	9.09
391.401	9.15
391.766	9.16
392.131	9.27
392.496	9.27
392.861	9.28
393.226	9.2
393.591	9.02
393.956	9.21
394.32	9.46
394.685	9.37
395.05	9.41
395.414	9.41
395.779	9.31
396.143	9.22
396.508	9.47
396.872	9.41
397.236	9.51
397.601	9.69
397.965	9.9
398.329	9.66
398.694	9.76
399.058	9.9
399.422	9.85
399.786	9.84
400.15	9.99
400.514	9.91
400.878	9.86
401.242	9.84
401.605	10.24
401.969	9.99
402.333	9.89
402.697	10.13
403.06	10.29
403.424	9.8
403.787	10.15
404.151	10.18
404.514	10.29
404.878	10.11
405.241	10.02
405.604	10.15
405.968	10.19
406.331	10.17
406.694	10.29
407.057	10.12
407.42	10.35
407.783	10.45
408.146	10.46
408.509	10.43
408.872	10.36
409.235	10.5
409.598	10.66
409.961	10.63
410.323	10.56
410.686	10.82
411.049	10.68
411.411	10.92
411.774	10.61
412.136	10.62
412.499	10.78
412.861	10.8
413.223	10.64
413.586	10.97
413.948	11.05
414.31	11.03
414.672	10.95
415.035	10.79
415.397	10.85
415.759	10.85
416.121	11.18
416.483	10.95
416.845	11.1
417.206	10.97
417.568	11.17
417.93	11
418.292	11.08
418.653	11.11
419.015	11.36
419.377	11.12
419.738	11.17
420.1	11.26
420.461	11.2
420.822	11.21
421.184	11.28
421.545	11.27
421.906	11.25
422.267	11.11
422.629	11.15
422.99	11.21
423.351	11.21
423.712	11.34
424.073	11.42
424.434	11.56
424.795	11.63
425.155	11.47
425.516	11.58
425.877	11.53
426.238	11.52
426.598	11.48
426.959	11.68
427.32	11.81
427.68	11.82
428.041	11.98
428.401	11.92
428.761	12.13
429.122	12.09
429.482	12.3
429.842	12.36
430.202	12.31
430.563	12.4
430.923	12.46
431.283	12.27
431.643	12.37
432.003	12.38
432.363	12.43
432.722	12.58
433.082	12.72
433.442	12.58
433.802	12.8
434.161	12.64
434.521	12.53
434.881	12.76
435.24	12.57
435.6	12.68
435.959	12.72
436.319	12.8
436.678	12.84
437.037	12.93
437.396	12.89
437.756	12.87
438.115	13.03
438.474	13.08
438.833	13.16
439.192	13.08
439.551	13.11
439.91	13.23
440.269	13.32
440.628	13.28
440.987	13.28
441.345	13.32
441.704	13.2
442.063	13.29
442.421	13.14
442.78	13.2
443.138	13.4
443.497	13.39
443.855	13.5
444.214	13.52
444.572	13.59
444.93	13.76
445.288	13.71
445.647	13.84
446.005	13.78
446.363	13.74
446.721	13.69
447.079	13.7
447.437	13.62
447.795	13.63
448.153	13.65
448.51	13.73
448.868	13.77
449.226	13.87
449.584	13.88
449.941	13.95
450.299	13.91
450.656	14.13
451.014	14.21
451.371	14.13
451.729	14.22
452.086	14.32
452.443	14.26
452.801	14.56
453.158	14.44
453.515	14.62
453.872	14.38
454.229	14.68
454.586	14.56
454.943	14.64
455.3	14.84
455.657	14.63
456.014	14.75
456.371	14.84
456.727	15.06
457.084	14.72
457.441	15.09
457.797	15.03
458.154	14.92
458.51	15.06
458.867	14.91
459.223	15.04
459.58	15.1
459.936	15.03
460.292	15.15
460.648	15.05
461.005	15.01
461.361	14.87
461.717	14.9
462.073	15.02
462.429	15.01
462.785	15.12
463.141	15.11
463.496	15.32
463.852	15.43
464.208	15.63
464.564	15.58
464.919	15.57
465.275	15.62
465.631	15.74
465.986	15.91
466.342	15.81
466.697	15.75
467.052	15.9
467.408	15.75
467.763	15.84
468.118	15.99
468.473	16.04
468.829	16.02
469.184	16.03
469.539	16.11
469.894	16.12
470.249	16.31
470.603	16.27
470.958	16.21
471.313	16.37
471.668	16.39
472.023	16.26
472.377	16.58
472.732	16.43
473.086	16.37
473.441	16.59
473.795	16.38
474.15	16.59
474.504	16.56
474.859	16.58
475.213	16.64
475.567	16.58
475.921	16.74
476.275	16.68
476.63	16.94
476.984	16.88
477.338	17.01
477.692	16.74
478.045	16.81
478.399	17.02
478.753	16.76
479.107	17
479.461	16.91
479.814	16.94
480.168	17.04
480.521	17.11
480.875	17.03
481.228	17.06
481.582	17.16
481.935	17.1
482.289	17.14
482.642	17.18
482.995	17.05
483.348	17.06
483.701	17.06
484.055	17
484.408	16.91
484.761	16.72
485.114	16.47
485.466	16.38
485.819	16.4
486.172	16.43
486.525	16.68
486.878	16.79
487.23	16.86
487.583	16.97
487.936	17.07
488.288	17.11
488.641	16.97
488.993	16.93
489.345	16.83
489.698	16.94
490.05	16.97
490.402	17.05
490.754	17.19
491.107	17.31
491.459	17.48
491.811	17.73
492.163	17.77
492.515	17.64
492.866	17.44
493.218	17.27
493.57	17.22
493.922	17.44
494.274	17.51
494.625	17.71
494.977	18.03
495.328	18.2
495.68	18.24
496.031	18.39
496.383	18.35
496.734	18.49
497.086	18.66
497.437	18.61
497.788	18.54
498.139	18.38
498.49	18.39
498.842	18.35
499.193	18.59
499.544	18.65
499.894	18.49
500.245	18.74
500.596	18.88
500.947	18.78
501.298	18.95
501.648	18.9
501.999	18.97
502.35	19.12
502.7	19.14
503.051	19.12
503.401	19.29
503.752	19.22
504.102	19.2
504.452	19.46
504.803	19.28
505.153	19.4
505.503	19.44
505.853	19.55
506.203	19.36
506.553	19.52
506.903	19.36
507.253	19.58
507.603	19.65
507.953	19.7
508.303	19.56
508.652	19.64
509.002	19.7
509.352	19.72
509.701	19.75
510.051	19.63
510.4	19.64
510.75	19.64
511.099	19.68
511.449	19.6
511.798	19.78
512.147	19.75
512.496	19.88
512.846	19.94
513.195	19.89
513.544	19.97
513.893	19.92
514.242	19.91
514.591	20.02
514.939	20.15
515.288	20.26
515.637	20.31
515.986	20.38
516.334	20.42
516.683	20.43
517.032	20.39
517.38	20.42
517.729	20.51
518.077	20.5
518.426	20.6
518.774	20.5
519.122	20.5
519.47	20.43
519.819	20.34
520.167	20.21
520.515	20.19
520.863	20.47
521.211	20.42
521.559	20.45
521.907	20.66
522.255	20.77
522.602	20.77
522.95	20.99
523.298	21
523.645	21.1
523.993	21.02
524.341	21.24
524.688	21.15
525.036	21.26
525.383	21.26
525.73	21.26
526.078	21.31
526.425	21.1
526.772	21.09
527.119	20.94
527.466	20.83
527.814	20.96
528.161	21.07
528.508	21.01
528.854	20.99
529.201	21.03
529.548	20.87
529.895	20.59
530.242	20.58
530.588	20.63
530.935	20.78
531.282	20.89
531.628	20.91
531.975	21.14
532.321	21.31
532.667	21.44
533.014	21.51
533.36	21.56
533.706	21.73
534.052	21.55
534.399	21.45
534.745	21.26
535.091	21.21
535.437	21.34
535.783	21.48
536.129	21.64
536.474	21.86
536.82	21.85
537.166	21.95
537.512	21.99
537.857	21.98
538.203	21.93
538.549	22.01
538.894	22.04
539.239	22.08
539.585	22.36
539.93	22.41
540.276	22.71
540.621	22.65
540.966	22.75
541.311	22.72
541.656	22.6
542.001	22.46
542.346	22.37
542.691	22.09
543.036	21.96
543.381	21.98
543.726	22.09
544.071	22.32
544.415	22.26
544.76	22.42
545.105	22.56
545.449	22.58
545.794	22.81
546.138	22.8
546.483	23.02
546.827	23.15
547.171	23.13
547.516	23.04
547.86	23.12
548.204	23.02
548.548	23.18
548.892	23.17
549.236	23.26
549.58	23.51
549.924	23.58
550.268	23.71
550.612	23.81
550.956	23.97
551.3	23.97
551.643	23.95
551.987	24.21
552.33	23.96
552.674	24.32
553.017	24.31
553.361	24.32
553.704	24.29
554.048	24.03
554.391	24.13
554.734	24.07
555.077	24.22
555.42	24.18
555.764	24.53
556.107	24.54
556.45	24.56
556.793	24.62
557.135	24.69
557.478	24.67
557.821	24.66
558.164	24.77
558.507	24.98
558.849	24.84
559.192	24.96
559.534	24.86
559.877	25
560.219	25.08
560.562	25
560.904	25.01
561.246	25.09
561.589	25.26
561.931	24.98
562.273	25.13
562.615	25.03
562.957	25.08
563.299	25.19
563.641	25.05
563.983	25.24
564.325	25.23
564.667	25.73
565.008	25.68
565.35	25.64
565.692	25.17
566.033	25.49
566.375	25.58
566.716	25.65
567.058	25.57
567.399	25.51
567.741	25.46
568.082	25.64
568.423	25.45
568.764	25.73
569.105	25.76
569.447	25.86
569.788	25.71
570.129	25.83
570.47	25.83
570.811	26.01
571.151	26.09
571.492	25.8
571.833	26.09
572.174	26.16
572.514	26.16
572.855	26.06
573.195	25.99
573.536	26.16
573.876	26.1
574.217	26.25
574.557	26.11
574.898	26.24
575.238	26.46
575.578	26.48
575.918	26.46
576.258	26.51
576.598	26.53
576.938	26.5
577.278	26.53
577.618	26.7
577.958	26.54
578.298	26.76
578.638	26.86
578.977	26.95
579.317	26.76
579.657	27.14
579.996	27.02
580.336	26.95
580.675	27.05
581.014	27.24
581.354	27.16
581.693	27.16
582.032	27.15
582.372	27.59
582.711	27.52
583.05	27.63
583.389	27.42
583.728	27.67
584.067	27.55
584.406	27.43
584.745	27.56
585.083	27.83
585.422	27.51
585.761	27.54
586.1	27.78
586.438	27.56
586.777	27.98
587.115	27.89
587.454	27.68
587.792	27.84
588.13	27.98
588.469	27.75
588.807	28
589.145	28.39
589.483	28.22
589.821	28.41
590.159	28.34
590.497	28.43
590.835	28.26
591.173	28.31
591.511	28.15
591.849	28.32
592.187	28.35
592.524	28.12
592.862	28.1
593.2	28.54
593.537	28.74
593.875	28.77
594.212	28.52
594.55	28.59
594.887	28.47
595.224	28.58
595.561	28.42
595.899	28.63
596.236	28.56
596.573	28.73
596.91	28.8
597.247	28.85
597.584	28.69
597.921	28.85
598.258	28.53
598.594	28.64
598.931	28.45
599.268	28.8
599.604	28.9
599.941	28.67
600.277	29.07
600.614	29.24
600.95	28.88
601.287	29.14
601.623	29.42
601.959	29.1
602.296	29.31
602.632	29.54
602.968	29.27
603.304	29.5
603.64	29.34
603.976	29.6
604.312	29.34
604.648	29.31
604.984	29.43
605.319	29.48
605.655	29.43
605.991	29.14
606.326	29.59
606.662	29.2
606.998	29.13
607.333	29.5
607.668	29.52
608.004	29.68
608.339	29.73
608.674	29.91
609.01	30.32
609.345	29.89
609.68	30.15
610.015	30.09
610.35	29.73
610.685	30.1
611.02	30.06
611.355	30.11
611.689	30.03
612.024	29.77
612.359	29.83
612.694	29.93
613.028	30.18
613.363	30.18
613.697	30.66
614.032	30.48
614.366	30.33
614.7	30.28
615.035	30.57
615.369	30.43
615.703	30.63
616.037	30.65
616.371	30.68
616.705	30.65
617.039	30.83
617.373	30.53
617.707	30.69
618.041	30.78
618.375	30.59
618.709	30.87
619.042	30.78
619.376	30.74
619.71	31.28
620.043	31.1
620.377	31.09
620.71	30.99
621.043	30.92
621.377	31.06
621.71	31.26
622.043	31.32
622.376	31.11
622.709	30.92
623.043	31.56
623.376	31.5
623.709	31.15
624.041	31.31
624.374	31.21
624.707	31.69
625.04	31.54
625.373	31.26
625.705	31.12
626.038	31.53
626.37	31.53
626.703	31.45
627.035	31.49
627.368	31.28
627.7	31.6
628.032	31.9
628.365	31.59
628.697	31.57
629.029	31.55
629.361	31.65
629.693	31.76
630.025	31.63
630.357	32.05
630.689	32.09
631.021	31.66
631.353	32.11
631.684	32.09
632.016	31.7
632.348	32.17
632.679	32.1
633.011	32.4
633.342	32.84
633.674	32.41
634.005	32.44
634.336	31.85
634.668	32.38
634.999	32.22
635.33	32.23
635.661	32.37
635.992	32.15
636.323	32.44
636.654	32.48
636.985	32.26
637.316	32.69
637.647	32.96
637.977	32.28
638.308	32.62
638.639	32.76
638.969	32.95
639.3	32.8
639.63	32.99
639.961	32.84
640.291	32.79
640.622	33.21
640.952	33.12
641.282	32.76
641.612	32.6
641.943	33.17
642.273	33.46
642.603	33.23
642.933	33.03
643.263	32.8
643.592	33.29
643.922	32.95
644.252	33.55
644.582	33.37
644.911	33.22
645.241	33.19
645.571	33.21
645.9	33.39
646.23	33.56
646.559	33.45
646.888	33.74
647.218	33.56
647.547	33.62
647.876	33.68
648.205	34.43
648.534	34.15
648.863	33.73
649.192	33.48
649.521	33.63
649.85	33.77
650.179	33.63
650.508	33.71
650.837	34.19
651.165	33.74
651.494	34.29
651.822	33.99
652.151	33.94
652.479	33.6
652.808	33.66
653.136	33.7
653.465	34.34
653.793	34.45
654.121	33.91
654.449	33.56
654.777	34.47
655.105	34.1
655.433	34.01
655.761	34.6
656.089	34.53
656.417	34.45
656.745	34.64
657.073	34.6
657.4	34.11
657.728	34.39
658.056	34.56
658.383	34.05
658.711	34.61
659.038	34.21
659.365	34.68
659.693	34.34
660.02	34.92
660.347	34.85
660.674	34.44
661.001	34.35
661.329	34.1
661.656	34.66
661.982	35.12
662.309	34.62
662.636	34.72
662.963	34.34
663.29	34.81
663.616	34.36
663.943	35.24
664.27	35.23
664.596	34.77
664.923	35.49
665.249	35.03
665.576	35.64
665.902	35.48
666.228	35.36
666.554	34.96
666.881	34.91
667.207	35.39
667.533	35.48
667.859	35.47
668.185	35.8
668.511	35.24
668.837	35.85
669.162	35.12
669.488	35.35
669.814	35.28
670.139	35.18
670.465	35.67
670.791	35.24
671.116	35.46
671.442	36.06
671.767	36.03
672.092	35.58
672.418	35.46
672.743	35.19
673.068	35.81
673.393	36.84
673.718	35.61
674.043	35.76
674.368	36.16
