Data from 20-11_chest_Reflection__4__49.txt Node

Date: Fri Nov 11 20:35:15 CST 2022
User: ToomeyLab
Spectrometer: FLMS14357
Trigger mode: 0
Integration Time (sec): 1.000000E-2
Scans to average: 100
Electric dark correction enabled: true
Nonlinearity correction enabled: false
Boxcar width: 0
XAxis mode: Wavelengths
Number of Pixels in Spectrum: 2048
>>>>>Begin Spectral Data<<<<<
189.047	-1836.26
189.435	-1836.26
189.823	-1836.26
190.211	148.24
190.599	241.94
190.987	-170.59
191.375	63233.33
191.763	653.74
192.151	-5.97
192.538	-78.95
192.926	122.22
193.314	297.13
193.702	-65.65
194.089	-166.73
194.477	58.29
194.864	107.66
195.252	-5.04
195.639	26.82
196.027	-157.48
196.414	-336.2
196.801	-304.94
197.189	96.4
197.576	-3.61
197.963	43.32
198.351	-71.1
198.738	-32.11
199.125	18.09
199.512	22.59
199.899	-215.95
200.286	40.22
200.673	44.33
201.06	68.1
201.447	51
201.833	0.69
202.22	-35.48
202.607	22.23
202.994	11.78
203.38	11.72
203.767	28.33
204.154	35.16
204.54	-19.82
204.927	9.39
205.313	13.33
205.699	-28.03
206.086	60.09
206.472	27.54
206.858	14.93
207.245	28.24
207.631	-1.96
208.017	5.84
208.403	-6.82
208.789	14.83
209.175	-19.52
209.561	28.74
209.947	5.41
210.333	39.66
210.719	13.61
211.105	30.17
211.491	46.93
211.876	11.22
212.262	28.66
212.648	-1.12
213.034	-9.34
213.419	-8.02
213.805	-3.78
214.19	-16.17
214.576	4.08
214.961	-17.98
215.346	-22.77
215.732	5.19
216.117	31.54
216.502	-9.33
216.888	18.02
217.273	-10.13
217.658	-27.3
218.043	6.44
218.428	-16.38
218.813	18.59
219.198	-5.5
219.583	11.8
219.968	9.37
220.353	-11.08
220.738	-15.31
221.122	10.12
221.507	-7.95
221.892	11.94
222.276	15.23
222.661	29.23
223.046	3.39
223.43	-3.81
223.815	11.88
224.199	2.42
224.583	4.1
224.968	-3.5
225.352	5.84
225.736	2.04
226.121	1.58
226.505	4.77
226.889	-4.98
227.273	5.55
227.657	0.61
228.041	6.03
228.425	5.91
228.809	4.37
229.193	10.7
229.577	8.49
229.961	8.09
230.344	6.9
230.728	5.78
231.112	4.65
231.495	5.37
231.879	5.9
232.263	5.69
232.646	4.37
233.03	5.32
233.413	6.62
233.797	4.87
234.18	5.56
234.563	4.89
234.946	6.07
235.33	3.66
235.713	4.47
236.096	4.91
236.479	6.28
236.862	7.08
237.245	5.52
237.628	6.12
238.011	5.26
238.394	5.68
238.777	5.66
239.16	6.1
239.543	4.08
239.925	7.27
240.308	6.71
240.691	6.11
241.073	4.62
241.456	4.97
241.838	6.55
242.221	5.29
242.603	6.07
242.986	4.62
243.368	5.6
243.75	4.98
244.133	5.06
244.515	4.88
244.897	5.46
245.279	4.62
245.661	4.74
246.043	4.42
246.425	6.02
246.807	4.92
247.189	4.71
247.571	5.02
247.953	4.78
248.335	5.18
248.717	5.16
249.098	5.1
249.48	4.78
249.862	5.12
250.243	4.89
250.625	4.87
251.006	5.64
251.388	4.97
251.769	4.82
252.151	4.4
252.532	4.35
252.913	6.04
253.295	4.79
253.676	4.34
254.057	4.51
254.438	5.09
254.819	4.64
255.2	4.82
255.581	5.41
255.962	3.88
256.343	4.81
256.724	4.85
257.105	5.07
257.486	4.66
257.867	5.31
258.247	3.31
258.628	4.84
259.009	4.81
259.389	4.43
259.77	5.55
260.15	4.72
260.531	4.59
260.911	4.6
261.292	4.7
261.672	4.3
262.052	4.48
262.432	4.76
262.813	4.68
263.193	4.17
263.573	4.24
263.953	4.99
264.333	4.56
264.713	3.98
265.093	4.83
265.473	3.8
265.853	4.71
266.233	4.9
266.612	4.2
266.992	4.39
267.372	5.01
267.752	4.75
268.131	4.35
268.511	4.84
268.89	3.77
269.27	4.55
269.649	4.34
270.029	4.87
270.408	4.45
270.787	4.25
271.167	4.43
271.546	4.69
271.925	4.73
272.304	4.3
272.683	4.45
273.062	4.42
273.441	4.85
273.82	4.66
274.199	3.92
274.578	4.17
274.957	4.93
275.336	4.9
275.715	4.16
276.093	3.63
276.472	4.26
276.851	4.19
277.229	4.67
277.608	4.02
277.986	4.15
278.365	3.84
278.743	4.22
279.122	4.99
279.5	4.36
279.878	3.98
280.257	4.48
280.635	4.06
281.013	4.23
281.391	3.94
281.769	4.24
282.147	4.12
282.525	3.99
282.903	3.67
283.281	4.47
283.659	4.38
284.037	3.98
284.415	4.09
284.792	4.4
285.17	4.22
285.548	4.49
285.925	3.8
286.303	3.86
286.68	4.41
287.058	4.34
287.435	4.29
287.813	4.22
288.19	3.72
288.567	4.24
288.945	4.46
289.322	5.07
289.699	4
290.076	4.45
290.453	4.24
290.83	4.35
291.207	4.46
291.584	4
291.961	4.33
292.338	4.05
292.715	4.36
293.092	4.31
293.469	3.77
293.845	4.2
294.222	3.34
294.599	4.61
294.975	3.74
295.352	4.2
295.728	4.03
296.105	4.09
296.481	3.9
296.858	4.39
297.234	4.4
297.61	3.95
297.986	4.24
298.363	4.31
298.739	4.01
299.115	4.09
299.491	4.29
299.867	3.93
300.243	4.03
300.619	4.04
300.995	3.79
301.371	4.44
301.746	4.49
302.122	4.02
302.498	4.22
302.874	4.16
303.249	3.63
303.625	3.66
304	3.85
304.376	3.97
304.751	4.06
305.127	3.74
305.502	4.35
305.878	3.84
306.253	3.65
306.628	3.93
307.003	4.26
307.378	3.91
307.754	4.49
308.129	4.16
308.504	4.08
308.879	4.43
309.254	4.09
309.629	4.08
310.003	3.98
310.378	3.94
310.753	4.5
311.128	4.73
311.502	4.13
311.877	4.07
312.252	4.18
312.626	4.02
313.001	3.78
313.375	3.92
313.75	3.94
314.124	3.71
314.498	4.02
314.873	3.82
315.247	3.98
315.621	4.39
315.995	4.34
316.369	4.02
316.743	3.92
317.117	3.69
317.491	3.78
317.865	3.65
318.239	4.09
318.613	4.26
318.987	3.9
319.361	4.01
319.734	4.07
320.108	4.11
320.482	4.09
320.855	3.64
321.229	3.59
321.602	3.34
321.976	3.88
322.349	4.35
322.723	4.44
323.096	3.93
323.469	4.11
323.843	4
324.216	3.7
324.589	4.21
324.962	4.41
325.335	3.83
325.708	4.34
326.081	3.9
326.454	3.82
326.827	3.99
327.2	4.34
327.573	4.51
327.945	3.93
328.318	4.06
328.691	4.34
329.063	4.16
329.436	3.9
329.809	3.5
330.181	3.83
330.553	3.29
330.926	4.46
331.298	3.89
331.671	3.54
332.043	3.14
332.415	3.9
332.787	3.98
333.159	3.51
333.532	4.28
333.904	4.63
334.276	3.62
334.648	3.62
335.02	4.27
335.391	4.41
335.763	3.92
336.135	4.16
336.507	3.75
336.879	3.96
337.25	3.66
337.622	3.97
337.993	4
338.365	4.17
338.736	3.95
339.108	4.18
339.479	3.8
339.851	4.34
340.222	3.95
340.593	4.27
340.964	3.88
341.336	3.89
341.707	3.64
342.078	3.56
342.449	4.2
342.82	4.09
343.191	4.21
343.562	4.09
343.933	3.98
344.303	3.87
344.674	4.19
345.045	3.87
345.416	4.21
345.786	3.7
346.157	3.78
346.527	4.12
346.898	3.58
347.268	3.88
347.639	3.89
348.009	3.5
348.38	4.06
348.75	3.61
349.12	4.23
349.49	4.12
349.861	3.85
350.231	4.06
350.601	3.92
350.971	3.98
351.341	4.15
351.711	4.05
352.081	4.21
352.45	4.11
352.82	3.72
353.19	4.2
353.56	4.15
353.929	3.99
354.299	3.97
354.669	3.83
355.038	3.51
355.408	4.1
355.777	4.33
356.147	4.21
356.516	4.01
356.885	4.01
357.254	3.83
357.624	3.74
357.993	3.89
358.362	3.85
358.731	3.54
359.1	4.04
359.469	3.49
359.838	3.67
360.207	4.12
360.576	3.97
360.945	4.06
361.314	3.75
361.682	3.7
362.051	3.97
362.42	4.14
362.788	4.03
363.157	3.87
363.525	3.86
363.894	3.85
364.262	4.08
364.631	4.21
364.999	3.89
365.367	4.02
365.735	3.95
366.104	4.05
366.472	3.93
366.84	3.61
367.208	3.68
367.576	4.22
367.944	4.18
368.312	3.78
368.68	4.03
369.048	3.97
369.416	3.81
369.783	4.34
370.151	4.28
370.519	4.1
370.886	4.29
371.254	4.28
371.621	3.98
371.989	3.73
372.356	3.99
372.724	4.26
373.091	4.1
373.458	4.01
373.826	3.88
374.193	3.86
374.56	3.98
374.927	3.94
375.294	4.09
375.661	4.16
376.028	3.43
376.395	4.23
376.762	4.27
377.129	4.02
377.496	4.19
377.863	4.1
378.229	4.05
378.596	3.91
378.963	4.19
379.329	4.21
379.696	4.25
380.062	4.06
380.429	4.11
380.795	4.24
381.161	4.07
381.528	3.92
381.894	4.27
382.26	4.35
382.626	4.29
382.993	4.05
383.359	4.29
383.725	3.91
384.091	4.45
384.457	4.24
384.823	4.14
385.188	3.98
385.554	4.05
385.92	4.18
386.286	4.06
386.651	4.2
387.017	4.05
387.383	4.07
387.748	4
388.114	4.02
388.479	3.89
388.845	4.03
389.21	4.19
389.575	4.12
389.94	4.15
390.306	4
390.671	4.14
391.036	4.11
391.401	3.97
391.766	4.35
392.131	4.16
392.496	4.21
392.861	4.08
393.226	4.01
393.591	4.07
393.956	4.09
394.32	4.04
394.685	4.12
395.05	4.3
395.414	4.13
395.779	4.1
396.143	4.09
396.508	4.35
396.872	4.21
397.236	4.03
397.601	4.06
397.965	4.19
398.329	4.17
398.694	4.52
399.058	4.23
399.422	4.06
399.786	4.13
400.15	4.03
400.514	4.14
400.878	4.43
401.242	4.16
401.605	4.42
401.969	4.31
402.333	4.25
402.697	4.07
403.06	4.38
403.424	3.94
403.787	4.32
404.151	4.07
404.514	4
404.878	4.07
405.241	4.06
405.604	3.99
405.968	4.25
406.331	4.17
406.694	4.14
407.057	4.21
407.42	4.3
407.783	4.06
408.146	4.37
408.509	4.26
408.872	4.28
409.235	4.38
409.598	4.4
409.961	4.38
410.323	4.11
410.686	4.17
411.049	4.16
411.411	4.28
411.774	4.1
412.136	4.15
412.499	4.25
412.861	4.18
413.223	4.2
413.586	4.41
413.948	4.42
414.31	4.21
414.672	4.24
415.035	4.13
415.397	4.2
415.759	4.28
416.121	4.27
416.483	4.16
416.845	4.23
417.206	4.15
417.568	4.39
417.93	4.11
418.292	4.1
418.653	4.19
419.015	4.27
419.377	4.36
419.738	4.32
420.1	4.2
420.461	4.23
420.822	4.2
421.184	4.27
421.545	4.28
421.906	4.21
422.267	4.13
422.629	4.09
422.99	4.2
423.351	4.15
423.712	4.1
424.073	4.23
424.434	4.3
424.795	4.25
425.155	4.19
425.516	4.32
425.877	4.16
426.238	4.21
426.598	4.2
426.959	4.11
427.32	4.28
427.68	4.29
428.041	4.29
428.401	4.08
428.761	4.33
429.122	4.11
429.482	4.37
429.842	4.13
430.202	4.29
430.563	4.39
430.923	4.46
431.283	4.13
431.643	4.22
432.003	4.3
432.363	4.23
432.722	4.41
433.082	4.28
433.442	4.48
433.802	4.31
434.161	4.33
434.521	4.4
434.881	4.45
435.24	4.35
435.6	4.33
435.959	4.33
436.319	4.36
436.678	4.33
437.037	4.34
437.396	4.4
437.756	4.41
438.115	4.28
438.474	4.32
438.833	4.4
439.192	4.39
439.551	4.39
439.91	4.44
440.269	4.42
440.628	4.48
440.987	4.41
441.345	4.38
441.704	4.38
442.063	4.33
442.421	4.44
442.78	4.33
443.138	4.38
443.497	4.3
443.855	4.28
444.214	4.3
444.572	4.43
444.93	4.51
445.288	4.27
445.647	4.46
446.005	4.45
446.363	4.57
446.721	4.4
447.079	4.48
447.437	4.24
447.795	4.38
448.153	4.31
448.51	4.33
448.868	4.38
449.226	4.37
449.584	4.33
449.941	4.38
450.299	4.34
450.656	4.49
451.014	4.45
451.371	4.42
451.729	4.41
452.086	4.53
452.443	4.29
452.801	4.47
453.158	4.34
453.515	4.43
453.872	4.46
454.229	4.49
454.586	4.48
454.943	4.56
455.3	4.48
455.657	4.64
456.014	4.45
456.371	4.58
456.727	4.53
457.084	4.36
457.441	4.59
457.797	4.49
458.154	4.43
458.51	4.49
458.867	4.46
459.223	4.48
459.58	4.57
459.936	4.51
460.292	4.53
460.648	4.48
461.005	4.49
461.361	4.51
461.717	4.32
462.073	4.48
462.429	4.46
462.785	4.42
463.141	4.52
463.496	4.49
463.852	4.53
464.208	4.57
464.564	4.71
464.919	4.51
465.275	4.57
465.631	4.65
465.986	4.61
466.342	4.64
466.697	4.49
467.052	4.73
467.408	4.61
467.763	4.52
468.118	4.47
468.473	4.68
468.829	4.53
469.184	4.67
469.539	4.62
469.894	4.63
470.249	4.74
470.603	4.51
470.958	4.54
471.313	4.72
471.668	4.73
472.023	4.46
472.377	4.67
472.732	4.61
473.086	4.62
473.441	4.61
473.795	4.52
474.15	4.55
474.504	4.69
474.859	4.74
475.213	4.82
475.567	4.58
475.921	4.74
476.275	4.72
476.63	4.52
476.984	4.58
477.338	4.64
477.692	4.48
478.045	4.57
478.399	4.72
478.753	4.53
479.107	4.7
479.461	4.66
479.814	4.6
480.168	4.71
480.521	4.68
480.875	4.75
481.228	4.67
481.582	4.81
481.935	4.6
482.289	4.6
482.642	4.64
482.995	4.63
483.348	4.59
483.701	4.65
484.055	4.62
484.408	4.6
484.761	4.49
485.114	4.41
485.466	4.38
485.819	4.4
486.172	4.45
486.525	4.44
486.878	4.5
487.23	4.46
487.583	4.54
487.936	4.49
488.288	4.58
488.641	4.51
488.993	4.51
489.345	4.46
489.698	4.52
490.05	4.5
490.402	4.47
490.754	4.54
491.107	4.48
491.459	4.63
491.811	4.6
492.163	4.7
492.515	4.65
492.866	4.6
493.218	4.56
493.57	4.6
493.922	4.58
494.274	4.57
494.625	4.68
494.977	4.71
495.328	4.7
495.68	4.71
496.031	4.81
496.383	4.74
496.734	4.83
497.086	4.79
497.437	4.79
497.788	4.82
498.139	4.83
498.49	4.75
498.842	4.71
499.193	4.78
499.544	4.86
499.894	4.72
500.245	4.87
500.596	4.91
500.947	4.83
501.298	4.79
501.648	4.83
501.999	4.95
502.35	4.92
502.7	4.95
503.051	4.83
503.401	4.79
503.752	4.82
504.102	4.84
504.452	4.79
504.803	4.79
505.153	4.85
505.503	5.03
505.853	4.87
506.203	4.92
506.553	4.87
506.903	4.99
507.253	4.88
507.603	4.89
507.953	4.95
508.303	4.82
508.652	4.95
509.002	4.92
509.352	4.98
509.701	5.01
510.051	4.97
510.4	4.97
510.75	4.89
511.099	4.93
511.449	4.99
511.798	4.94
512.147	4.89
512.496	4.9
512.846	5.01
513.195	5.05
513.544	4.98
513.893	4.92
514.242	5.02
514.591	5.01
514.939	5.06
515.288	5.05
515.637	4.92
515.986	5.02
516.334	4.99
516.683	5.07
517.032	5.11
517.38	5.11
517.729	5.15
518.077	5.03
518.426	5.21
518.774	5.16
519.122	5.1
519.47	5.09
519.819	5.03
520.167	4.96
520.515	5.06
520.863	5.06
521.211	5.1
521.559	5.02
521.907	5.21
522.255	5.05
522.602	5.11
522.95	5.1
523.298	5.18
523.645	5.18
523.993	5.27
524.341	5.19
524.688	5.16
525.036	5.23
525.383	5.19
525.73	5.3
526.078	5.22
526.425	5.14
526.772	5.14
527.119	5.1
527.466	5.23
527.814	5.21
528.161	5.28
528.508	5.2
528.854	5.2
529.201	5.2
529.548	5.13
529.895	5.12
530.242	5.07
530.588	5.06
530.935	5.05
531.282	5.11
531.628	5.09
531.975	5.22
532.321	5.24
532.667	5.26
533.014	5.34
533.36	5.26
533.706	5.34
534.052	5.27
534.399	5.27
534.745	5.25
535.091	5.31
535.437	5.29
535.783	5.3
536.129	5.29
536.474	5.32
536.82	5.36
537.166	5.43
537.512	5.39
537.857	5.37
538.203	5.35
538.549	5.56
538.894	5.44
539.239	5.48
539.585	5.51
539.93	5.54
540.276	5.67
540.621	5.66
540.966	5.62
541.311	5.57
541.656	5.64
542.001	5.57
542.346	5.64
542.691	5.53
543.036	5.42
543.381	5.49
543.726	5.43
544.071	5.53
544.415	5.59
544.76	5.6
545.105	5.62
545.449	5.59
545.794	5.69
546.138	5.64
546.483	5.73
546.827	5.77
547.171	5.76
547.516	5.71
547.86	5.78
548.204	5.84
548.548	5.77
548.892	5.84
549.236	5.91
549.58	5.87
549.924	5.87
550.268	5.91
550.612	5.93
550.956	6.08
551.3	5.89
551.643	6.04
551.987	5.95
552.33	5.94
552.674	5.93
553.017	6.2
553.361	6.02
553.704	6.08
554.048	6.1
554.391	6.09
554.734	6.12
555.077	6.26
555.42	6.14
555.764	6.38
556.107	6.25
556.45	6.26
556.793	6.22
557.135	6.16
557.478	6.34
557.821	6.43
558.164	6.23
558.507	6.41
558.849	6.37
559.192	6.24
559.534	6.44
559.877	6.45
560.219	6.39
560.562	6.31
560.904	6.45
561.246	6.33
561.589	6.48
561.931	6.38
562.273	6.44
562.615	6.4
562.957	6.52
563.299	6.39
563.641	6.5
563.983	6.42
564.325	6.62
564.667	6.74
565.008	6.65
565.35	6.43
565.692	6.4
566.033	6.55
566.375	6.66
566.716	6.64
567.058	6.66
567.399	6.76
567.741	6.8
568.082	6.78
568.423	6.75
568.764	6.9
569.105	6.81
569.447	6.88
569.788	6.91
570.129	6.85
570.47	6.85
570.811	7.03
571.151	7.14
571.492	6.94
571.833	7.03
572.174	7.17
572.514	7.18
572.855	7.11
573.195	6.96
573.536	7.07
573.876	7.27
574.217	7.18
574.557	7.1
574.898	7.35
575.238	7.16
575.578	7.27
575.918	7.26
576.258	7.29
576.598	7.28
576.938	7.28
577.278	7.27
577.618	7.35
577.958	7.42
578.298	7.37
578.638	7.37
578.977	7.43
579.317	7.37
579.657	7.7
579.996	7.67
580.336	7.5
580.675	7.57
581.014	7.7
581.354	7.7
581.693	7.34
582.032	7.5
582.372	7.7
582.711	7.84
583.05	7.72
583.389	7.71
583.728	7.82
584.067	7.86
584.406	7.75
584.745	8.11
585.083	7.82
585.422	7.83
585.761	7.9
586.1	7.99
586.438	7.93
586.777	7.81
587.115	8
587.454	7.98
587.792	8.02
588.13	8.19
588.469	8.01
588.807	8.03
589.145	8.41
589.483	8.27
589.821	8.34
590.159	8.34
590.497	8.29
590.835	8.23
591.173	8.3
591.511	8.23
591.849	8.33
592.187	8.5
592.524	8.37
592.862	8.27
593.2	8.46
593.537	8.55
593.875	8.78
594.212	8.45
594.55	8.55
594.887	8.7
595.224	8.38
595.561	8.42
595.899	8.57
596.236	8.59
596.573	8.68
596.91	8.85
597.247	8.8
597.584	8.57
597.921	8.94
598.258	8.87
598.594	8.83
598.931	8.66
599.268	8.93
599.604	8.87
599.941	9
600.277	9.05
600.614	9.04
600.95	8.77
601.287	8.95
601.623	9.49
601.959	9.17
602.296	8.96
602.632	9.18
602.968	9.16
603.304	9.2
603.64	9.42
603.976	9.4
604.312	9.17
604.648	9.35
604.984	9.39
605.319	9.34
605.655	9.34
605.991	9.32
606.326	9.54
606.662	9.32
606.998	9.38
607.333	9.34
607.668	9.29
608.004	9.49
608.339	9.66
608.674	9.6
609.01	9.74
609.345	9.66
609.68	9.54
610.015	9.71
610.35	9.71
610.685	9.91
611.02	9.86
611.355	9.96
611.689	9.75
612.024	9.86
612.359	9.62
612.694	10.03
613.028	10.04
613.363	10.17
613.697	10.16
614.032	10.12
614.366	10.18
614.7	10.08
615.035	10.13
615.369	10.05
615.703	10.09
616.037	10.28
616.371	10.33
616.705	10.25
617.039	10.46
617.373	10.33
617.707	10.53
618.041	10.52
618.375	10.38
618.709	10.8
619.042	10.78
619.376	10.71
619.71	10.65
620.043	10.7
620.377	10.86
620.71	10.71
621.043	10.64
621.377	10.57
621.71	10.86
622.043	10.92
622.376	11.05
622.709	10.49
623.043	11.04
623.376	10.89
623.709	10.98
624.041	11.3
624.374	10.63
624.707	11.21
625.04	11.22
625.373	10.96
625.705	11.22
626.038	11.14
626.37	11.41
626.703	11.16
627.035	11.42
627.368	11.21
627.7	11.43
628.032	11.52
628.365	11.45
628.697	11.21
629.029	11.3
629.361	11.46
629.693	11.67
630.025	11.79
630.357	11.62
630.689	11.53
631.021	11.48
631.353	11.8
631.684	11.58
632.016	11.81
632.348	11.45
632.679	11.81
633.011	11.77
633.342	11.82
633.674	11.94
634.005	12.19
634.336	11.84
634.668	12.48
634.999	12.04
635.33	12.12
635.661	12.32
635.992	12.22
636.323	11.78
636.654	12.19
636.985	12.24
637.316	12.42
637.647	12.81
637.977	12.57
638.308	12
638.639	12.16
638.969	12.45
639.3	12.65
639.63	12.67
639.961	12.73
640.291	12.67
640.622	12.78
640.952	12.63
641.282	12.75
641.612	12.75
641.943	13.25
642.273	12.54
642.603	12.62
642.933	12.73
643.263	12.62
643.592	12.85
643.922	13.02
644.252	13.18
644.582	12.7
644.911	12.74
645.241	13.08
645.571	13.07
645.9	13.4
646.23	13.08
646.559	13.38
646.888	13.78
647.218	13.15
647.547	13.52
647.876	13.46
648.205	13.22
648.534	12.94
648.863	13.84
649.192	13.29
649.521	13.46
649.85	13.67
650.179	13.71
650.508	13.76
650.837	13.8
651.165	13.41
651.494	14.3
651.822	13.49
652.151	13.91
652.479	13.56
652.808	13.84
653.136	13.58
653.465	13.91
653.793	14.18
654.121	14.04
654.449	13.86
654.777	13.94
655.105	13.56
655.433	14.09
655.761	13.99
656.089	14.01
656.417	13.97
656.745	14.34
657.073	14.73
657.4	13.92
657.728	14.57
658.056	14.68
658.383	14.21
658.711	14.53
659.038	14.41
659.365	14.52
659.693	14.21
660.02	15.08
660.347	14.75
660.674	14.7
661.001	14.74
661.329	14.66
661.656	14.8
661.982	14.9
662.309	14.79
662.636	15.27
662.963	14.8
663.29	14.8
663.616	14.74
663.943	14.86
664.27	14.72
664.596	15.15
664.923	15.39
665.249	15.32
665.576	15.77
665.902	15.22
666.228	15.51
666.554	14.96
666.881	14.94
667.207	15.74
667.533	15.78
667.859	15.95
668.185	15.74
668.511	15.05
668.837	15.69
669.162	15.31
669.488	15.53
669.814	15.49
670.139	15.24
670.465	15.51
670.791	15.47
671.116	15.98
671.442	16
671.767	15.9
672.092	15.84
672.418	15.74
672.743	15.54
673.068	16.52
673.393	16.56
673.718	15.98
674.043	16.02
674.368	15.98
674.693	15.74
675.018	16.24
675.343	15.94
675.667	16.84
675.992	17
676.317	16.47
676.641	15.59
676.966	16.82
677.29	16.01
677.615	16.63
677.939	16.2
678.264	16.22
678.588	16.15
678.912	15.98
679.236	16.53
679.56	17.58
679.885	15.99
680.209	16.61
680.532	17
680.856	17.12
681.18	17.02
681.504	17.14
681.828	17.13
682.152	16.96
682.475	17.04
682.799	16.94
683.122	16.88
683.446	17.59
683.769	16.97
684.093	17.31
684.416	17.25
684.739	17.4
685.062	17.1
685.386	17.82
685.709	16.97
686.032	17.72
686.355	17.33
686.678	17.52
687.001	17.7
687.324	17.76
