Data from 20-11_chest_Reflection__3__48.txt Node

Date: Fri Nov 11 20:35:00 CST 2022
User: ToomeyLab
Spectrometer: FLMS14357
Trigger mode: 0
Integration Time (sec): 1.000000E-2
Scans to average: 100
Electric dark correction enabled: true
Nonlinearity correction enabled: false
Boxcar width: 0
XAxis mode: Wavelengths
Number of Pixels in Spectrum: 2048
>>>>>Begin Spectral Data<<<<<
189.047	-1851.65
189.435	-1851.65
189.823	-1851.65
190.211	53.4
190.599	130.5
190.987	360.06
191.375	17166.67
191.763	-389.8
192.151	74.06
192.538	54.99
192.926	237.37
193.314	37.72
193.702	-176.88
194.089	184.09
194.477	14.38
194.864	24.3
195.252	101.96
195.639	16.95
196.027	90.62
196.414	-44.79
196.801	-108.81
197.189	29.51
197.576	-9.04
197.963	26.47
198.351	28.87
198.738	0.48
199.125	55.75
199.512	96.27
199.899	-82.74
200.286	15.2
200.673	15.1
201.06	23.51
201.447	31.11
201.833	31.98
202.22	1.27
202.607	31.23
202.994	41
203.38	2.86
203.767	32.61
204.154	45.83
204.54	31.92
204.927	25.68
205.313	-10.52
205.699	-14.72
206.086	29.28
206.472	23.36
206.858	40.53
207.245	33.41
207.631	28.87
208.017	37.28
208.403	43.74
208.789	52.91
209.175	30.33
209.561	66.72
209.947	15.67
210.333	14.77
210.719	38.66
211.105	48.67
211.491	41.16
211.876	28.32
212.262	32.44
212.648	10.3
213.034	-4.16
213.419	-4.68
213.805	-8.5
214.19	15.59
214.576	-2.36
214.961	20.35
215.346	-7.65
215.732	-3.72
216.117	27.13
216.502	-8.22
216.888	18.34
217.273	23.69
217.658	4.64
218.043	29.04
218.428	12.57
218.813	14.67
219.198	17.63
219.583	22.17
219.968	6.12
220.353	-16.73
220.738	-6.75
221.122	10.14
221.507	1.37
221.892	4.25
222.276	-2.44
222.661	26.02
223.046	0.35
223.43	8.32
223.815	17.46
224.199	19.28
224.583	3.25
224.968	-1.88
225.352	6.39
225.736	10.49
226.121	17.53
226.505	2.22
226.889	0.72
227.273	5.12
227.657	-2.83
228.041	2.94
228.425	2.59
228.809	1.67
229.193	6.06
229.577	4.43
229.961	4.72
230.344	4.23
230.728	2.98
231.112	2.04
231.495	4.06
231.879	3.03
232.263	3.28
232.646	3.36
233.03	3.15
233.413	4.77
233.797	5.65
234.18	3.11
234.563	2.52
234.946	2.95
235.33	4.12
235.713	2.41
236.096	2.38
236.479	5.01
236.862	3.57
237.245	3.77
237.628	3.44
238.011	5.51
238.394	4.67
238.777	3.86
239.16	5.08
239.543	2.52
239.925	4.32
240.308	4.3
240.691	4.59
241.073	1.95
241.456	2.71
241.838	4.62
242.221	3.17
242.603	3.72
242.986	2.94
243.368	3.52
243.75	3.36
244.133	3.5
244.515	2.96
244.897	3.75
245.279	3.22
245.661	3.36
246.043	3.34
246.425	4.31
246.807	2.38
247.189	2.67
247.571	3.08
247.953	3.21
248.335	3.08
248.717	3.26
249.098	3.42
249.48	2.97
249.862	3.57
250.243	3.23
250.625	3.44
251.006	3.44
251.388	3.53
251.769	3.7
252.151	3.6
252.532	3.98
252.913	3.93
253.295	3.02
253.676	2.68
254.057	3.09
254.438	3.01
254.819	2.61
255.2	4.51
255.581	2.41
255.962	2.94
256.343	4.01
256.724	2.74
257.105	3.7
257.486	4.48
257.867	4.07
258.247	2.55
258.628	2.62
259.009	3.33
259.389	2.98
259.77	3.52
260.15	3.11
260.531	3.33
260.911	2.89
261.292	3.18
261.672	2.75
262.052	2.95
262.432	3.32
262.813	3.26
263.193	2.75
263.573	3.12
263.953	3.53
264.333	2.89
264.713	3.36
265.093	3.24
265.473	3.02
265.853	2.31
266.233	2.76
266.612	2.93
266.992	2.86
267.372	3.56
267.752	3
268.131	2.65
268.511	3.04
268.89	2.45
269.27	3.1
269.649	3.05
270.029	3.51
270.408	2.69
270.787	3.21
271.167	2.93
271.546	3.49
271.925	3.42
272.304	2.63
272.683	2.72
273.062	2.86
273.441	3.09
273.82	2.92
274.199	2.88
274.578	2.69
274.957	3.3
275.336	3.08
275.715	3.47
276.093	2.97
276.472	3.28
276.851	2.89
277.229	3.27
277.608	3.2
277.986	3.02
278.365	2.82
278.743	2.91
279.122	3.29
279.5	3.15
279.878	3.26
280.257	2.97
280.635	2.78
281.013	3.17
281.391	3.33
281.769	3.07
282.147	2.85
282.525	2.27
282.903	2.73
283.281	2.88
283.659	3.27
284.037	3.48
284.415	2.78
284.792	2.93
285.17	2.56
285.548	2.87
285.925	2.67
286.303	2.84
286.68	3
287.058	3.05
287.435	2.78
287.813	3.15
288.19	2.59
288.567	3.13
288.945	3.09
289.322	2.99
289.699	2.41
290.076	3.42
290.453	2.78
290.83	2.32
291.207	2.78
291.584	3.05
291.961	2.98
292.338	2.95
292.715	2.84
293.092	3.46
293.469	2.89
293.845	3.06
294.222	2.77
294.599	3.03
294.975	2.72
295.352	2.81
295.728	3.21
296.105	2.77
296.481	2.86
296.858	2.8
297.234	3.11
297.61	2.63
297.986	3.19
298.363	3.26
298.739	3.05
299.115	3.17
299.491	3.22
299.867	2.97
300.243	2.9
300.619	2.81
300.995	3.09
301.371	3.58
301.746	3.33
302.122	2.85
302.498	3.14
302.874	2.89
303.249	2.93
303.625	2.88
304	2.12
304.376	2.99
304.751	2.53
305.127	2.98
305.502	3.24
305.878	3.45
306.253	2.89
306.628	3.32
307.003	3
307.378	2.66
307.754	3.17
308.129	2.85
308.504	2.71
308.879	3.74
309.254	2.84
309.629	3.11
310.003	3.22
310.378	3.15
310.753	3.43
311.128	3.43
311.502	2.9
311.877	2.97
312.252	2.82
312.626	3.08
313.001	2.79
313.375	2.95
313.75	2.87
314.124	2.9
314.498	3.07
314.873	2.97
315.247	3
315.621	3.13
315.995	3.33
316.369	3.02
316.743	2.9
317.117	2.95
317.491	2.63
317.865	2.69
318.239	3.23
318.613	3.31
318.987	3.26
319.361	3.27
319.734	3.22
320.108	2.97
320.482	3.3
320.855	2.67
321.229	2.78
321.602	3.02
321.976	2.91
322.349	3.35
322.723	3.45
323.096	3.07
323.469	3.16
323.843	3.31
324.216	3.17
324.589	2.91
324.962	3.52
325.335	3.17
325.708	3.35
326.081	3.25
326.454	2.76
326.827	2.21
327.2	3.47
327.573	3.64
327.945	3.11
328.318	2.75
328.691	3
329.063	3.03
329.436	3.17
329.809	3.03
330.181	3.09
330.553	2.68
330.926	2.92
331.298	3.44
331.671	3.12
332.043	2.18
332.415	3.16
332.787	3.15
333.159	3.12
333.532	2.75
333.904	3.48
334.276	2.8
334.648	3.14
335.02	2.78
335.391	3.54
335.763	2.95
336.135	2.64
336.507	3.25
336.879	2.97
337.25	3.22
337.622	3.14
337.993	3.33
338.365	3.28
338.736	3.11
339.108	3.28
339.479	2.8
339.851	3.29
340.222	3.05
340.593	3.31
340.964	3.26
341.336	2.9
341.707	2.96
342.078	2.67
342.449	3.22
342.82	3.26
343.191	3.18
343.562	2.8
343.933	2.71
344.303	3.03
344.674	2.67
345.045	3.07
345.416	3.5
345.786	2.77
346.157	2.75
346.527	3.07
346.898	2.79
347.268	2.7
347.639	2.83
348.009	2.98
348.38	3.31
348.75	2.94
349.12	3.61
349.49	3.52
349.861	3.09
350.231	3.39
350.601	3.4
350.971	3.33
351.341	3.37
351.711	2.74
352.081	3.28
352.45	3.24
352.82	3.04
353.19	3.22
353.56	3.32
353.929	3.02
354.299	3
354.669	3.29
355.038	2.63
355.408	3.01
355.777	2.8
356.147	3.43
356.516	2.98
356.885	3.4
357.254	2.85
357.624	2.62
357.993	3.22
358.362	3.16
358.731	2.79
359.1	2.99
359.469	2.77
359.838	2.98
360.207	3.11
360.576	3.27
360.945	3.1
361.314	2.88
361.682	3.2
362.051	3.02
362.42	3.24
362.788	3.4
363.157	2.8
363.525	2.97
363.894	2.75
364.262	3.22
364.631	3.34
364.999	3.14
365.367	3.17
365.735	3.12
366.104	2.66
366.472	3.05
366.84	2.98
367.208	3.23
367.576	3.17
367.944	3.29
368.312	2.88
368.68	3.29
369.048	3.14
369.416	3.12
369.783	3.2
370.151	3.35
370.519	3.38
370.886	2.99
371.254	3.37
371.621	3.02
371.989	2.92
372.356	3.27
372.724	3.37
373.091	3.36
373.458	3.14
373.826	3.07
374.193	2.88
374.56	3.21
374.927	2.96
375.294	3.31
375.661	3.27
376.028	2.88
376.395	3.04
376.762	3.25
377.129	3.22
377.496	3.28
377.863	3.36
378.229	3.28
378.596	3.02
378.963	3.08
379.329	3.2
379.696	3.14
380.062	3.12
380.429	3.41
380.795	3.54
381.161	3.31
381.528	3.27
381.894	3.04
382.26	3.54
382.626	3.4
382.993	3.06
383.359	3.14
383.725	3.24
384.091	3.43
384.457	3.4
384.823	2.89
385.188	3.12
385.554	3.16
385.92	3.17
386.286	3.25
386.651	3.11
387.017	3.11
387.383	3.2
387.748	3.18
388.114	3.22
388.479	3.1
388.845	3.09
389.21	3.18
389.575	3.2
389.94	3.32
390.306	3.14
390.671	3.16
391.036	3.33
391.401	3.06
391.766	3.33
392.131	3.05
392.496	3.24
392.861	3.22
393.226	3.06
393.591	3.23
393.956	3.09
394.32	3.34
394.685	3.37
395.05	3.25
395.414	3.31
395.779	3.27
396.143	3.25
396.508	3.43
396.872	3.49
397.236	3.4
397.601	3.27
397.965	3.18
398.329	3.34
398.694	3.53
399.058	3.36
399.422	3.38
399.786	3.08
400.15	3.31
400.514	3.31
400.878	3.3
401.242	3.16
401.605	3.27
401.969	3.5
402.333	3.06
402.697	3.38
403.06	3.38
403.424	3.21
403.787	3.34
404.151	3.45
404.514	3.12
404.878	3.39
405.241	3.27
405.604	3.18
405.968	3.1
406.331	3.03
406.694	3.18
407.057	3.3
407.42	3.45
407.783	3.37
408.146	3.3
408.509	3.35
408.872	3.33
409.235	3.7
409.598	3.36
409.961	3.57
410.323	3.36
410.686	3.42
411.049	3.26
411.411	3.26
411.774	3.3
412.136	3.32
412.499	3.54
412.861	3.5
413.223	3.16
413.586	3.42
413.948	3.5
414.31	3.35
414.672	3.28
415.035	3.24
415.397	3.42
415.759	3.09
416.121	3.37
416.483	3.36
416.845	3.41
417.206	3.23
417.568	3.39
417.93	3.31
418.292	3.14
418.653	3.28
419.015	3.36
419.377	3.41
419.738	3.37
420.1	3.36
420.461	3.16
420.822	3.19
421.184	3.3
421.545	3.34
421.906	3.27
422.267	3.19
422.629	3.14
422.99	3.25
423.351	3.26
423.712	3.22
424.073	3.33
424.434	3.36
424.795	3.26
425.155	3.17
425.516	3.3
425.877	3.25
426.238	3.27
426.598	3.33
426.959	3.23
427.32	3.29
427.68	3.3
428.041	3.51
428.401	3.14
428.761	3.45
429.122	3.27
429.482	3.33
429.842	3.38
430.202	3.37
430.563	3.46
430.923	3.54
431.283	3.32
431.643	3.3
432.003	3.63
432.363	3.41
432.722	3.48
433.082	3.5
433.442	3.56
433.802	3.49
434.161	3.45
434.521	3.4
434.881	3.46
435.24	3.28
435.6	3.31
435.959	3.43
436.319	3.42
436.678	3.48
437.037	3.44
437.396	3.54
437.756	3.49
438.115	3.4
438.474	3.43
438.833	3.52
439.192	3.53
439.551	3.3
439.91	3.5
440.269	3.38
440.628	3.59
440.987	3.44
441.345	3.31
441.704	3.45
442.063	3.43
442.421	3.38
442.78	3.28
443.138	3.5
443.497	3.35
443.855	3.5
444.214	3.42
444.572	3.53
444.93	3.57
445.288	3.51
445.647	3.61
446.005	3.49
446.363	3.51
446.721	3.52
447.079	3.57
447.437	3.41
447.795	3.54
448.153	3.33
448.51	3.42
448.868	3.35
449.226	3.43
449.584	3.47
449.941	3.43
450.299	3.42
450.656	3.58
451.014	3.53
451.371	3.63
451.729	3.52
452.086	3.6
452.443	3.67
452.801	3.5
453.158	3.64
453.515	3.55
453.872	3.49
454.229	3.49
454.586	3.5
454.943	3.7
455.3	3.49
455.657	3.62
456.014	3.65
456.371	3.6
456.727	3.68
457.084	3.46
457.441	3.65
457.797	3.64
458.154	3.63
458.51	3.74
458.867	3.45
459.223	3.77
459.58	3.59
459.936	3.61
460.292	3.55
460.648	3.58
461.005	3.52
461.361	3.56
461.717	3.44
462.073	3.54
462.429	3.55
462.785	3.5
463.141	3.46
463.496	3.52
463.852	3.73
464.208	3.62
464.564	3.53
464.919	3.59
465.275	3.79
465.631	3.71
465.986	3.9
466.342	3.75
466.697	3.55
467.052	3.67
467.408	3.73
467.763	3.64
468.118	3.63
468.473	3.74
468.829	3.72
469.184	3.7
469.539	3.78
469.894	3.75
470.249	3.74
470.603	3.46
470.958	3.57
471.313	3.89
471.668	3.83
472.023	3.68
472.377	3.82
472.732	3.72
473.086	3.75
473.441	3.67
473.795	3.69
474.15	3.88
474.504	3.71
474.859	3.71
475.213	3.95
475.567	3.81
475.921	3.97
476.275	3.81
476.63	3.77
476.984	3.89
477.338	3.82
477.692	3.65
478.045	3.74
478.399	3.83
478.753	3.62
479.107	3.88
479.461	3.79
479.814	3.78
480.168	3.78
480.521	3.85
480.875	3.87
481.228	3.8
481.582	3.72
481.935	3.63
482.289	3.61
482.642	3.73
482.995	3.78
483.348	3.75
483.701	3.76
484.055	3.67
484.408	3.68
484.761	3.6
485.114	3.46
485.466	3.45
485.819	3.47
486.172	3.5
486.525	3.57
486.878	3.63
487.23	3.61
487.583	3.68
487.936	3.73
488.288	3.68
488.641	3.62
488.993	3.66
489.345	3.56
489.698	3.62
490.05	3.64
490.402	3.62
490.754	3.69
491.107	3.65
491.459	3.73
491.811	3.82
492.163	3.78
492.515	3.76
492.866	3.71
493.218	3.63
493.57	3.62
493.922	3.69
494.274	3.75
494.625	3.86
494.977	3.83
495.328	3.87
495.68	3.86
496.031	3.95
496.383	3.99
496.734	3.98
497.086	3.98
497.437	3.99
497.788	3.82
498.139	3.89
498.49	3.75
498.842	3.79
499.193	3.96
499.544	4
499.894	3.89
500.245	3.94
500.596	3.98
500.947	3.88
501.298	3.91
501.648	3.98
501.999	4.04
502.35	4.1
502.7	4.01
503.051	4.13
503.401	3.95
503.752	4
504.102	3.91
504.452	3.98
504.803	3.96
505.153	4
505.503	4.14
505.853	4.06
506.203	4.02
506.553	3.92
506.903	4.02
507.253	4.08
507.603	4.16
507.953	4.07
508.303	3.92
508.652	4.07
509.002	4.03
509.352	4.17
509.701	4.19
510.051	4.02
510.4	4.14
510.75	4.03
511.099	3.97
511.449	4.13
511.798	4.09
512.147	4.02
512.496	4.01
512.846	4.27
513.195	4.12
513.544	4.1
513.893	4.11
514.242	4.08
514.591	4.11
514.939	4.09
515.288	4.13
515.637	4.18
515.986	4.15
516.334	4.26
516.683	4.19
517.032	4.22
517.38	4.21
517.729	4.22
518.077	4.26
518.426	4.29
518.774	4.22
519.122	4.24
519.47	4.18
519.819	4.17
520.167	4.13
520.515	4.15
520.863	4.17
521.211	4.17
521.559	4.16
521.907	4.23
522.255	4.25
522.602	4.37
522.95	4.17
523.298	4.3
523.645	4.4
523.993	4.35
524.341	4.39
524.688	4.37
525.036	4.46
525.383	4.39
525.73	4.33
526.078	4.31
526.425	4.23
526.772	4.24
527.119	4.25
527.466	4.25
527.814	4.19
528.161	4.3
528.508	4.31
528.854	4.22
529.201	4.27
529.548	4.2
529.895	4.14
530.242	4.1
530.588	4.16
530.935	4.19
531.282	4.26
531.628	4.27
531.975	4.36
532.321	4.31
532.667	4.4
533.014	4.44
533.36	4.4
533.706	4.46
534.052	4.44
534.399	4.4
534.745	4.35
535.091	4.33
535.437	4.36
535.783	4.42
536.129	4.44
536.474	4.55
536.82	4.47
537.166	4.47
537.512	4.56
537.857	4.45
538.203	4.49
538.549	4.63
538.894	4.53
539.239	4.56
539.585	4.63
539.93	4.7
540.276	4.85
540.621	4.76
540.966	4.73
541.311	4.69
541.656	4.66
542.001	4.67
542.346	4.73
542.691	4.57
543.036	4.49
543.381	4.51
543.726	4.5
544.071	4.62
544.415	4.71
544.76	4.77
545.105	4.68
545.449	4.65
545.794	4.77
546.138	4.8
546.483	4.91
546.827	4.82
547.171	4.96
547.516	4.83
547.86	4.81
548.204	4.95
548.548	4.83
548.892	4.78
549.236	4.92
549.58	5.01
549.924	4.91
550.268	5.15
550.612	5.15
550.956	5.3
551.3	5.03
551.643	5.23
551.987	5.31
552.33	5.14
552.674	4.96
553.017	5.34
553.361	5.24
553.704	5.38
554.048	5.15
554.391	5.27
554.734	5.07
555.077	5.36
555.42	5.35
555.764	5.32
556.107	5.37
556.45	5.32
556.793	5.38
557.135	5.32
557.478	5.53
557.821	5.62
558.164	5.3
558.507	5.36
558.849	5.52
559.192	5.5
559.534	5.64
559.877	5.73
560.219	5.38
560.562	5.39
560.904	5.65
561.246	5.47
561.589	5.69
561.931	5.42
562.273	5.39
562.615	5.51
562.957	5.61
563.299	5.58
563.641	5.51
563.983	5.55
564.325	5.79
564.667	5.68
565.008	5.73
565.35	5.78
565.692	5.5
566.033	5.71
566.375	5.97
566.716	5.84
567.058	5.81
567.399	6.05
567.741	5.81
568.082	5.77
568.423	5.84
568.764	5.89
569.105	5.73
569.447	6.05
569.788	5.88
570.129	5.89
570.47	5.94
570.811	6.08
571.151	6.21
571.492	6.05
571.833	6.17
572.174	6.2
572.514	6.15
572.855	6.22
573.195	5.99
573.536	6.14
573.876	6.21
574.217	6.3
574.557	6.1
574.898	6.29
575.238	6.17
575.578	6.34
575.918	6.26
576.258	6.4
576.598	6.3
576.938	6.33
577.278	6.18
577.618	6.31
577.958	6.44
578.298	6.43
578.638	6.53
578.977	6.55
579.317	6.7
579.657	6.63
579.996	6.56
580.336	6.46
580.675	6.81
581.014	6.79
581.354	6.75
581.693	6.72
582.032	6.67
582.372	6.58
582.711	6.68
583.05	6.75
583.389	6.86
583.728	6.87
584.067	7.04
584.406	6.79
584.745	7
585.083	6.68
585.422	6.73
585.761	6.81
586.1	6.93
586.438	7.03
586.777	6.97
587.115	6.96
587.454	6.99
587.792	7.08
588.13	6.9
588.469	6.98
588.807	7.07
589.145	7.16
589.483	7.29
589.821	7.5
590.159	7.42
590.497	7.49
590.835	7.39
591.173	7.31
591.511	7.38
591.849	7.03
592.187	7.3
592.524	7.39
592.862	7.29
593.2	7.61
593.537	7.68
593.875	7.77
594.212	7.57
594.55	7.69
594.887	7.58
595.224	7.62
595.561	7.54
595.899	7.52
596.236	7.64
596.573	7.63
596.91	7.79
597.247	7.77
597.584	7.65
597.921	7.84
598.258	7.73
598.594	7.61
598.931	7.57
599.268	7.83
599.604	7.84
599.941	7.98
600.277	7.95
600.614	8.06
600.95	7.74
601.287	7.98
601.623	8.36
601.959	8.23
602.296	7.8
602.632	8.05
602.968	8.22
603.304	8.12
603.64	8.35
603.976	8.3
604.312	8.47
604.648	8.32
604.984	8.41
605.319	8.37
605.655	8.24
605.991	8.44
606.326	8.53
606.662	8.2
606.998	8.37
607.333	8.35
607.668	8.32
608.004	8.44
608.339	8.49
608.674	8.59
609.01	8.67
609.345	8.43
609.68	8.55
610.015	8.68
610.35	8.57
610.685	8.56
611.02	8.61
611.355	8.67
611.689	8.65
612.024	8.74
612.359	8.56
612.694	8.79
613.028	8.96
613.363	9.16
613.697	9.2
614.032	9.02
614.366	8.95
614.7	9.05
615.035	9.01
615.369	8.89
615.703	9.05
616.037	9.34
616.371	9.34
616.705	9.21
617.039	9.32
617.373	9.18
617.707	9.21
618.041	9.54
618.375	9.08
618.709	9.84
619.042	9.82
619.376	9.55
619.71	9.6
620.043	9.62
620.377	9.52
620.71	9.72
621.043	9.47
621.377	9.78
621.71	9.74
622.043	9.83
622.376	9.7
622.709	9.56
623.043	9.86
623.376	9.96
623.709	10
624.041	10.12
624.374	9.68
624.707	10.21
625.04	9.87
625.373	9.78
625.705	9.77
626.038	10.3
626.37	10
626.703	9.61
627.035	10.32
627.368	9.87
627.7	10.11
628.032	10.07
628.365	10.23
628.697	10.14
629.029	10.22
629.361	10.14
629.693	10.31
630.025	10.36
630.357	10.24
630.689	10.28
631.021	10.42
631.353	10.72
631.684	10.62
632.016	10.49
632.348	10.21
632.679	10.6
633.011	10.7
633.342	10.58
633.674	10.87
634.005	10.67
634.336	10.78
634.668	11
634.999	10.69
635.33	10.75
635.661	11.17
635.992	10.87
636.323	10.9
636.654	10.9
636.985	10.84
637.316	10.85
637.647	11.24
637.977	11.04
638.308	11.06
638.639	11.1
638.969	11.09
639.3	11.3
639.63	11.45
639.961	11.26
640.291	11.12
640.622	11.36
640.952	10.86
641.282	11.03
641.612	10.96
641.943	11.56
642.273	11.32
642.603	11.63
642.933	11.67
643.263	11.39
643.592	11.89
643.922	11.8
644.252	11.65
644.582	11.71
644.911	11.47
645.241	12.13
645.571	11.79
645.9	12.08
646.23	12.06
646.559	11.97
646.888	11.92
647.218	11.6
647.547	12
647.876	12.42
648.205	12.35
648.534	12
648.863	11.88
649.192	12
649.521	12.42
649.85	12.09
650.179	11.95
650.508	12.51
650.837	12.44
651.165	12.37
651.494	12.21
651.822	12.05
652.151	12.18
652.479	12.05
652.808	12.47
653.136	12.26
653.465	12.77
653.793	12.77
654.121	12.43
654.449	12.02
654.777	13.03
655.105	12.81
655.433	12.52
655.761	13.44
656.089	12.98
656.417	12.64
656.745	12.99
657.073	12.96
657.4	12.38
657.728	12.9
658.056	12.86
658.383	12.9
658.711	13.05
659.038	12.97
659.365	12.84
659.693	12.82
660.02	13.43
660.347	13.22
660.674	12.82
661.001	12.88
661.329	12.68
661.656	12.93
661.982	13.38
662.309	13.09
662.636	14.02
662.963	13.23
663.29	13.05
663.616	13.09
663.943	13.18
664.27	13.52
664.596	13.54
664.923	13.49
665.249	13.76
665.576	13.94
665.902	13.67
666.228	13.23
666.554	13.35
666.881	13.44
667.207	13.52
667.533	14.08
667.859	14.56
668.185	14.45
668.511	13.67
668.837	14.13
669.162	14.28
669.488	14.22
669.814	13.51
670.139	14.07
670.465	13.39
670.791	14
671.116	14.29
671.442	14.08
671.767	14.2
672.092	14.2
672.418	14.56
672.743	14.22
673.068	14.77
673.393	14.65
673.718	14.44
674.043	14.86
674.368	14.5
674.693	13.67
675.018	14.17
675.343	14.3
675.667	14.81
675.992	15.21
676.317	14.64
676.641	14.51
676.966	14.78
677.29	15.02
677.615	14.41
677.939	14.26
678.264	14.31
678.588	14.83
678.912	14.63
679.236	15.12
679.56	15.23
679.885	14.73
680.209	14.38
680.532	15.33
680.856	15.33
681.18	14.99
681.504	14.53
681.828	15.13
682.152	15.3
682.475	15
682.799	14.73
683.122	15.26
683.446	15.35
683.769	15.35
684.093	15.61
684.416	15.63
684.739	15.84
685.062	15.46
685.386	15.77
685.709	15.21
686.032	15.45
686.355	15.43
686.678	16.34
687.001	15.28
687.324	15.81
687.646	15.73
687.969	15.72
688.292	16.42
688.614	15.41
