Data from 20-11_chest_Reflection__1__46.txt Node

Date: Fri Nov 11 20:34:37 CST 2022
User: ToomeyLab
Spectrometer: FLMS14357
Trigger mode: 0
Integration Time (sec): 1.000000E-2
Scans to average: 100
Electric dark correction enabled: true
Nonlinearity correction enabled: false
Boxcar width: 0
XAxis mode: Wavelengths
Number of Pixels in Spectrum: 2048
>>>>>Begin Spectral Data<<<<<
189.047	1163.74
189.435	1163.74
189.823	1163.74
190.211	82.08
190.599	-28.91
190.987	-306.19
191.375	9166.67
191.763	208.84
192.151	-60.94
192.538	20.44
192.926	208.51
193.314	237.01
193.702	-161.03
194.089	113.11
194.477	30.94
194.864	37.69
195.252	39.7
195.639	58.47
196.027	428.45
196.414	366.18
196.801	-164.66
197.189	95.81
197.576	-13.67
197.963	-6.56
198.351	-30.27
198.738	4.51
199.125	82.3
199.512	37.22
199.899	-110.55
200.286	18.6
200.673	-16.13
201.06	56.34
201.447	13.68
201.833	-9.63
202.22	-10.3
202.607	6.22
202.994	28.12
203.38	23.83
203.767	47.13
204.154	20.46
204.54	7.53
204.927	0.16
205.313	-13.95
205.699	-27.65
206.086	16.95
206.472	15.58
206.858	26.22
207.245	36.46
207.631	12.17
208.017	33.83
208.403	-0.77
208.789	8.21
209.175	22.86
209.561	32.44
209.947	20.06
210.333	31.69
210.719	15.2
211.105	42.3
211.491	32.42
211.876	-2.14
212.262	57.16
212.648	14.44
213.034	13.05
213.419	-9.29
213.805	-3.76
214.19	28.08
214.576	28.94
214.961	5.4
215.346	-4.76
215.732	9.08
216.117	6.09
216.502	22.15
216.888	-7.74
217.273	23.94
217.658	-35.63
218.043	2.48
218.428	20.38
218.813	-9.54
219.198	-4.96
219.583	6.8
219.968	19.45
220.353	-4.29
220.738	4.13
221.122	18.28
221.507	0.74
221.892	0.22
222.276	4.88
222.661	9.83
223.046	-18.3
223.43	-5.37
223.815	7.62
224.199	-3.4
224.583	4.52
224.968	-5.54
225.352	-0.71
225.736	1.29
226.121	3.47
226.505	5.68
226.889	-7.22
227.273	-1.23
227.657	-6.22
228.041	3.1
228.425	-3.12
228.809	-0.36
229.193	4.78
229.577	3.66
229.961	2.24
230.344	2.64
230.728	0.96
231.112	1.41
231.495	2.2
231.879	0.92
232.263	2.23
232.646	-0.08
233.03	0.81
233.413	2.39
233.797	1.97
234.18	1.4
234.563	1.96
234.946	3.23
235.33	2.95
235.713	2.63
236.096	1.82
236.479	0.35
236.862	2.28
237.245	1.09
237.628	1.91
238.011	1.55
238.394	1.92
238.777	2.57
239.16	2.72
239.543	1.99
239.925	1.23
240.308	0.68
240.691	0.82
241.073	0.05
241.456	1
241.838	2.31
242.221	1.37
242.603	2.05
242.986	1.29
243.368	1.24
243.75	1.37
244.133	1.38
244.515	1.08
244.897	1.85
245.279	0.59
245.661	0.41
246.043	0.74
246.425	1.93
246.807	1.78
247.189	1.05
247.571	0.93
247.953	1.29
248.335	1.35
248.717	1.3
249.098	1.56
249.48	1.13
249.862	1.87
250.243	1.62
250.625	1.03
251.006	2.4
251.388	1.64
251.769	1.25
252.151	1.9
252.532	0.82
252.913	1.35
253.295	1.92
253.676	0.86
254.057	0.81
254.438	1.04
254.819	1
255.2	1.96
255.581	0.85
255.962	1.09
256.343	1.25
256.724	0.14
257.105	1.23
257.486	1.34
257.867	1.87
258.247	0.11
258.628	1.42
259.009	0.88
259.389	1.14
259.77	1.56
260.15	1.67
260.531	1.65
260.911	1.46
261.292	1.39
261.672	1
262.052	1.16
262.432	1.26
262.813	1.27
263.193	0.99
263.573	0.89
263.953	1.67
264.333	0.72
264.713	1.6
265.093	1.04
265.473	0.55
265.853	0.83
266.233	1.43
266.612	1.28
266.992	1.19
267.372	1.96
267.752	0.79
268.131	1.38
268.511	1.41
268.89	0.81
269.27	1.43
269.649	1.06
270.029	1.48
270.408	1.55
270.787	1.59
271.167	0.91
271.546	1.17
271.925	0.91
272.304	1.58
272.683	1.64
273.062	1.21
273.441	1.02
273.82	1.29
274.199	1.15
274.578	1.04
274.957	1.42
275.336	1.37
275.715	1.16
276.093	0.9
276.472	1.59
276.851	1.22
277.229	1.35
277.608	1.41
277.986	1.33
278.365	1.39
278.743	1.64
279.122	1.75
279.5	1.21
279.878	1.22
280.257	1.98
280.635	1.12
281.013	1.01
281.391	1.19
281.769	1.25
282.147	1.13
282.525	0.76
282.903	1.2
283.281	0.83
283.659	1.37
284.037	1.28
284.415	1.26
284.792	1.04
285.17	1.55
285.548	1.3
285.925	0.72
286.303	1.31
286.68	1.56
287.058	1.26
287.435	0.97
287.813	1.35
288.19	1.25
288.567	1.19
288.945	1.42
289.322	1.02
289.699	0.92
290.076	1.79
290.453	0.98
290.83	1.13
291.207	1.27
291.584	1.64
291.961	1.13
292.338	1.41
292.715	1.24
293.092	1.27
293.469	1.25
293.845	1.16
294.222	0.85
294.599	1.63
294.975	1.15
295.352	1.65
295.728	1.72
296.105	1.17
296.481	0.89
296.858	1.1
297.234	1.34
297.61	1.05
297.986	1.28
298.363	1.28
298.739	1.36
299.115	1.27
299.491	1.67
299.867	1.35
300.243	1.32
300.619	1.38
300.995	1.4
301.371	1.84
301.746	1.68
302.122	1.55
302.498	1.51
302.874	1.34
303.249	1.57
303.625	1.07
304	0.73
304.376	1.52
304.751	1.72
305.127	1.16
305.502	1.52
305.878	1.76
306.253	1.38
306.628	1.34
307.003	1.58
307.378	1.14
307.754	1.69
308.129	1.13
308.504	1.98
308.879	1.12
309.254	1.81
309.629	1.18
310.003	1.45
310.378	1.49
310.753	1.81
311.128	1.92
311.502	1.31
311.877	1.45
312.252	1.21
312.626	1.54
313.001	1.14
313.375	1.38
313.75	1.24
314.124	1.1
314.498	1.43
314.873	1.6
315.247	1.36
315.621	1.45
315.995	1.76
316.369	1.49
316.743	1.18
317.117	1.68
317.491	1.44
317.865	1.07
318.239	1.79
318.613	1.61
318.987	1.29
319.361	1.51
319.734	1.24
320.108	1.05
320.482	2.27
320.855	1.33
321.229	1.16
321.602	1.41
321.976	0.95
322.349	1.78
322.723	2.48
323.096	1.81
323.469	1.59
323.843	1.63
324.216	1.52
324.589	2
324.962	1.75
325.335	1.53
325.708	1.5
326.081	1.88
326.454	1.25
326.827	1.24
327.2	2.12
327.573	2.05
327.945	1.68
328.318	1.58
328.691	1.7
329.063	1.65
329.436	1.21
329.809	1.48
330.181	1.06
330.553	1.36
330.926	1.93
331.298	1.5
331.671	1.33
332.043	1.2
332.415	1.35
332.787	1.86
333.159	1.42
333.532	1.42
333.904	1.74
334.276	1.36
334.648	1.56
335.02	1.51
335.391	1.72
335.763	1.52
336.135	1.33
336.507	2
336.879	1.94
337.25	1.51
337.622	1.92
337.993	1.79
338.365	1.7
338.736	2
339.108	1.57
339.479	1.29
339.851	2.09
340.222	1.58
340.593	1.78
340.964	1.86
341.336	2.02
341.707	1.24
342.078	1.13
342.449	2.01
342.82	1.8
343.191	2.02
343.562	1.63
343.933	1.4
344.303	1.53
344.674	1.31
345.045	1.69
345.416	1.79
345.786	1.13
346.157	1.38
346.527	1.88
346.898	1.36
347.268	1.77
347.639	1.69
348.009	1.18
348.38	1.68
348.75	1.36
349.12	2.3
349.49	1.97
349.861	1.92
350.231	1.78
350.601	1.69
350.971	1.85
351.341	1.77
351.711	1.67
352.081	1.98
352.45	1.84
352.82	1.75
353.19	1.63
353.56	1.74
353.929	1.58
354.299	1.76
354.669	2.06
355.038	1.43
355.408	1.96
355.777	2.03
356.147	1.71
356.516	1.49
356.885	1.78
357.254	1.73
357.624	1.33
357.993	1.73
358.362	2.23
358.731	1.33
359.1	1.52
359.469	1.46
359.838	1.59
360.207	1.9
360.576	1.71
360.945	2.12
361.314	1.31
361.682	1.48
362.051	1.7
362.42	1.87
362.788	1.94
363.157	1.78
363.525	1.44
363.894	1.66
364.262	1.82
364.631	1.84
364.999	1.7
365.367	1.61
365.735	1.6
366.104	1.61
366.472	1.56
366.84	1.36
367.208	1.6
367.576	1.91
367.944	2.17
368.312	1.67
368.68	1.53
369.048	1.81
369.416	1.71
369.783	1.9
370.151	1.84
370.519	1.86
370.886	1.94
371.254	1.92
371.621	1.69
371.989	1.51
372.356	1.91
372.724	1.93
373.091	1.91
373.458	1.59
373.826	1.72
374.193	1.36
374.56	1.64
374.927	1.62
375.294	2.06
375.661	2.24
376.028	1.25
376.395	2.05
376.762	2.07
377.129	1.52
377.496	1.71
377.863	1.78
378.229	1.92
378.596	1.51
378.963	1.67
379.329	1.84
379.696	2.05
380.062	1.81
380.429	1.71
380.795	2.1
381.161	1.9
381.528	1.68
381.894	1.93
382.26	2.34
382.626	1.71
382.993	1.63
383.359	2.17
383.725	1.7
384.091	2.08
384.457	1.9
384.823	1.67
385.188	1.78
385.554	1.74
385.92	1.45
386.286	1.83
386.651	2.15
387.017	1.71
387.383	1.95
387.748	1.74
388.114	1.83
388.479	1.56
388.845	1.88
389.21	1.68
389.575	1.66
389.94	1.82
390.306	1.6
390.671	1.92
391.036	1.76
391.401	1.82
391.766	2.05
392.131	1.79
392.496	1.96
392.861	1.75
393.226	1.79
393.591	1.54
393.956	1.69
394.32	1.98
394.685	1.68
395.05	1.97
395.414	1.78
395.779	1.94
396.143	1.67
396.508	1.98
396.872	1.84
397.236	1.81
397.601	1.82
397.965	1.85
398.329	1.98
398.694	2.02
399.058	1.91
399.422	2.16
399.786	2
400.15	1.8
400.514	1.87
400.878	1.72
401.242	1.98
401.605	1.97
401.969	2.16
402.333	1.49
402.697	2.01
403.06	1.84
403.424	1.64
403.787	1.93
404.151	1.88
404.514	1.88
404.878	1.82
405.241	1.79
405.604	1.88
405.968	1.92
406.331	1.65
406.694	1.88
407.057	1.92
407.42	1.94
407.783	1.86
408.146	2.04
408.509	2.13
408.872	1.86
409.235	1.94
409.598	1.77
409.961	2.03
410.323	1.78
410.686	1.95
411.049	1.81
411.411	1.91
411.774	1.79
412.136	1.91
412.499	2
412.861	1.89
413.223	1.81
413.586	1.94
413.948	1.92
414.31	2.04
414.672	1.82
415.035	1.95
415.397	1.77
415.759	1.71
416.121	1.96
416.483	1.89
416.845	1.95
417.206	1.92
417.568	1.84
417.93	1.8
418.292	1.78
418.653	1.87
419.015	2
419.377	1.88
419.738	1.92
420.1	1.9
420.461	1.93
420.822	1.89
421.184	1.8
421.545	1.91
421.906	1.81
422.267	1.85
422.629	1.84
422.99	1.87
423.351	1.81
423.712	1.92
424.073	1.97
424.434	1.94
424.795	2
425.155	1.81
425.516	1.87
425.877	1.91
426.238	1.99
426.598	1.85
426.959	1.87
427.32	1.96
427.68	2
428.041	2.03
428.401	1.84
428.761	1.97
429.122	1.95
429.482	1.85
429.842	1.86
430.202	1.89
430.563	2.09
430.923	2.09
431.283	1.8
431.643	2.02
432.003	2.03
432.363	1.99
432.722	2.08
433.082	1.86
433.442	2.13
433.802	1.98
434.161	1.87
434.521	2.02
434.881	2.13
435.24	1.97
435.6	1.93
435.959	2.09
436.319	1.88
436.678	1.91
437.037	1.94
437.396	2.1
437.756	1.94
438.115	1.91
438.474	1.88
438.833	1.94
439.192	2.11
439.551	1.98
439.91	2.09
440.269	2.11
440.628	1.97
440.987	2.02
441.345	2.03
441.704	2.02
442.063	2.01
442.421	2.05
442.78	1.78
443.138	2.03
443.497	1.92
443.855	2.04
444.214	1.89
444.572	2.13
444.93	2.03
445.288	1.98
445.647	2.04
446.005	2.12
446.363	2.02
446.721	1.99
447.079	2.08
447.437	1.96
447.795	2.02
448.153	1.93
448.51	2.01
448.868	2.03
449.226	2.03
449.584	1.92
449.941	1.95
450.299	1.92
450.656	2.12
451.014	2.09
451.371	2.02
451.729	2.05
452.086	2.1
452.443	2.04
452.801	2.25
453.158	2.1
453.515	2.05
453.872	1.97
454.229	1.96
454.586	2.05
454.943	2.09
455.3	2.1
455.657	2.19
456.014	2.13
456.371	2.1
456.727	2.29
457.084	1.89
457.441	2.27
457.797	2.14
458.154	2.13
458.51	2.2
458.867	1.99
459.223	2.08
459.58	2.08
459.936	2.09
460.292	2.11
460.648	2.06
461.005	1.97
461.361	2.01
461.717	2.03
462.073	2.05
462.429	2.05
462.785	2.02
463.141	1.98
463.496	2.04
463.852	2.1
464.208	2.1
464.564	1.98
464.919	2.12
465.275	1.98
465.631	2.26
465.986	2.28
466.342	2.19
466.697	2.1
467.052	2.08
467.408	2.09
467.763	2.08
468.118	2.14
468.473	2.2
468.829	2.19
469.184	2.21
469.539	2.21
469.894	2.27
470.249	2.11
470.603	2.06
470.958	2.21
471.313	2.32
471.668	2.23
472.023	2
472.377	2.18
472.732	2.01
473.086	2.11
473.441	2.14
473.795	2.09
474.15	2.13
474.504	2.31
474.859	2.15
475.213	2.28
475.567	2.14
475.921	2.35
476.275	2.13
476.63	2.24
476.984	2.31
477.338	2.36
477.692	2.11
478.045	2.16
478.399	2.31
478.753	2.1
479.107	2.19
479.461	2.15
479.814	2.16
480.168	2.24
480.521	2.34
480.875	2.24
481.228	2.15
481.582	2.24
481.935	2.12
482.289	2.19
482.642	2.21
482.995	2.15
483.348	2.22
483.701	2.22
484.055	2.05
484.408	2.11
484.761	2.11
485.114	2.02
485.466	1.99
485.819	2.02
486.172	2.05
486.525	2.07
486.878	2.09
487.23	2.09
487.583	2.13
487.936	2.09
488.288	2.17
488.641	2.08
488.993	2.12
489.345	2.07
489.698	2.09
490.05	2.1
490.402	2.07
490.754	2.16
491.107	2.12
491.459	2.16
491.811	2.16
492.163	2.18
492.515	2.2
492.866	2.15
493.218	2.12
493.57	2.13
493.922	2.12
494.274	2.19
494.625	2.21
494.977	2.24
495.328	2.3
495.68	2.25
496.031	2.22
496.383	2.29
496.734	2.28
497.086	2.31
497.437	2.34
497.788	2.21
498.139	2.26
498.49	2.19
498.842	2.22
499.193	2.32
499.544	2.3
499.894	2.18
500.245	2.33
500.596	2.37
500.947	2.36
501.298	2.24
501.648	2.3
501.999	2.34
502.35	2.38
502.7	2.33
503.051	2.4
503.401	2.38
503.752	2.23
504.102	2.17
504.452	2.41
504.803	2.3
505.153	2.29
505.503	2.43
505.853	2.33
506.203	2.45
506.553	2.31
506.903	2.36
507.253	2.46
507.603	2.32
507.953	2.29
508.303	2.24
508.652	2.44
509.002	2.38
509.352	2.4
509.701	2.51
510.051	2.33
510.4	2.37
510.75	2.25
511.099	2.25
511.449	2.34
511.798	2.41
512.147	2.32
512.496	2.23
512.846	2.55
513.195	2.41
513.544	2.39
513.893	2.25
514.242	2.37
514.591	2.41
514.939	2.42
515.288	2.43
515.637	2.38
515.986	2.3
516.334	2.33
516.683	2.49
517.032	2.48
517.38	2.38
517.729	2.47
518.077	2.39
518.426	2.46
518.774	2.51
519.122	2.54
519.47	2.48
519.819	2.49
520.167	2.41
520.515	2.45
520.863	2.49
521.211	2.42
521.559	2.36
521.907	2.47
522.255	2.37
522.602	2.49
522.95	2.45
523.298	2.53
523.645	2.53
523.993	2.6
524.341	2.62
524.688	2.49
525.036	2.6
525.383	2.57
525.73	2.48
526.078	2.53
526.425	2.52
526.772	2.48
527.119	2.44
527.466	2.54
527.814	2.47
528.161	2.55
528.508	2.51
528.854	2.47
529.201	2.55
529.548	2.51
529.895	2.41
530.242	2.36
530.588	2.42
530.935	2.45
531.282	2.5
531.628	2.45
531.975	2.54
532.321	2.49
532.667	2.55
533.014	2.56
533.36	2.57
533.706	2.6
534.052	2.63
534.399	2.49
534.745	2.54
535.091	2.51
535.437	2.54
535.783	2.55
536.129	2.62
536.474	2.69
536.82	2.64
537.166	2.65
537.512	2.67
537.857	2.69
538.203	2.58
538.549	2.7
538.894	2.7
539.239	2.74
539.585	2.72
539.93	2.77
540.276	2.91
540.621	2.86
540.966	2.92
541.311	2.79
541.656	2.74
542.001	2.74
542.346	2.79
542.691	2.63
543.036	2.67
543.381	2.67
543.726	2.65
544.071	2.7
544.415	2.76
544.76	2.77
545.105	2.73
545.449	2.75
545.794	2.83
546.138	2.79
546.483	2.9
546.827	2.85
547.171	2.91
547.516	2.75
547.86	2.87
548.204	2.87
548.548	2.89
548.892	2.8
549.236	2.9
549.58	2.99
549.924	2.93
550.268	2.98
550.612	3.07
550.956	3.12
551.3	2.93
551.643	2.97
551.987	3.21
552.33	2.98
552.674	2.94
553.017	3.27
553.361	3.08
553.704	3.1
554.048	2.95
554.391	3.11
554.734	3.02
555.077	3.25
555.42	3.03
555.764	3.21
556.107	3.11
556.45	3.21
556.793	3.08
557.135	3.05
557.478	3.24
557.821	3.35
558.164	3.17
558.507	3.22
558.849	3.2
559.192	3.16
559.534	3.27
559.877	3.34
560.219	3.32
560.562	3.33
560.904	3.35
561.246	3.15
561.589	3.4
561.931	3.18
562.273	3.3
562.615	3.21
562.957	3.24
563.299	3.31
563.641	3.15
563.983	3.36
564.325	3.27
564.667	3.46
565.008	3.63
565.35	3.53
565.692	3.28
566.033	3.3
566.375	3.62
566.716	3.57
567.058	3.52
567.399	3.61
567.741	3.57
568.082	3.45
568.423	3.43
568.764	3.73
569.105	3.47
569.447	3.71
569.788	3.64
570.129	3.54
570.47	3.64
570.811	3.66
571.151	3.69
571.492	3.64
571.833	3.66
572.174	3.82
572.514	3.8
572.855	3.74
573.195	3.62
573.536	3.73
573.876	3.78
574.217	3.82
574.557	3.75
574.898	3.8
575.238	3.81
575.578	3.73
575.918	3.81
576.258	3.84
576.598	3.87
576.938	3.91
577.278	3.76
577.618	3.76
577.958	3.85
578.298	4.12
578.638	4
578.977	3.96
579.317	4.14
579.657	4.16
579.996	3.89
580.336	4
580.675	4.06
581.014	4.17
581.354	4.06
581.693	3.83
582.032	4.1
582.372	4.05
582.711	4.05
583.05	3.85
583.389	4.06
583.728	4.21
584.067	4.25
584.406	4.03
584.745	4.37
585.083	4.11
585.422	4.31
585.761	4.32
586.1	4.13
586.438	4.07
586.777	4.28
587.115	4.31
587.454	4.15
587.792	4.37
588.13	4.5
588.469	4.22
588.807	4.5
589.145	4.51
589.483	4.52
589.821	4.62
590.159	4.6
590.497	4.66
590.835	4.62
591.173	4.44
591.511	4.51
591.849	4.26
592.187	4.63
592.524	4.62
592.862	4.54
593.2	4.75
593.537	4.6
593.875	4.92
594.212	4.7
594.55	4.81
594.887	4.55
595.224	4.6
595.561	4.57
595.899	4.51
596.236	4.89
596.573	4.71
596.91	4.64
597.247	4.82
597.584	4.84
597.921	4.99
598.258	4.78
598.594	4.75
598.931	4.64
599.268	4.88
599.604	4.89
599.941	4.88
600.277	5.04
600.614	5.22
600.95	4.57
601.287	5
601.623	5.44
601.959	5.11
602.296	4.94
602.632	4.77
602.968	5.07
603.304	5.07
603.64	5.12
603.976	5.28
604.312	5.27
604.648	5.02
604.984	5.34
605.319	5.26
605.655	5.27
605.991	5.19
606.326	5.31
606.662	5.23
606.998	5.21
607.333	5.22
607.668	5.32
608.004	5.5
608.339	5.48
608.674	5.52
609.01	5.43
609.345	5.28
609.68	5.35
610.015	5.59
610.35	5.52
610.685	5.61
611.02	5.46
611.355	5.56
611.689	5.57
612.024	5.46
612.359	5.59
612.694	5.37
613.028	5.61
613.363	5.6
613.697	5.89
614.032	5.96
614.366	5.68
614.7	5.84
615.035	5.94
615.369	5.59
615.703	6.04
616.037	5.94
616.371	5.6
616.705	5.95
617.039	6.03
617.373	6.01
617.707	6.29
618.041	6.26
618.375	5.52
618.709	6.2
619.042	6.37
619.376	5.92
619.71	6
620.043	6.13
620.377	6.14
620.71	6.19
621.043	6.15
621.377	6.31
621.71	6.09
622.043	6.32
622.376	6.58
622.709	6.17
623.043	6.28
623.376	6.04
623.709	6.45
624.041	6.45
624.374	6
624.707	6.66
625.04	6.7
625.373	6.09
625.705	6.56
626.038	6.91
626.37	6.69
626.703	6.44
627.035	6.47
627.368	6.66
627.7	6.67
628.032	6.6
628.365	6.71
628.697	6.63
629.029	6.73
629.361	6.5
629.693	6.77
630.025	6.91
630.357	6.8
630.689	6.84
631.021	6.83
631.353	7.13
631.684	6.99
632.016	7
632.348	6.75
632.679	6.81
633.011	7.14
633.342	7.51
633.674	6.72
634.005	6.83
634.336	6.99
634.668	7.17
634.999	7.33
635.33	6.95
635.661	7.32
635.992	7.24
636.323	7.14
636.654	7.56
636.985	7.15
637.316	7.12
637.647	7.5
637.977	7.29
638.308	7.53
638.639	7.32
638.969	7.04
639.3	7.73
639.63	7.7
639.961	7.36
640.291	7.73
640.622	7.66
640.952	7.65
641.282	7.33
641.612	7.31
641.943	7.65
642.273	7.5
642.603	7.86
642.933	7.72
643.263	7.74
643.592	7.57
643.922	7.72
644.252	7.86
644.582	8.1
644.911	7.5
645.241	7.97
645.571	7.86
645.9	8.13
646.23	8.26
646.559	7.97
646.888	7.85
647.218	7.78
647.547	7.46
647.876	7.82
648.205	8.16
648.534	8.02
648.863	7.94
649.192	8.07
649.521	8.18
649.85	8.39
650.179	7.86
650.508	8.42
650.837	8.7
651.165	8.08
651.494	8.64
651.822	8.14
652.151	8.22
652.479	8.38
652.808	8.11
653.136	8.27
653.465	8.77
653.793	8.56
654.121	8.36
654.449	8.21
654.777	8.62
655.105	8.43
655.433	8.35
655.761	8.52
656.089	8.31
656.417	8.66
656.745	8.53
657.073	8.26
657.4	8.3
657.728	8.81
658.056	9.18
658.383	8.79
658.711	9.03
659.038	8.94
659.365	9.05
659.693	9.08
660.02	9.83
660.347	9.19
660.674	9.19
661.001	9.07
661.329	8.87
661.656	8.71
661.982	9.08
662.309	8.9
662.636	9.38
662.963	9.11
663.29	8.97
663.616	8.88
663.943	9.06
664.27	9.19
664.596	9.45
664.923	9.33
665.249	9.91
665.576	9.65
665.902	9.09
666.228	9.24
666.554	8.84
666.881	9.37
667.207	9.7
667.533	9.91
667.859	10.12
668.185	9.51
668.511	9.73
668.837	10.18
669.162	10.03
669.488	9.39
669.814	9.47
670.139	9.46
670.465	9.77
670.791	9.67
671.116	10.17
671.442	10.05
671.767	10.11
672.092	9.79
672.418	9.75
672.743	9.57
673.068	9.92
673.393	10.55
673.718	10
674.043	9.95
674.368	10.25
674.693	9.28
675.018	9.85
675.343	10.25
675.667	10.74
675.992	10.59
676.317	10.02
676.641	10.02
676.966	10.78
677.29	10.07
677.615	10.4
677.939	10.02
678.264	10.81
678.588	10.16
678.912	10.18
679.236	10.64
679.56	10.88
679.885	10.29
680.209	10.6
680.532	11.1
680.856	10.87
681.18	10.74
681.504	10.29
681.828	11.11
682.152	10.37
682.475	10.35
682.799	9.94
683.122	10.35
683.446	10.73
683.769	10.68
684.093	11.36
684.416	10.72
684.739	11.17
685.062	10.86
685.386	11.28
685.709	11.03
686.032	10.85
686.355	11.78
686.678	11.43
687.001	10.53
687.324	11.47
687.646	10.54
687.969	11.09
688.292	12.12
688.614	10.85
688.937	10.6
689.26	10.6
689.582	11.55
689.904	10.88
690.227	11.43
690.549	11.41
690.871	11.62
691.194	11.36
691.516	10.98
