Data from 20-11_chest_Reflection__2__47.txt Node

Date: Fri Nov 11 20:34:50 CST 2022
User: ToomeyLab
Spectrometer: FLMS14357
Trigger mode: 0
Integration Time (sec): 1.000000E-2
Scans to average: 100
Electric dark correction enabled: true
Nonlinearity correction enabled: false
Boxcar width: 0
XAxis mode: Wavelengths
Number of Pixels in Spectrum: 2048
>>>>>Begin Spectral Data<<<<<
189.047	-1038.46
189.435	-1038.46
189.823	-1038.46
190.211	137.34
190.599	-125.83
190.987	596.59
191.375	48233.33
191.763	-343.54
192.151	4.2
192.538	-8.17
192.926	59.02
193.314	439.64
193.702	-119.29
194.089	190.65
194.477	25.21
194.864	21.08
195.252	70.04
195.639	153.13
196.027	-95.89
196.414	-472.58
196.801	-48.23
197.189	119.52
197.576	94.12
197.963	-53.31
198.351	-82.08
198.738	6.19
199.125	35.01
199.512	26.62
199.899	-121.23
200.286	43.3
200.673	-30.28
201.06	57.23
201.447	29.51
201.833	35.24
202.22	-46.7
202.607	16.5
202.994	17.25
203.38	19.3
203.767	49.21
204.154	21.27
204.54	28.37
204.927	22.24
205.313	23.73
205.699	-33.61
206.086	35.4
206.472	19.53
206.858	7.8
207.245	37.95
207.631	-10.53
208.017	15.53
208.403	20.68
208.789	19.45
209.175	30.6
209.561	32.4
209.947	3.81
210.333	6.31
210.719	15.74
211.105	39.85
211.491	21.45
211.876	22.68
212.262	45.49
212.648	3
213.034	4.45
213.419	-10.29
213.805	-14.14
214.19	-6.93
214.576	35.46
214.961	-21.05
215.346	9.21
215.732	-6.41
216.117	34.81
216.502	12.37
216.888	8.35
217.273	16.65
217.658	-31.1
218.043	19.27
218.428	14.25
218.813	21.62
219.198	1.83
219.583	14.81
219.968	8.29
220.353	-3.71
220.738	-20.86
221.122	15.77
221.507	-20.9
221.892	16.02
222.276	28.62
222.661	7.69
223.046	-8.69
223.43	-4.5
223.815	0.87
224.199	-3.51
224.583	-0.04
224.968	5.91
225.352	9.47
225.736	0.24
226.121	6.76
226.505	2.78
226.889	-6.77
227.273	6.76
227.657	0.22
228.041	-0.55
228.425	2.92
228.809	2.29
229.193	4.7
229.577	3.69
229.961	3.05
230.344	2.63
230.728	0.97
231.112	0.68
231.495	2
231.879	1.1
232.263	1.01
232.646	1.39
233.03	3.34
233.413	2.34
233.797	3.93
234.18	1.6
234.563	4.22
234.946	1.17
235.33	2.97
235.713	1.71
236.096	1.51
236.479	1.17
236.862	3.79
237.245	2.85
237.628	3.28
238.011	2.3
238.394	2.82
238.777	3.67
239.16	2.68
239.543	-0.01
239.925	2.68
240.308	2.62
240.691	3.26
241.073	0.7
241.456	1.36
241.838	2.45
242.221	2.12
242.603	2
242.986	1.13
243.368	1.37
243.75	1.5
244.133	1.6
244.515	1.7
244.897	1.99
245.279	1.27
245.661	1.89
246.043	1.73
246.425	2.29
246.807	1.7
247.189	1.69
247.571	1.68
247.953	1.48
248.335	1.6
248.717	1.78
249.098	1.98
249.48	1.6
249.862	1.72
250.243	1.72
250.625	1.76
251.006	2
251.388	1.99
251.769	2.23
252.151	2.08
252.532	1.93
252.913	2.01
253.295	1.86
253.676	1.46
254.057	1.57
254.438	1.59
254.819	1.75
255.2	2.52
255.581	1.12
255.962	1.73
256.343	1.29
256.724	1.3
257.105	2.28
257.486	1.86
257.867	2.84
258.247	0.82
258.628	1.05
259.009	0.99
259.389	1.72
259.77	2.38
260.15	1.59
260.531	1.23
260.911	1.68
261.292	1.71
261.672	1.52
262.052	1.53
262.432	1.69
262.813	1.53
263.193	1.1
263.573	1.95
263.953	2.16
264.333	1.75
264.713	1.25
265.093	1.84
265.473	0.65
265.853	1.96
266.233	0.87
266.612	1.17
266.992	1.34
267.372	2.76
267.752	1.93
268.131	1.36
268.511	1.78
268.89	1.41
269.27	1.5
269.649	1.35
270.029	1.91
270.408	1.64
270.787	0.8
271.167	0.5
271.546	0.97
271.925	1.65
272.304	1.73
272.683	1.36
273.062	1
273.441	1.3
273.82	1.77
274.199	1.5
274.578	1.21
274.957	1.45
275.336	1.84
275.715	1.96
276.093	1.82
276.472	1.23
276.851	1.6
277.229	1.82
277.608	1.15
277.986	1.84
278.365	1.32
278.743	1.77
279.122	1.94
279.5	1.33
279.878	1.85
280.257	1.56
280.635	1.43
281.013	1.55
281.391	1.48
281.769	1.44
282.147	1.53
282.525	0.96
282.903	1.05
283.281	1.59
283.659	1.85
284.037	1.82
284.415	1.47
284.792	1.95
285.17	1.74
285.548	1.52
285.925	1.22
286.303	1.71
286.68	1.89
287.058	1.48
287.435	1.71
287.813	1.61
288.19	1.12
288.567	1.47
288.945	1.77
289.322	1.96
289.699	0.96
290.076	1.68
290.453	1.81
290.83	1.25
291.207	1.7
291.584	1.67
291.961	1.44
292.338	1.5
292.715	1.72
293.092	1.43
293.469	1.41
293.845	1.35
294.222	1.51
294.599	2.13
294.975	1.68
295.352	1.38
295.728	1.63
296.105	1.37
296.481	0.57
296.858	1.29
297.234	1.34
297.61	1.26
297.986	1.77
298.363	1.71
298.739	1.86
299.115	1.63
299.491	1.79
299.867	1.32
300.243	1.39
300.619	1.41
300.995	1.6
301.371	2.13
301.746	1.99
302.122	1.64
302.498	1.73
302.874	1.73
303.249	1.85
303.625	1.64
304	1.22
304.376	1.69
304.751	1.21
305.127	1.46
305.502	1.96
305.878	2.11
306.253	1.57
306.628	1.49
307.003	1.2
307.378	1.43
307.754	1.83
308.129	1.84
308.504	1.55
308.879	1.78
309.254	1.64
309.629	1.67
310.003	1.79
310.378	1.99
310.753	2.09
311.128	1.78
311.502	1.75
311.877	1.77
312.252	1.62
312.626	1.64
313.001	1.47
313.375	1.49
313.75	1.51
314.124	1.11
314.498	1.5
314.873	1.54
315.247	1.72
315.621	1.72
315.995	1.61
316.369	1.54
316.743	1.4
317.117	1.67
317.491	1.3
317.865	0.87
318.239	1.74
318.613	1.88
318.987	1.49
319.361	1.44
319.734	2.15
320.108	1.8
320.482	2.33
320.855	1.45
321.229	1.59
321.602	1.56
321.976	1.49
322.349	1.99
322.723	2.08
323.096	1.73
323.469	2.02
323.843	2.07
324.216	1.27
324.589	2.06
324.962	2.17
325.335	1.4
325.708	1.75
326.081	1.79
326.454	1.1
326.827	1.2
327.2	2.11
327.573	2.57
327.945	1.59
328.318	1.42
328.691	2.01
329.063	1.93
329.436	1.12
329.809	1.76
330.181	1.6
330.553	1.38
330.926	1.97
331.298	1.7
331.671	1.62
332.043	0.97
332.415	1.48
332.787	2.25
333.159	1.59
333.532	1.83
333.904	2.03
334.276	1.94
334.648	1.19
335.02	1.82
335.391	1.93
335.763	1.82
336.135	1.36
336.507	1.77
336.879	1.74
337.25	1.54
337.622	2.08
337.993	2.08
338.365	1.87
338.736	1.98
339.108	1.81
339.479	1.55
339.851	1.67
340.222	1.79
340.593	1.99
340.964	1.5
341.336	2.12
341.707	1.54
342.078	1.28
342.449	1.92
342.82	2.03
343.191	2.07
343.562	1.6
343.933	1.61
344.303	1.63
344.674	1.56
345.045	1.48
345.416	1.49
345.786	1.32
346.157	1.79
346.527	2.15
346.898	1.27
347.268	1.48
347.639	1.63
348.009	1.68
348.38	1.71
348.75	1.72
349.12	2.42
349.49	2.05
349.861	1.54
350.231	2.09
350.601	1.86
350.971	1.62
351.341	2.02
351.711	1.76
352.081	1.93
352.45	1.84
352.82	1.82
353.19	1.85
353.56	1.87
353.929	1.92
354.299	1.54
354.669	1.51
355.038	1.45
355.408	1.7
355.777	1.73
356.147	1.86
356.516	1.6
356.885	1.73
357.254	1.57
357.624	1.1
357.993	1.93
358.362	1.94
358.731	1.51
359.1	1.61
359.469	1.42
359.838	1.55
360.207	1.68
360.576	1.79
360.945	1.97
361.314	1.51
361.682	1.8
362.051	1.84
362.42	1.91
362.788	1.83
363.157	1.63
363.525	1.53
363.894	1.68
364.262	1.98
364.631	2.1
364.999	1.77
365.367	1.92
365.735	1.61
366.104	1.37
366.472	1.72
366.84	1.46
367.208	1.5
367.576	1.92
367.944	2.01
368.312	1.57
368.68	1.69
369.048	1.58
369.416	1.51
369.783	1.8
370.151	1.42
370.519	1.79
370.886	1.91
371.254	1.89
371.621	1.82
371.989	1.56
372.356	1.96
372.724	2.12
373.091	1.89
373.458	1.94
373.826	1.93
374.193	1.45
374.56	1.5
374.927	1.86
375.294	1.8
375.661	1.93
376.028	1.55
376.395	1.83
376.762	2.12
377.129	1.94
377.496	1.6
377.863	1.81
378.229	1.9
378.596	1.57
378.963	1.96
379.329	1.55
379.696	1.69
380.062	1.8
380.429	1.88
380.795	2.07
381.161	2.09
381.528	1.82
381.894	1.85
382.26	1.85
382.626	2.03
382.993	1.62
383.359	1.97
383.725	1.64
384.091	2.07
384.457	1.75
384.823	1.65
385.188	1.66
385.554	1.69
385.92	1.59
386.286	1.72
386.651	1.89
387.017	1.69
387.383	1.94
387.748	1.66
388.114	1.75
388.479	1.5
388.845	1.96
389.21	1.58
389.575	1.96
389.94	1.94
390.306	1.69
390.671	1.95
391.036	1.97
391.401	1.66
391.766	1.85
392.131	1.56
392.496	1.9
392.861	1.62
393.226	1.84
393.591	1.94
393.956	1.83
394.32	1.84
394.685	1.83
395.05	2.14
395.414	1.79
395.779	1.8
396.143	1.88
396.508	1.88
396.872	1.89
397.236	1.89
397.601	1.61
397.965	1.98
398.329	2.01
398.694	2.06
399.058	1.8
399.422	2.15
399.786	1.76
400.15	1.83
400.514	1.76
400.878	1.77
401.242	1.67
401.605	1.9
401.969	2.06
402.333	1.73
402.697	1.84
403.06	2.05
403.424	1.83
403.787	1.8
404.151	1.68
404.514	1.76
404.878	1.86
405.241	1.75
405.604	1.76
405.968	1.89
406.331	1.57
406.694	1.78
407.057	1.9
407.42	1.86
407.783	1.95
408.146	2.07
408.509	2
408.872	2.06
409.235	2.05
409.598	1.96
409.961	1.98
410.323	1.78
410.686	1.95
411.049	1.7
411.411	1.64
411.774	1.72
412.136	1.9
412.499	1.84
412.861	1.86
413.223	1.88
413.586	1.85
413.948	2.06
414.31	1.95
414.672	1.87
415.035	1.92
415.397	1.69
415.759	1.87
416.121	1.77
416.483	1.76
416.845	2.02
417.206	1.73
417.568	1.83
417.93	1.84
418.292	1.7
418.653	1.93
419.015	1.88
419.377	1.95
419.738	1.96
420.1	1.89
420.461	1.94
420.822	1.86
421.184	1.79
421.545	1.84
421.906	1.81
422.267	1.83
422.629	1.77
422.99	1.91
423.351	1.77
423.712	1.78
424.073	1.85
424.434	1.97
424.795	1.95
425.155	1.8
425.516	1.79
425.877	1.89
426.238	1.86
426.598	1.77
426.959	1.77
427.32	1.92
427.68	1.92
428.041	2.09
428.401	1.8
428.761	1.95
429.122	1.76
429.482	1.81
429.842	1.77
430.202	1.88
430.563	2.05
430.923	2.03
431.283	1.9
431.643	1.77
432.003	2
432.363	1.77
432.722	2.04
433.082	1.98
433.442	1.97
433.802	1.99
434.161	1.9
434.521	2.05
434.881	2.05
435.24	1.96
435.6	1.89
435.959	1.95
436.319	1.79
436.678	2.01
437.037	1.88
437.396	2.11
437.756	1.84
438.115	1.88
438.474	1.88
438.833	2.11
439.192	2.05
439.551	2.03
439.91	2.01
440.269	1.99
440.628	2.02
440.987	1.88
441.345	1.92
441.704	1.96
442.063	1.93
442.421	1.97
442.78	1.89
443.138	2.04
443.497	1.9
443.855	1.95
444.214	1.87
444.572	1.95
444.93	2.02
445.288	1.92
445.647	2.05
446.005	1.96
446.363	1.96
446.721	2.03
447.079	2
447.437	1.9
447.795	1.99
448.153	1.91
448.51	1.93
448.868	2.02
449.226	1.97
449.584	1.88
449.941	1.96
450.299	1.89
450.656	2.17
451.014	2.06
451.371	2.04
451.729	2.02
452.086	2.05
452.443	1.94
452.801	2.03
453.158	1.89
453.515	2.05
453.872	1.99
454.229	2.05
454.586	1.86
454.943	2.07
455.3	2
455.657	2.13
456.014	2.06
456.371	2.04
456.727	2.06
457.084	1.75
457.441	2.16
457.797	2.01
458.154	2.04
458.51	2.07
458.867	2.09
459.223	2.13
459.58	2.04
459.936	2
460.292	2.22
460.648	2.06
461.005	2.07
461.361	1.96
461.717	1.94
462.073	2.09
462.429	2.03
462.785	2
463.141	2.01
463.496	2.03
463.852	2.18
464.208	2.02
464.564	2.07
464.919	1.99
465.275	1.89
465.631	2.01
465.986	2.23
466.342	2.11
466.697	2.04
467.052	2.1
467.408	2.1
467.763	2.12
468.118	2.22
468.473	2.1
468.829	2.17
469.184	2.14
469.539	2.13
469.894	2.16
470.249	2.17
470.603	2.11
470.958	2.12
471.313	2.13
471.668	2.28
472.023	1.96
472.377	2.16
472.732	2.06
473.086	2.09
473.441	2.04
473.795	2.17
474.15	2.09
474.504	2.08
474.859	2.14
475.213	2.16
475.567	2.15
475.921	2.15
476.275	2.23
476.63	2.22
476.984	2.27
477.338	2.22
477.692	2.03
478.045	1.98
478.399	2.22
478.753	1.97
479.107	2.12
479.461	2.15
479.814	2.08
480.168	2.1
480.521	2.2
480.875	2.26
481.228	2.19
481.582	2.16
481.935	2.05
482.289	2.09
482.642	2.14
482.995	2.17
483.348	2.11
483.701	2.16
484.055	2.12
484.408	2.11
484.761	1.99
485.114	1.97
485.466	1.94
485.819	1.95
486.172	1.96
486.525	2.04
486.878	2.04
487.23	1.99
487.583	2.04
487.936	2.08
488.288	2.1
488.641	2.04
488.993	2.03
489.345	1.96
489.698	2.05
490.05	2.03
490.402	2.03
490.754	2.08
491.107	2.01
491.459	2.07
491.811	2.15
492.163	2.16
492.515	2.23
492.866	2.08
493.218	2.08
493.57	2.09
493.922	2.08
494.274	2.16
494.625	2.15
494.977	2.17
495.328	2.2
495.68	2.15
496.031	2.18
496.383	2.23
496.734	2.26
497.086	2.24
497.437	2.3
497.788	2.13
498.139	2.21
498.49	2.23
498.842	2.16
499.193	2.21
499.544	2.24
499.894	2.18
500.245	2.33
500.596	2.35
500.947	2.23
501.298	2.26
501.648	2.22
501.999	2.23
502.35	2.32
502.7	2.32
503.051	2.24
503.401	2.23
503.752	2.19
504.102	2.2
504.452	2.31
504.803	2.21
505.153	2.27
505.503	2.35
505.853	2.29
506.203	2.39
506.553	2.17
506.903	2.19
507.253	2.39
507.603	2.3
507.953	2.3
508.303	2.25
508.652	2.24
509.002	2.28
509.352	2.34
509.701	2.39
510.051	2.34
510.4	2.27
510.75	2.23
511.099	2.2
511.449	2.23
511.798	2.37
512.147	2.25
512.496	2.22
512.846	2.39
513.195	2.35
513.544	2.3
513.893	2.25
514.242	2.29
514.591	2.37
514.939	2.31
515.288	2.28
515.637	2.4
515.986	2.29
516.334	2.32
516.683	2.33
517.032	2.5
517.38	2.41
517.729	2.43
518.077	2.35
518.426	2.4
518.774	2.37
519.122	2.37
519.47	2.37
519.819	2.35
520.167	2.34
520.515	2.35
520.863	2.4
521.211	2.28
521.559	2.35
521.907	2.46
522.255	2.42
522.602	2.49
522.95	2.41
523.298	2.44
523.645	2.46
523.993	2.4
524.341	2.54
524.688	2.48
525.036	2.49
525.383	2.52
525.73	2.41
526.078	2.52
526.425	2.45
526.772	2.49
527.119	2.33
527.466	2.48
527.814	2.44
528.161	2.48
528.508	2.47
528.854	2.39
529.201	2.37
529.548	2.41
529.895	2.37
530.242	2.31
530.588	2.34
530.935	2.35
531.282	2.43
531.628	2.43
531.975	2.43
532.321	2.39
532.667	2.56
533.014	2.54
533.36	2.47
533.706	2.53
534.052	2.52
534.399	2.48
534.745	2.48
535.091	2.5
535.437	2.47
535.783	2.45
536.129	2.56
536.474	2.53
536.82	2.51
537.166	2.54
537.512	2.52
537.857	2.56
538.203	2.54
538.549	2.66
538.894	2.57
539.239	2.58
539.585	2.66
539.93	2.6
540.276	2.77
540.621	2.68
540.966	2.74
541.311	2.64
541.656	2.63
542.001	2.61
542.346	2.72
542.691	2.57
543.036	2.56
543.381	2.6
543.726	2.54
544.071	2.62
544.415	2.7
544.76	2.7
545.105	2.61
545.449	2.63
545.794	2.72
546.138	2.72
546.483	2.79
546.827	2.83
547.171	2.81
547.516	2.72
547.86	2.7
548.204	2.86
548.548	2.67
548.892	2.82
549.236	2.75
549.58	2.83
549.924	2.8
550.268	2.91
550.612	2.98
550.956	3.08
551.3	2.93
551.643	3.02
551.987	3
552.33	2.9
552.674	2.9
553.017	3.01
553.361	3.04
553.704	2.96
554.048	2.93
554.391	3.05
554.734	2.97
555.077	3.11
555.42	2.93
555.764	3.09
556.107	3.1
556.45	3.2
556.793	3.06
557.135	2.93
557.478	2.97
557.821	3.16
558.164	3.16
558.507	3.14
558.849	3.2
559.192	3.02
559.534	3.22
559.877	3.24
560.219	3.14
560.562	3.03
560.904	3.31
561.246	3.21
561.589	3.07
561.931	3.01
562.273	3.18
562.615	3.25
562.957	3.27
563.299	3.1
563.641	3.05
563.983	3.22
564.325	3.14
564.667	3.32
565.008	3.41
565.35	3.26
565.692	3.16
566.033	3.35
566.375	3.47
566.716	3.39
567.058	3.39
567.399	3.46
567.741	3.44
568.082	3.44
568.423	3.41
568.764	3.48
569.105	3.39
569.447	3.61
569.788	3.49
570.129	3.31
570.47	3.45
570.811	3.39
571.151	3.79
571.492	3.63
571.833	3.57
572.174	3.62
572.514	3.67
572.855	3.64
573.195	3.3
573.536	3.51
573.876	3.63
574.217	3.72
574.557	3.53
574.898	3.53
575.238	3.5
575.578	3.61
575.918	3.79
576.258	3.81
576.598	3.77
576.938	3.65
577.278	3.62
577.618	3.75
577.958	3.7
578.298	3.77
578.638	3.82
578.977	3.76
579.317	3.93
579.657	3.83
579.996	3.8
580.336	3.83
580.675	4.07
581.014	3.93
581.354	3.91
581.693	3.89
582.032	3.83
582.372	4.04
582.711	4.01
583.05	4.05
583.389	4.15
583.728	4.12
584.067	4.12
584.406	3.96
584.745	4.3
585.083	4.11
585.422	3.97
585.761	4.16
586.1	4.15
586.438	4.02
586.777	4.16
587.115	4.29
587.454	4.09
587.792	4.2
588.13	4.34
588.469	4.17
588.807	4.23
589.145	4.36
589.483	4.54
589.821	4.33
590.159	4.51
590.497	4.8
590.835	4.46
591.173	4.5
591.511	4.41
591.849	4.22
592.187	4.42
592.524	4.41
592.862	4.37
593.2	4.62
593.537	4.57
593.875	4.91
594.212	4.46
594.55	4.55
594.887	4.65
595.224	4.46
595.561	4.58
595.899	4.47
596.236	4.68
596.573	4.68
596.91	4.68
597.247	4.65
597.584	4.67
597.921	4.77
598.258	4.51
598.594	4.7
598.931	4.66
599.268	4.69
599.604	4.81
599.941	4.66
600.277	4.94
600.614	4.98
600.95	4.54
601.287	4.93
601.623	5.31
601.959	5.05
602.296	4.84
602.632	5.01
602.968	5.06
603.304	5.05
603.64	5.12
603.976	5.06
604.312	5.09
604.648	4.84
604.984	5.14
605.319	5.23
605.655	5.07
605.991	5.07
606.326	5.27
606.662	5.14
606.998	5.1
607.333	5.19
607.668	5.13
608.004	5.32
608.339	5.23
608.674	5.42
609.01	5.53
609.345	5.33
609.68	5.22
610.015	5.39
610.35	5.2
610.685	5.57
611.02	5.44
611.355	5.39
611.689	5.32
612.024	5.45
612.359	5.42
612.694	5.32
613.028	5.66
613.363	5.47
613.697	5.61
614.032	5.68
614.366	5.56
614.7	5.6
615.035	5.54
615.369	5.46
615.703	5.47
616.037	5.88
616.371	5.72
616.705	6.05
617.039	5.73
617.373	5.57
617.707	5.88
618.041	6.09
618.375	5.73
618.709	6.49
619.042	5.88
619.376	6.07
619.71	6.22
620.043	6.15
620.377	6.03
620.71	5.81
621.043	6.07
621.377	6.09
621.71	5.99
622.043	6.19
622.376	6.4
622.709	6.27
623.043	6.19
623.376	6.3
623.709	6.55
624.041	6.48
624.374	6.1
624.707	6.47
625.04	6.23
625.373	5.89
625.705	5.93
626.038	6.25
626.37	6.49
626.703	6.25
627.035	6.57
627.368	6.32
627.7	6.21
628.032	6.38
628.365	6.62
628.697	6.56
629.029	6.59
629.361	6.4
629.693	6.43
630.025	6.63
630.357	6.4
630.689	6.34
631.021	6.71
631.353	6.95
631.684	6.67
632.016	6.49
632.348	6.7
632.679	6.42
633.011	6.91
633.342	6.6
633.674	6.51
634.005	6.65
634.336	7.14
634.668	7.11
634.999	6.67
635.33	6.85
635.661	7.43
635.992	7.27
636.323	7.19
636.654	7.1
636.985	7.1
637.316	7.34
637.647	7.43
637.977	7.43
638.308	7.23
638.639	7.12
638.969	7.25
639.3	7.21
639.63	7.55
639.961	7.64
640.291	7.88
640.622	7.89
640.952	7.53
641.282	7.27
641.612	7.18
641.943	7.94
642.273	7.37
642.603	7.88
642.933	7.55
643.263	7.6
643.592	8
643.922	7.77
644.252	7.58
644.582	7.82
644.911	7.58
645.241	7.55
645.571	7.61
645.9	8.14
646.23	8.27
646.559	7.78
646.888	7.92
647.218	8.05
647.547	7.88
647.876	7.83
648.205	8.17
648.534	8.17
648.863	7.87
649.192	8.24
649.521	8.07
649.85	8.47
650.179	8.2
650.508	7.92
650.837	8.36
651.165	8.21
651.494	8.74
651.822	8.07
652.151	8.26
652.479	8.11
652.808	8.08
653.136	8.04
653.465	8.3
653.793	8.75
654.121	8.1
654.449	8.22
654.777	8.4
655.105	8.39
655.433	9.22
655.761	8.57
656.089	8.42
656.417	8.54
656.745	8.49
657.073	8.26
657.4	8.77
657.728	8.96
658.056	8.98
658.383	8.66
658.711	8.36
659.038	8.76
659.365	8.89
659.693	8.71
660.02	9.19
660.347	9.04
660.674	8.9
661.001	9.03
661.329	8.77
661.656	8.84
661.982	9.3
662.309	8.92
662.636	9.07
662.963	8.9
663.29	9.06
663.616	8.59
663.943	8.91
664.27	9.37
664.596	9.09
664.923	9.14
665.249	9.27
665.576	9.94
665.902	9.79
666.228	9.59
666.554	9.55
666.881	9.67
667.207	9.53
667.533	9.72
667.859	9.81
668.185	9.25
668.511	9.01
668.837	9.93
669.162	9.79
669.488	9.66
669.814	9.13
670.139	9.55
670.465	9.93
670.791	9.91
671.116	9.47
671.442	9.59
671.767	9.79
672.092	10.05
672.418	10.03
672.743	9.44
673.068	10.25
673.393	10.23
673.718	10.29
674.043	9.82
674.368	10.24
674.693	9.33
675.018	10.28
675.343	10.84
675.667	10.89
675.992	10.58
676.317	10.18
676.641	9.61
676.966	10.76
677.29	10.05
677.615	10.04
677.939	10.43
678.264	10.44
678.588	10.39
678.912	11.02
679.236	10.84
679.56	11.31
679.885	10.59
680.209	10.33
680.532	10.93
680.856	10.88
681.18	10.9
681.504	10.62
681.828	10.64
682.152	10.54
682.475	10.92
682.799	10.45
683.122	10.53
683.446	11.45
683.769	10.91
684.093	10.95
684.416	10.99
684.739	11.28
685.062	10.52
685.386	11.67
685.709	11.31
686.032	10.76
686.355	10.76
686.678	10.91
687.001	10.5
687.324	11.51
687.646	10.41
687.969	11.75
688.292	11.95
688.614	11.52
688.937	11.27
689.26	10.83
689.582	11.82
689.904	11.25
690.227	11.49
690.549	11.27
690.871	11.45
691.194	11.4
691.516	10.86
