Data from 0007_crown_Reflection__2__293.txt Node

Date: Thu Dec 15 18:59:57 CST 2022
User: ToomeyLab
Spectrometer: FLMS14357
Trigger mode: 0
Integration Time (sec): 1.000000E-2
Scans to average: 100
Electric dark correction enabled: true
Nonlinearity correction enabled: false
Boxcar width: 0
XAxis mode: Wavelengths
Number of Pixels in Spectrum: 2048
>>>>>Begin Spectral Data<<<<<
189.047	-53.79
189.435	-53.79
189.823	-53.79
190.211	28.51
190.599	26.43
190.987	110.15
191.375	-10.34
191.763	44.46
192.151	76.93
192.538	800.69
192.926	133.77
193.314	-6.45
193.702	24.24
194.089	-74.79
194.477	525.52
194.864	306.17
195.252	-276.54
195.639	97.15
196.027	216.52
196.414	-4.49
196.801	-153.43
197.189	-27.82
197.576	-191.94
197.963	88.37
198.351	-34.34
198.738	-30.08
199.125	-47.24
199.512	32.61
199.899	-46.11
200.286	7.46
200.673	54.55
201.06	-31.11
201.447	-7.74
201.833	-40.77
202.22	-35.94
202.607	-52.62
202.994	-0.36
203.38	4.79
203.767	-27.91
204.154	-2.71
204.54	-1.96
204.927	-3.58
205.313	17.72
205.699	0.27
206.086	13.57
206.472	18.01
206.858	-17
207.245	31.39
207.631	1.42
208.017	39.37
208.403	-22.8
208.789	0.43
209.175	-95.68
209.561	-56.4
209.947	32.64
210.333	-12.34
210.719	-5.83
211.105	20.54
211.491	-34.25
211.876	-46.76
212.262	0.76
212.648	-7.21
213.034	-56.17
213.419	-11.85
213.805	-32.36
214.19	-11.79
214.576	-17.45
214.961	-7.96
215.346	-68.03
215.732	-13.44
216.117	19.01
216.502	-26.5
216.888	10.45
217.273	14.12
217.658	-9.11
218.043	-48.93
218.428	-21.66
218.813	5.72
219.198	-39.67
219.583	-23.11
219.968	-14.57
220.353	-23.23
220.738	-17.8
221.122	-8.55
221.507	-15.55
221.892	-14.21
222.276	-38.91
222.661	-27.39
223.046	-17.1
223.43	8.74
223.815	-2.91
224.199	-11.39
224.583	1.27
224.968	-4.74
225.352	-11.59
225.736	1.39
226.121	-3.3
226.505	-9.02
226.889	-5.11
227.273	-5.91
227.657	0.86
228.041	4.42
228.425	2.62
228.809	-0.17
229.193	2.28
229.577	2.62
229.961	2.55
230.344	3.59
230.728	3.87
231.112	3.97
231.495	2.64
231.879	3.9
232.263	2.54
232.646	3.62
233.03	3.82
233.413	3.18
233.797	-0.38
234.18	1.39
234.563	3.81
234.946	1.01
235.33	2.55
235.713	4.49
236.096	3.44
236.479	4.12
236.862	2.21
237.245	3.27
237.628	1.96
238.011	2.91
238.394	2.08
238.777	3.52
239.16	4.18
239.543	3.13
239.925	2.42
240.308	2.31
240.691	2.82
241.073	3.62
241.456	2.32
241.838	3.29
242.221	3.81
242.603	3.91
242.986	3.27
243.368	3.66
243.75	3.67
244.133	3.87
244.515	3.01
244.897	2.99
245.279	3.17
245.661	3.19
246.043	3.42
246.425	2.42
246.807	3.06
247.189	3.27
247.571	3.11
247.953	3.05
248.335	3.54
248.717	3.47
249.098	3.66
249.48	3.45
249.862	3.68
250.243	3.34
250.625	3.5
251.006	3.68
251.388	3.06
251.769	2.88
252.151	2.88
252.532	3.26
252.913	2.93
253.295	2.5
253.676	3.21
254.057	3.02
254.438	3.38
254.819	2.93
255.2	4.04
255.581	4.89
255.962	3.82
256.343	3.79
256.724	3.32
257.105	3.42
257.486	2.06
257.867	2.37
258.247	3.48
258.628	3.42
259.009	3.13
259.389	2.64
259.77	3.19
260.15	3.84
260.531	3.44
260.911	3.2
261.292	3.45
261.672	3.28
262.052	3.39
262.432	2.95
262.813	3.55
263.193	3.3
263.573	3.48
263.953	3.11
264.333	3.79
264.713	3.11
265.093	3.34
265.473	2.68
265.853	3.19
266.233	2.5
266.612	3.05
266.992	2.46
267.372	3.46
267.752	3.63
268.131	3.14
268.511	2.72
268.89	3.96
269.27	2.62
269.649	2.62
270.029	2.35
270.408	2.43
270.787	3.15
271.167	3.61
271.546	2.95
271.925	3.75
272.304	3.02
272.683	3.14
273.062	3.03
273.441	3.24
273.82	3.11
274.199	3.06
274.578	3
274.957	3.08
275.336	3.6
275.715	3.41
276.093	2.71
276.472	2.76
276.851	3.14
277.229	2.7
277.608	2.68
277.986	3.45
278.365	3.32
278.743	2.84
279.122	3.01
279.5	2.66
279.878	2.42
280.257	2.9
280.635	2.91
281.013	2.54
281.391	3.13
281.769	3.08
282.147	2.79
282.525	3.12
282.903	3.19
283.281	3.28
283.659	2.78
284.037	3.01
284.415	3.23
284.792	2.89
285.17	3.26
285.548	2.75
285.925	2.89
286.303	3.43
286.68	3.16
287.058	2.99
287.435	2.7
287.813	3.05
288.19	2.74
288.567	2.97
288.945	2.72
289.322	2.99
289.699	2.86
290.076	2.36
290.453	2.52
290.83	2.91
291.207	3.03
291.584	3.14
291.961	2.89
292.338	2.92
292.715	2.89
293.092	3.08
293.469	3.01
293.845	3.28
294.222	3.48
294.599	2.52
294.975	2.43
295.352	2.9
295.728	2.78
296.105	3.24
296.481	3.18
296.858	2.96
297.234	2.81
297.61	2.91
297.986	3.29
298.363	2.97
298.739	3.01
299.115	3.1
299.491	3.29
299.867	2.82
300.243	2.73
300.619	2.88
300.995	3.07
301.371	3.1
301.746	2.99
302.122	2.79
302.498	2.87
302.874	2.94
303.249	2.69
303.625	2.67
304	2.97
304.376	3.29
304.751	3.27
305.127	2.54
305.502	3.04
305.878	2.94
306.253	2.8
306.628	2.85
307.003	3.05
307.378	2.69
307.754	3.05
308.129	2.83
308.504	2.85
308.879	2.78
309.254	3.08
309.629	3.19
310.003	2.87
310.378	3.02
310.753	2.81
311.128	2.74
311.502	3.01
311.877	3.07
312.252	3.24
312.626	3.21
313.001	2.98
313.375	3.34
313.75	3.3
314.124	3.27
314.498	2.99
314.873	3.05
315.247	2.91
315.621	2.77
315.995	3.3
316.369	2.99
316.743	2.39
317.117	3.21
317.491	3.07
317.865	2.92
318.239	3.47
318.613	2.85
318.987	2.84
319.361	2.91
319.734	3.16
320.108	2.3
320.482	2.95
320.855	2.98
321.229	3.19
321.602	3.09
321.976	2.48
322.349	3.35
322.723	2.71
323.096	2.93
323.469	2.65
323.843	2.89
324.216	2.79
324.589	2.63
324.962	2.7
325.335	2.8
325.708	3.18
326.081	3.14
326.454	3.26
326.827	3.2
327.2	2.57
327.573	3.44
327.945	2.61
328.318	2.89
328.691	2.92
329.063	2.4
329.436	2.56
329.809	3.15
330.181	3.88
330.553	3.4
330.926	3.39
331.298	2.99
331.671	3.09
332.043	2.91
332.415	2.93
332.787	2.96
333.159	2.93
333.532	3.11
333.904	3.23
334.276	2.98
334.648	3.23
335.02	3.37
335.391	3.16
335.763	3.11
336.135	3.22
336.507	3.38
336.879	2.96
337.25	3.1
337.622	3.3
337.993	3.58
338.365	3.11
338.736	2.98
339.108	3.26
339.479	3.23
339.851	3.09
340.222	3.12
340.593	2.8
340.964	3.23
341.336	2.83
341.707	2.41
342.078	3.17
342.449	2.71
342.82	2.79
343.191	2.98
343.562	3.14
343.933	2.95
344.303	2.96
344.674	2.95
345.045	2.98
345.416	3.24
345.786	2.82
346.157	3.12
346.527	2.92
346.898	2.77
347.268	3.27
347.639	2.93
348.009	3.14
348.38	3.08
348.75	2.94
349.12	3.15
349.49	3.33
349.861	3.45
350.231	2.68
350.601	3.1
350.971	3
351.341	2.85
351.711	3.13
352.081	2.99
352.45	2.75
352.82	2.79
353.19	2.76
353.56	3.01
353.929	3.33
354.299	3.3
354.669	3.07
355.038	3.41
355.408	2.8
355.777	3.32
356.147	3.06
356.516	3.14
356.885	3.16
357.254	3.14
357.624	2.67
357.993	3.1
358.362	3.17
358.731	3.22
359.1	3.1
359.469	3.47
359.838	3.01
360.207	3.08
360.576	3.22
360.945	3.55
361.314	3.2
361.682	2.89
362.051	3.23
362.42	3.21
362.788	3.35
363.157	2.92
363.525	3.31
363.894	3.07
364.262	3.01
364.631	3.36
364.999	3.35
365.367	3.13
365.735	2.83
366.104	2.94
366.472	3.1
366.84	3.18
367.208	3.46
367.576	3.13
367.944	3.15
368.312	3.06
368.68	3.32
369.048	3.15
369.416	2.97
369.783	3.1
370.151	3.52
370.519	3.64
370.886	3.28
371.254	3.48
371.621	3.45
371.989	3.35
372.356	3.32
372.724	3.19
373.091	3.25
373.458	2.91
373.826	3.2
374.193	3.19
374.56	3.39
374.927	3.3
375.294	3.52
375.661	3.3
376.028	3.21
376.395	3.42
376.762	3
377.129	3.29
377.496	3.38
377.863	3.28
378.229	3.51
378.596	3.22
378.963	3.49
379.329	3.48
379.696	3.17
380.062	3.11
380.429	3.1
380.795	3.51
381.161	2.8
381.528	3.02
381.894	3.08
382.26	3.27
382.626	3.21
382.993	3.51
383.359	3.23
383.725	3.04
384.091	3.18
384.457	3.43
384.823	3.53
385.188	3.4
385.554	3.21
385.92	3.37
386.286	3.28
386.651	3.25
387.017	3.2
387.383	3.33
387.748	3.66
388.114	3.47
388.479	3.07
388.845	3.08
389.21	3.82
389.575	3.51
389.94	3.63
390.306	3.45
390.671	3.61
391.036	3.36
391.401	3.65
391.766	3.52
392.131	3.45
392.496	3.45
392.861	3.25
393.226	3.25
393.591	3.46
393.956	3.7
394.32	3.77
394.685	3.5
395.05	3.5
395.414	3.56
395.779	3.51
396.143	3.46
396.508	3.3
396.872	3.2
397.236	3.79
397.601	3.58
397.965	3.54
398.329	3.52
398.694	3.45
399.058	3.35
399.422	3.55
399.786	3.33
400.15	3.41
400.514	3.62
400.878	3.45
401.242	3.67
401.605	3.47
401.969	3.33
402.333	3.33
402.697	3.59
403.06	3.38
403.424	3.35
403.787	3.57
404.151	3.58
404.514	3.54
404.878	3.3
405.241	3.35
405.604	3.53
405.968	3.55
406.331	3.61
406.694	3.55
407.057	3.52
407.42	3.29
407.783	3.63
408.146	3.49
408.509	3.68
408.872	3.51
409.235	3.39
409.598	3.65
409.961	3.63
410.323	3.45
410.686	3.7
411.049	3.78
411.411	3.53
411.774	3.44
412.136	3.52
412.499	3.66
412.861	3.3
413.223	3.3
413.586	3.76
413.948	3.8
414.31	3.64
414.672	3.38
415.035	3.91
415.397	3.41
415.759	3.38
416.121	3.69
416.483	3.56
416.845	3.56
417.206	3.67
417.568	3.44
417.93	3.66
418.292	3.38
418.653	3.44
419.015	3.52
419.377	3.45
419.738	3.54
420.1	3.49
420.461	3.42
420.822	3.68
421.184	3.42
421.545	3.57
421.906	3.64
422.267	3.49
422.629	3.56
422.99	3.54
423.351	3.5
423.712	3.57
424.073	3.55
424.434	3.72
424.795	3.52
425.155	3.5
425.516	3.66
425.877	3.54
426.238	3.49
426.598	3.61
426.959	3.61
427.32	3.64
427.68	3.58
428.041	3.74
428.401	3.61
428.761	3.79
429.122	3.66
429.482	3.57
429.842	3.52
430.202	3.65
430.563	3.61
430.923	3.62
431.283	3.91
431.643	3.8
432.003	3.68
432.363	3.82
432.722	3.71
433.082	3.68
433.442	3.78
433.802	3.7
434.161	3.63
434.521	3.79
434.881	3.66
435.24	3.81
435.6	3.69
435.959	3.71
436.319	3.71
436.678	3.77
437.037	3.72
437.396	3.7
437.756	3.73
438.115	3.6
438.474	3.8
438.833	3.78
439.192	3.69
439.551	3.69
439.91	3.84
440.269	3.65
440.628	3.66
440.987	3.63
441.345	3.75
441.704	3.7
442.063	3.7
442.421	3.62
442.78	3.76
443.138	3.73
443.497	3.75
443.855	3.9
444.214	3.69
444.572	3.93
444.93	3.77
445.288	3.71
445.647	3.63
446.005	3.72
446.363	3.75
446.721	3.86
447.079	3.69
447.437	3.77
447.795	3.74
448.153	3.65
448.51	3.76
448.868	3.73
449.226	3.85
449.584	3.65
449.941	3.77
450.299	3.65
450.656	3.83
451.014	3.89
451.371	3.82
451.729	3.76
452.086	3.81
452.443	3.91
452.801	3.79
453.158	4
453.515	3.64
453.872	3.79
454.229	3.71
454.586	3.71
454.943	3.92
455.3	3.76
455.657	3.76
456.014	3.81
456.371	3.88
456.727	3.88
457.084	3.92
457.441	3.71
457.797	3.78
458.154	3.92
458.51	3.78
458.867	3.97
459.223	3.72
459.58	3.85
459.936	3.8
460.292	3.79
460.648	3.83
461.005	3.82
461.361	3.82
461.717	3.76
462.073	3.96
462.429	3.98
462.785	3.95
463.141	3.89
463.496	3.9
463.852	3.96
464.208	4.01
464.564	3.95
464.919	3.89
465.275	3.94
465.631	4.06
465.986	3.96
466.342	3.87
466.697	3.95
467.052	3.96
467.408	4.02
467.763	3.96
468.118	3.92
468.473	3.97
468.829	3.81
469.184	3.89
469.539	3.75
469.894	3.94
470.249	4.03
470.603	4.12
470.958	4.1
471.313	4
471.668	3.91
472.023	3.99
472.377	3.9
472.732	4.14
473.086	3.92
473.441	3.98
473.795	4.12
474.15	3.94
474.504	3.93
474.859	3.84
475.213	4.1
475.567	3.76
475.921	4.06
476.275	3.99
476.63	4.05
476.984	3.85
477.338	4.03
477.692	3.94
478.045	4.02
478.399	3.98
478.753	3.96
479.107	3.99
479.461	4.02
479.814	4.09
480.168	3.97
480.521	4.01
480.875	3.95
481.228	4.11
481.582	3.97
481.935	4.18
482.289	4.03
482.642	4.08
482.995	3.96
483.348	3.95
483.701	3.99
484.055	3.99
484.408	3.9
484.761	3.81
485.114	3.73
485.466	3.75
485.819	3.75
486.172	3.8
486.525	3.83
486.878	3.95
487.23	3.96
487.583	4
487.936	3.87
488.288	3.94
488.641	3.88
488.993	3.87
489.345	3.88
489.698	3.85
490.05	3.86
490.402	3.92
490.754	3.9
491.107	3.93
491.459	4.09
491.811	4.07
492.163	3.99
492.515	3.92
492.866	3.91
493.218	3.87
493.57	3.95
493.922	3.93
494.274	4.06
494.625	4.16
494.977	4.1
495.328	4.09
495.68	4.07
496.031	4
496.383	4.12
496.734	4.06
497.086	4.13
497.437	3.98
497.788	4.17
498.139	4.09
498.49	4.1
498.842	4.22
499.193	4.03
499.544	4.14
499.894	4.08
500.245	4.18
500.596	4.22
500.947	4.05
501.298	4.1
501.648	4.13
501.999	4.2
502.35	4.06
502.7	4.32
503.051	4.14
503.401	4.14
503.752	4.04
504.102	4.04
504.452	4.19
504.803	4.16
505.153	4.14
505.503	4.21
505.853	4.3
506.203	4.28
506.553	4.15
506.903	4.28
507.253	4.23
507.603	4.28
507.953	4.16
508.303	4.3
508.652	4.08
509.002	4.22
509.352	4.12
509.701	4.15
510.051	4.38
510.4	4.27
510.75	4.08
511.099	4.21
511.449	4.2
511.798	4.09
512.147	4.15
512.496	4.29
512.846	4.23
513.195	4.12
513.544	4.37
513.893	4.11
514.242	4.17
514.591	4.17
514.939	4.15
515.288	4.17
515.637	4.27
515.986	4.27
516.334	4.27
516.683	4.38
517.032	4.26
517.38	4.11
517.729	4.19
518.077	4.25
518.426	4.23
518.774	4.16
519.122	4.31
519.47	4.18
519.819	4.23
520.167	4.2
520.515	4.23
520.863	4.24
521.211	4.27
521.559	4.22
521.907	4.19
522.255	4.34
522.602	4.31
522.95	4.35
523.298	4.32
523.645	4.32
523.993	4.38
524.341	4.32
524.688	4.32
525.036	4.25
525.383	4.31
525.73	4.16
526.078	4.35
526.425	4.32
526.772	4.29
527.119	4.26
527.466	4.41
527.814	4.21
528.161	4.36
528.508	4.35
528.854	4.29
529.201	4.25
529.548	4.21
529.895	4.1
530.242	4.11
530.588	4.11
530.935	4.15
531.282	4.14
531.628	4.22
531.975	4.23
532.321	4.3
532.667	4.3
533.014	4.29
533.36	4.32
533.706	4.28
534.052	4.34
534.399	4.28
534.745	4.18
535.091	4.19
535.437	4.19
535.783	4.26
536.129	4.34
536.474	4.41
536.82	4.41
537.166	4.28
537.512	4.36
537.857	4.35
538.203	4.26
538.549	4.25
538.894	4.37
539.239	4.3
539.585	4.33
539.93	4.4
540.276	4.29
540.621	4.43
540.966	4.32
541.311	4.43
541.656	4.35
542.001	4.33
542.346	4.37
542.691	4.29
543.036	4.23
543.381	4.25
543.726	4.36
544.071	4.35
544.415	4.36
544.76	4.29
545.105	4.33
545.449	4.37
545.794	4.43
546.138	4.37
546.483	4.51
546.827	4.4
547.171	4.56
547.516	4.51
547.86	4.43
548.204	4.38
548.548	4.44
548.892	4.44
549.236	4.36
549.58	4.51
549.924	4.6
550.268	4.62
550.612	4.49
550.956	4.5
551.3	4.64
551.643	4.62
551.987	4.61
552.33	4.79
552.674	4.5
553.017	4.54
553.361	4.61
553.704	4.42
554.048	4.49
554.391	4.6
554.734	4.56
555.077	4.51
555.42	4.52
555.764	4.6
556.107	4.63
556.45	4.67
556.793	4.67
557.135	4.55
557.478	4.72
557.821	4.65
558.164	4.69
558.507	4.38
558.849	4.81
559.192	4.53
559.534	4.64
559.877	4.48
560.219	4.69
560.562	4.63
560.904	4.7
561.246	4.5
561.589	4.71
561.931	4.53
562.273	4.56
562.615	4.56
562.957	4.71
563.299	4.74
563.641	4.59
563.983	4.52
564.325	4.67
564.667	4.49
565.008	4.54
565.35	4.51
565.692	4.48
566.033	4.61
566.375	4.64
566.716	4.47
567.058	4.62
567.399	4.77
567.741	4.7
568.082	4.61
568.423	4.62
568.764	4.71
569.105	4.62
569.447	4.58
569.788	4.7
570.129	4.59
570.47	4.74
570.811	4.44
571.151	4.64
571.492	4.65
571.833	4.65
572.174	4.76
572.514	4.73
572.855	4.85
573.195	4.58
573.536	4.72
573.876	4.65
574.217	4.5
574.557	4.68
574.898	4.6
575.238	4.74
575.578	4.82
575.918	4.69
576.258	4.91
576.598	4.58
576.938	4.73
577.278	4.71
577.618	4.56
577.958	4.73
578.298	4.8
578.638	4.67
578.977	4.7
579.317	4.9
579.657	4.8
579.996	4.87
580.336	4.97
580.675	4.56
581.014	4.9
581.354	4.77
581.693	4.88
582.032	4.78
582.372	4.98
582.711	4.91
583.05	4.88
583.389	4.93
583.728	4.97
584.067	4.62
584.406	4.96
584.745	4.69
585.083	5.21
585.422	4.97
585.761	4.89
586.1	4.87
586.438	4.71
586.777	4.92
587.115	5.06
587.454	4.79
587.792	4.67
588.13	4.82
588.469	4.6
588.807	4.85
589.145	4.98
589.483	4.72
589.821	4.87
590.159	4.8
590.497	5
590.835	5.1
591.173	4.97
591.511	4.89
591.849	4.87
592.187	4.57
592.524	5.09
592.862	4.76
593.2	5
593.537	4.96
593.875	4.98
594.212	4.99
594.55	4.95
594.887	4.87
595.224	4.93
595.561	4.85
595.899	5.07
596.236	5.12
596.573	4.77
596.91	5.11
597.247	4.94
597.584	4.94
597.921	4.98
598.258	4.98
598.594	4.79
598.931	4.63
599.268	4.65
599.604	4.99
599.941	4.96
600.277	4.99
600.614	4.88
600.95	4.85
601.287	4.9
601.623	4.76
601.959	5.01
602.296	4.99
602.632	4.78
602.968	5.13
603.304	5.06
603.64	4.78
603.976	4.74
604.312	4.87
604.648	4.92
604.984	4.9
605.319	4.82
605.655	4.95
605.991	4.78
606.326	4.93
606.662	4.89
606.998	5.12
607.333	4.92
607.668	4.83
608.004	4.91
608.339	4.93
608.674	5.22
609.01	5.17
609.345	4.95
609.68	5.09
610.015	4.99
610.35	5.11
610.685	4.85
611.02	5.03
611.355	4.93
611.689	4.94
612.024	5.11
612.359	5.11
612.694	5.22
613.028	4.81
613.363	4.91
613.697	5.2
614.032	4.88
614.366	4.93
614.7	5.3
615.035	4.97
615.369	5.27
615.703	5.11
616.037	5.28
616.371	5.07
616.705	5.1
617.039	4.99
617.373	5.19
617.707	5.09
618.041	4.93
618.375	4.81
618.709	5.25
619.042	5.23
619.376	5.2
619.71	4.85
620.043	5.36
620.377	5
620.71	5
621.043	5.09
621.377	5.17
621.71	5.37
622.043	5.11
622.376	5.06
622.709	5.1
623.043	4.94
623.376	5.11
623.709	5.42
624.041	4.99
624.374	5.39
624.707	5.63
625.04	5.16
625.373	5.18
625.705	5.1
626.038	4.98
626.37	5.09
626.703	5.14
627.035	5.21
627.368	5.24
627.7	5.28
628.032	4.94
628.365	5.14
628.697	5.62
629.029	5.11
629.361	5.21
629.693	5.14
630.025	5.45
630.357	5.34
630.689	5.17
631.021	5.42
631.353	5.03
631.684	5.1
632.016	5.01
632.348	5.42
632.679	5.16
633.011	5.12
633.342	5.02
633.674	4.78
634.005	5.32
634.336	5.2
634.668	5.19
634.999	5.33
635.33	5.47
635.661	5.12
635.992	5.53
636.323	5.22
636.654	5.34
636.985	5.06
637.316	5.24
637.647	5.83
637.977	5.18
638.308	5.49
638.639	5.19
638.969	5.22
639.3	5.21
639.63	5.19
639.961	5.56
640.291	5.06
640.622	5.34
640.952	5.19
641.282	5.12
641.612	5.3
641.943	4.96
642.273	5.23
642.603	5.24
642.933	5.56
643.263	5.65
643.592	5.59
643.922	5.79
644.252	5.29
644.582	5.76
644.911	5.51
645.241	5.37
645.571	5.22
645.9	5.28
646.23	6
646.559	5.34
646.888	5.49
647.218	5.65
647.547	5.27
647.876	5.31
648.205	4.99
648.534	5.21
648.863	5.44
649.192	5.98
649.521	5.45
649.85	5.38
650.179	5.48
650.508	5.63
650.837	5.86
651.165	5.31
651.494	5.8
651.822	5.91
652.151	5.43
652.479	5.64
652.808	5.61
653.136	5.34
653.465	5.18
653.793	5.2
654.121	5.55
654.449	5.28
654.777	5.46
655.105	4.98
655.433	5.57
655.761	5.33
656.089	5.97
656.417	5.84
656.745	5.7
657.073	5.2
657.4	5.06
657.728	5.1
658.056	5.29
658.383	5.06
658.711	5.71
659.038	6.1
659.365	5.7
659.693	5.82
660.02	5.26
660.347	5.05
660.674	5.48
661.001	5.34
661.329	5.17
661.656	5.25
661.982	5.3
662.309	5.71
662.636	5.57
662.963	5.28
663.29	5.7
663.616	5.38
663.943	5.22
664.27	5.61
664.596	5.56
664.923	5.66
665.249	5.79
665.576	5.43
665.902	5.3
666.228	6.06
666.554	6
666.881	5.42
667.207	6.08
667.533	5.24
667.859	4.84
668.185	5.72
668.511	6.04
668.837	5.56
669.162	5.47
669.488	5.44
669.814	5.43
670.139	5.26
670.465	5.59
670.791	5.36
671.116	5.18
671.442	4.6
671.767	5.67
672.092	5.57
672.418	5.63
672.743	5.28
673.068	4.9
673.393	5.58
673.718	5.57
674.043	5.27
674.368	5.41
674.693	5.85
675.018	5.78
675.343	5.37
675.667	5.88
675.992	5.97
676.317	4.51
676.641	5.78
676.966	5.29
677.29	5.37
677.615	5.7
677.939	5.82
678.264	4.75
678.588	5.16
678.912	5.91
679.236	5.03
679.56	5.33
679.885	5.52
680.209	6.03
680.532	6.36
680.856	5.87
681.18	6.28
681.504	6.03
681.828	5.4
682.152	5.6
682.475	5.7
682.799	5.64
683.122	5.78
683.446	5.32
683.769	5.97
684.093	5.81
684.416	5.51
684.739	5.56
685.062	5.76
685.386	5.42
685.709	5.86
686.032	5.17
686.355	5.36
686.678	5.76
687.001	5.79
687.324	5.55
687.646	6.41
687.969	5.64
688.292	5.52
688.614	6.35
688.937	5.96
689.26	5.89
689.582	5.75
689.904	6.2
690.227	6.16
690.549	6.27
690.871	5.18
691.194	5.71
691.516	6.61
691.838	6.11
692.16	5.07
