Data from 0007_crown_Reflection__1__292.txt Node

Date: Thu Dec 15 18:59:45 CST 2022
User: ToomeyLab
Spectrometer: FLMS14357
Trigger mode: 0
Integration Time (sec): 1.000000E-2
Scans to average: 100
Electric dark correction enabled: true
Nonlinearity correction enabled: false
Boxcar width: 0
XAxis mode: Wavelengths
Number of Pixels in Spectrum: 2048
>>>>>Begin Spectral Data<<<<<
189.047	148.77
189.435	148.77
189.823	148.77
190.211	70.03
190.599	-19.63
190.987	290.59
191.375	38.67
191.763	139.82
192.151	106.35
192.538	429.17
192.926	173.98
193.314	121.64
193.702	27.1
194.089	62.08
194.477	521.87
194.864	318.83
195.252	-470
195.639	162.91
196.027	-220.54
196.414	51.86
196.801	-187.5
197.189	13.38
197.576	45
197.963	59.65
198.351	11.66
198.738	-50.47
199.125	-197.36
199.512	29.63
199.899	-129.58
200.286	-58.6
200.673	38.14
201.06	-35.34
201.447	16.19
201.833	14.07
202.22	-19.33
202.607	-69.19
202.994	-33.76
203.38	71.68
203.767	-5.65
204.154	-2.75
204.54	-17.8
204.927	2.29
205.313	5.74
205.699	3.33
206.086	25.55
206.472	18.29
206.858	-13.41
207.245	-26.27
207.631	35.04
208.017	-16.44
208.403	-68.58
208.789	-6.72
209.175	5.33
209.561	-183.55
209.947	19.17
210.333	-3.07
210.719	42.69
211.105	24.59
211.491	30.9
211.876	-43.36
212.262	-3.29
212.648	-10.92
213.034	-18.25
213.419	8.29
213.805	-48.31
214.19	-15.37
214.576	-15.22
214.961	19.1
215.346	-26.43
215.732	-18.11
216.117	1.74
216.502	-20.12
216.888	0.54
217.273	-24.17
217.658	-21.56
218.043	-29.95
218.428	-27.34
218.813	11.44
219.198	-88.14
219.583	-13.68
219.968	-11.51
220.353	-26.79
220.738	10.73
221.122	5.84
221.507	-11.88
221.892	-31.54
222.276	-49.74
222.661	-16
223.046	-17.55
223.43	-5.7
223.815	-0.2
224.199	-10.83
224.583	-10.54
224.968	-3.88
225.352	-2.72
225.736	5.7
226.121	-4
226.505	1.55
226.889	-2.5
227.273	-3.8
227.657	-0.39
228.041	-0.37
228.425	1.42
228.809	1.12
229.193	2.75
229.577	2.17
229.961	2.69
230.344	4.43
230.728	3.86
231.112	3.68
231.495	2.85
231.879	3.81
232.263	3.73
232.646	3.72
233.03	5.19
233.413	4.34
233.797	0.28
234.18	2.9
234.563	2.48
234.946	1.91
235.33	3.16
235.713	3.67
236.096	2.26
236.479	3.02
236.862	2.85
237.245	1.96
237.628	2.41
238.011	3.24
238.394	2.36
238.777	4.16
239.16	3.44
239.543	4.11
239.925	2.28
240.308	1.96
240.691	2.91
241.073	2.92
241.456	3.74
241.838	3.08
242.221	3.98
242.603	4.41
242.986	3.99
243.368	3.56
243.75	3.54
244.133	3.92
244.515	3.77
244.897	3.61
245.279	2.91
245.661	3.71
246.043	2.38
246.425	3.31
246.807	3.37
247.189	3.17
247.571	3.38
247.953	3.54
248.335	3.69
248.717	3.87
249.098	3.8
249.48	3.43
249.862	3.43
250.243	3.68
250.625	3.94
251.006	4.67
251.388	3.04
251.769	1.95
252.151	4.26
252.532	2.37
252.913	3.79
253.295	3.36
253.676	3.56
254.057	3.25
254.438	3.53
254.819	3.7
255.2	3.94
255.581	4.03
255.962	3.98
256.343	3.95
256.724	2.74
257.105	3.33
257.486	2.5
257.867	2.31
258.247	2.72
258.628	3.78
259.009	3.25
259.389	2.77
259.77	3.01
260.15	4.19
260.531	3.5
260.911	3.47
261.292	3.62
261.672	3.57
262.052	3.6
262.432	3.12
262.813	3.29
263.193	3.67
263.573	3.1
263.953	2.91
264.333	3.68
264.713	3.55
265.093	2.93
265.473	2.21
265.853	2.95
266.233	3.14
266.612	3.09
266.992	3.58
267.372	3.57
267.752	3.77
268.131	2.7
268.511	3.29
268.89	3.8
269.27	2.82
269.649	3.41
270.029	2.75
270.408	3.23
270.787	3.64
271.167	3.72
271.546	3.75
271.925	3.05
272.304	3.08
272.683	3.05
273.062	3.28
273.441	3.15
273.82	3.34
274.199	3.12
274.578	3.51
274.957	2.98
275.336	3.79
275.715	3.84
276.093	3.55
276.472	2.82
276.851	3.58
277.229	3
277.608	2.5
277.986	2.99
278.365	3.49
278.743	3.37
279.122	3.19
279.5	3.01
279.878	2.76
280.257	3.03
280.635	3.2
281.013	2.75
281.391	3.36
281.769	3.93
282.147	2.6
282.525	2.93
282.903	3.01
283.281	3.96
283.659	3.34
284.037	3.45
284.415	2.83
284.792	3.4
285.17	3.42
285.548	3
285.925	3.21
286.303	3.2
286.68	3.24
287.058	3.18
287.435	3.16
287.813	3.21
288.19	3.02
288.567	3.24
288.945	3.38
289.322	3.69
289.699	3.07
290.076	3.09
290.453	3.42
290.83	3.01
291.207	3.05
291.584	3.3
291.961	3.12
292.338	3.1
292.715	3.16
293.092	3.49
293.469	3.15
293.845	3.27
294.222	3.61
294.599	3.01
294.975	3
295.352	3.5
295.728	2.93
296.105	3.28
296.481	3.54
296.858	3.59
297.234	3.18
297.61	3.51
297.986	3.74
298.363	3.43
298.739	3.4
299.115	3.44
299.491	3.93
299.867	3.5
300.243	3.4
300.619	3
300.995	3.26
301.371	3.42
301.746	3.43
302.122	2.97
302.498	3.62
302.874	3.63
303.249	3.33
303.625	2.94
304	3.83
304.376	3.78
304.751	3.35
305.127	3.19
305.502	3.44
305.878	3.36
306.253	3.02
306.628	3.36
307.003	3.36
307.378	3.07
307.754	2.97
308.129	3.25
308.504	3.22
308.879	3.31
309.254	3.42
309.629	3.44
310.003	3.14
310.378	3.8
310.753	3.79
311.128	3.08
311.502	3.28
311.877	3.65
312.252	3.18
312.626	3.73
313.001	3.52
313.375	3.67
313.75	3.52
314.124	3.82
314.498	3.62
314.873	3.03
315.247	3.53
315.621	3.34
315.995	3.42
316.369	3.29
316.743	3.13
317.117	3.26
317.491	3.57
317.865	2.99
318.239	3.61
318.613	3.21
318.987	3.17
319.361	3.52
319.734	3.4
320.108	3.66
320.482	4.15
320.855	3.67
321.229	3.53
321.602	3.63
321.976	2.65
322.349	3.86
322.723	3.55
323.096	3.21
323.469	2.97
323.843	3.21
324.216	3.76
324.589	3.69
324.962	3.45
325.335	3.68
325.708	3.51
326.081	3.73
326.454	3.85
326.827	3.76
327.2	3.44
327.573	3.86
327.945	3.65
328.318	3.33
328.691	3.35
329.063	2.85
329.436	3.29
329.809	3.46
330.181	4.49
330.553	3.36
330.926	3.92
331.298	3.56
331.671	3.66
332.043	3.84
332.415	3.7
332.787	3.55
333.159	3.41
333.532	3.57
333.904	3.79
334.276	3.54
334.648	3.25
335.02	3.5
335.391	3.84
335.763	3.77
336.135	3.82
336.507	3.16
336.879	3.95
337.25	3.5
337.622	3.75
337.993	3.23
338.365	3.42
338.736	3.71
339.108	3.64
339.479	3.6
339.851	3.72
340.222	4.05
340.593	3.25
340.964	3.47
341.336	3.46
341.707	3.7
342.078	3.62
342.449	3.37
342.82	3.83
343.191	3.43
343.562	3.66
343.933	3.37
344.303	3.7
344.674	3.48
345.045	3.47
345.416	3.85
345.786	3.45
346.157	3.73
346.527	3.58
346.898	3.54
347.268	3.94
347.639	3.42
348.009	3.72
348.38	3.55
348.75	3.7
349.12	3.4
349.49	3.56
349.861	3.79
350.231	3.64
350.601	3.94
350.971	3.51
351.341	4.12
351.711	3.9
352.081	3.52
352.45	3.44
352.82	3.33
353.19	3.54
353.56	3.51
353.929	3.57
354.299	3.82
354.669	3.54
355.038	3.85
355.408	3.77
355.777	3.54
356.147	3.77
356.516	3.52
356.885	3.92
357.254	3.48
357.624	3.38
357.993	3.68
358.362	3.58
358.731	3.96
359.1	3.86
359.469	4.03
359.838	3.7
360.207	3.71
360.576	3.94
360.945	3.78
361.314	3.69
361.682	3.74
362.051	3.82
362.42	3.49
362.788	4.06
363.157	3.83
363.525	3.95
363.894	3.5
364.262	4.02
364.631	3.87
364.999	3.89
365.367	3.9
365.735	3.55
366.104	3.73
366.472	3.78
366.84	3.66
367.208	4.18
367.576	3.66
367.944	3.93
368.312	3.58
368.68	4.05
369.048	3.56
369.416	3.64
369.783	3.74
370.151	4.18
370.519	4.16
370.886	3.9
371.254	4.2
371.621	3.82
371.989	4.08
372.356	3.93
372.724	3.9
373.091	3.53
373.458	3.57
373.826	3.91
374.193	3.74
374.56	4.03
374.927	3.75
375.294	4.03
375.661	4.13
376.028	3.63
376.395	3.94
376.762	3.85
377.129	4.02
377.496	3.76
377.863	3.9
378.229	3.94
378.596	4.06
378.963	4.02
379.329	4.13
379.696	3.68
380.062	3.95
380.429	3.7
380.795	4.09
381.161	3.8
381.528	3.32
381.894	3.81
382.26	3.88
382.626	4.16
382.993	4.12
383.359	3.9
383.725	3.91
384.091	4.12
384.457	3.99
384.823	4.08
385.188	4.12
385.554	4.14
385.92	4.15
386.286	3.72
386.651	3.97
387.017	4.14
387.383	3.88
387.748	4.22
388.114	4.1
388.479	3.95
388.845	3.84
389.21	4.37
389.575	4.3
389.94	4.12
390.306	3.96
390.671	4.11
391.036	3.95
391.401	4.32
391.766	4.06
392.131	4.23
392.496	4.15
392.861	4
393.226	3.87
393.591	4.12
393.956	4.25
394.32	4.33
394.685	4.08
395.05	4.19
395.414	4.24
395.779	4.29
396.143	4.01
396.508	4.07
396.872	4.1
397.236	4.27
397.601	4.44
397.965	4.29
398.329	3.96
398.694	3.98
399.058	4.22
399.422	4.06
399.786	4.06
400.15	4.2
400.514	4.26
400.878	4.18
401.242	4.48
401.605	4.11
401.969	4.07
402.333	4.18
402.697	4.31
403.06	4.11
403.424	4.29
403.787	4.29
404.151	4.2
404.514	4.17
404.878	4.18
405.241	4.2
405.604	4.15
405.968	4.25
406.331	4.36
406.694	4.25
407.057	4.07
407.42	4.33
407.783	4.25
408.146	4.17
408.509	4.29
408.872	4.21
409.235	4.51
409.598	4.28
409.961	4.36
410.323	4.05
410.686	4.18
411.049	4.48
411.411	4.18
411.774	4.13
412.136	4.3
412.499	4.45
412.861	4.27
413.223	4.21
413.586	4.32
413.948	4.42
414.31	4.57
414.672	4.23
415.035	4.43
415.397	4.04
415.759	4.36
416.121	4.59
416.483	4.25
416.845	4.33
417.206	4.22
417.568	4.14
417.93	4.35
418.292	4.19
418.653	4.11
419.015	4.29
419.377	4.28
419.738	4.43
420.1	4.26
420.461	4.22
420.822	4.25
421.184	4.29
421.545	4.34
421.906	4.27
422.267	4.26
422.629	4.23
422.99	4.28
423.351	4.24
423.712	4.38
424.073	4.36
424.434	4.4
424.795	4.26
425.155	4.23
425.516	4.28
425.877	4.28
426.238	4.34
426.598	4.33
426.959	4.31
427.32	4.28
427.68	4.34
428.041	4.48
428.401	4.35
428.761	4.54
429.122	4.45
429.482	4.37
429.842	4.45
430.202	4.49
430.563	4.29
430.923	4.54
431.283	4.62
431.643	4.62
432.003	4.7
432.363	4.52
432.722	4.41
433.082	4.31
433.442	4.55
433.802	4.47
434.161	4.43
434.521	4.35
434.881	4.52
435.24	4.58
435.6	4.54
435.959	4.58
436.319	4.53
436.678	4.68
437.037	4.58
437.396	4.48
437.756	4.35
438.115	4.33
438.474	4.51
438.833	4.55
439.192	4.37
439.551	4.34
439.91	4.51
440.269	4.44
440.628	4.44
440.987	4.56
441.345	4.55
441.704	4.52
442.063	4.45
442.421	4.52
442.78	4.57
443.138	4.64
443.497	4.44
443.855	4.54
444.214	4.41
444.572	4.67
444.93	4.58
445.288	4.73
445.647	4.54
446.005	4.45
446.363	4.51
446.721	4.56
447.079	4.52
447.437	4.57
447.795	4.58
448.153	4.5
448.51	4.57
448.868	4.54
449.226	4.66
449.584	4.63
449.941	4.65
450.299	4.54
450.656	4.65
451.014	4.78
451.371	4.61
451.729	4.74
452.086	4.68
452.443	4.82
452.801	4.72
453.158	4.81
453.515	4.46
453.872	4.6
454.229	4.42
454.586	4.53
454.943	4.75
455.3	4.74
455.657	4.64
456.014	4.63
456.371	4.63
456.727	4.91
457.084	4.75
457.441	4.75
457.797	4.73
458.154	4.74
458.51	4.67
458.867	4.68
459.223	4.73
459.58	4.6
459.936	4.62
460.292	4.53
460.648	4.57
461.005	4.68
461.361	4.66
461.717	4.63
462.073	4.82
462.429	4.76
462.785	4.87
463.141	4.81
463.496	4.88
463.852	4.97
464.208	4.86
464.564	4.64
464.919	4.7
465.275	4.84
465.631	5.03
465.986	4.76
466.342	4.75
466.697	4.89
467.052	4.91
467.408	5.03
467.763	4.91
468.118	4.67
468.473	5.02
468.829	4.81
469.184	4.85
469.539	4.78
469.894	4.85
470.249	4.86
470.603	4.94
470.958	5
471.313	5.01
471.668	4.94
472.023	4.89
472.377	4.82
472.732	5.11
473.086	4.77
473.441	4.72
473.795	4.98
474.15	4.98
474.504	4.88
474.859	4.88
475.213	5.08
475.567	4.89
475.921	5.01
476.275	4.94
476.63	4.93
476.984	4.75
477.338	4.98
477.692	4.93
478.045	4.93
478.399	4.96
478.753	4.87
479.107	4.98
479.461	4.92
479.814	4.95
480.168	4.95
480.521	5.1
480.875	5.05
481.228	4.98
481.582	5.07
481.935	5.18
482.289	5
482.642	5.12
482.995	4.95
483.348	4.91
483.701	5.11
484.055	4.91
484.408	4.96
484.761	4.8
485.114	4.69
485.466	4.69
485.819	4.73
486.172	4.78
486.525	4.88
486.878	4.97
487.23	4.99
487.583	5
487.936	4.93
488.288	4.88
488.641	4.83
488.993	4.8
489.345	4.84
489.698	4.88
490.05	4.88
490.402	4.95
490.754	4.94
491.107	5.03
491.459	5.13
491.811	5.1
492.163	5.09
492.515	4.91
492.866	4.9
493.218	4.86
493.57	4.95
493.922	5.01
494.274	5.18
494.625	5.18
494.977	5.14
495.328	5.08
495.68	5.09
496.031	5.16
496.383	5.15
496.734	5.15
497.086	5.27
497.437	5.22
497.788	5.19
498.139	5.07
498.49	5.13
498.842	5.21
499.193	5.15
499.544	5.21
499.894	5.16
500.245	5.43
500.596	5.21
500.947	5.24
501.298	5.12
501.648	5.19
501.999	5.23
502.35	5.18
502.7	5.35
503.051	5.26
503.401	5.29
503.752	5
504.102	5.18
504.452	5.25
504.803	5.26
505.153	5.29
505.503	5.38
505.853	5.3
506.203	5.37
506.553	5.3
506.903	5.29
507.253	5.34
507.603	5.42
507.953	5.34
508.303	5.3
508.652	5.15
509.002	5.45
509.352	5.4
509.701	5.29
510.051	5.4
510.4	5.34
510.75	5.3
511.099	5.27
511.449	5.44
511.798	5.3
512.147	5.44
512.496	5.36
512.846	5.37
513.195	5.48
513.544	5.52
513.893	5.37
514.242	5.35
514.591	5.42
514.939	5.49
515.288	5.51
515.637	5.36
515.986	5.48
516.334	5.42
516.683	5.41
517.032	5.51
517.38	5.41
517.729	5.51
518.077	5.46
518.426	5.61
518.774	5.47
519.122	5.6
519.47	5.4
519.819	5.47
520.167	5.36
520.515	5.47
520.863	5.5
521.211	5.49
521.559	5.37
521.907	5.52
522.255	5.53
522.602	5.63
522.95	5.53
523.298	5.59
523.645	5.65
523.993	5.57
524.341	5.53
524.688	5.51
525.036	5.55
525.383	5.61
525.73	5.53
526.078	5.64
526.425	5.54
526.772	5.49
527.119	5.5
527.466	5.52
527.814	5.46
528.161	5.55
528.508	5.65
528.854	5.51
529.201	5.46
529.548	5.36
529.895	5.27
530.242	5.33
530.588	5.32
530.935	5.39
531.282	5.43
531.628	5.47
531.975	5.54
532.321	5.63
532.667	5.61
533.014	5.65
533.36	5.66
533.706	5.67
534.052	5.61
534.399	5.55
534.745	5.52
535.091	5.43
535.437	5.51
535.783	5.52
536.129	5.57
536.474	5.7
536.82	5.79
537.166	5.75
537.512	5.72
537.857	5.65
538.203	5.63
538.549	5.67
538.894	5.66
539.239	5.77
539.585	5.79
539.93	5.83
540.276	5.74
540.621	5.89
540.966	5.74
541.311	5.8
541.656	5.76
542.001	5.66
542.346	5.6
542.691	5.56
543.036	5.58
543.381	5.58
543.726	5.71
544.071	5.73
544.415	5.73
544.76	5.75
545.105	5.72
545.449	5.78
545.794	5.82
546.138	5.79
546.483	5.85
546.827	5.79
547.171	5.9
547.516	5.9
547.86	5.84
548.204	5.85
548.548	5.83
548.892	5.92
549.236	5.96
549.58	5.98
549.924	6.11
550.268	5.98
550.612	6.01
550.956	6
551.3	6.17
551.643	6.07
551.987	6.02
552.33	6.17
552.674	6.14
553.017	6.14
553.361	6.13
553.704	6.11
554.048	5.9
554.391	6.13
554.734	5.87
555.077	6.01
555.42	6.05
555.764	6.02
556.107	6.14
556.45	6.05
556.793	6.2
557.135	6.04
557.478	6.04
557.821	6.09
558.164	6.23
558.507	6.02
558.849	6.35
559.192	6.23
559.534	6.1
559.877	6.15
560.219	6.09
560.562	6.09
560.904	6.19
561.246	6.03
561.589	6.39
561.931	6.34
562.273	6.15
562.615	6.08
562.957	6.11
563.299	6.19
563.641	6.22
563.983	6.03
564.325	6.33
564.667	6.34
565.008	6.17
565.35	6.04
565.692	6.21
566.033	6.07
566.375	6.23
566.716	6.12
567.058	6.27
567.399	6.2
567.741	6.09
568.082	6.28
568.423	6.23
568.764	6.15
569.105	6.23
569.447	6.27
569.788	6.23
570.129	6.3
570.47	6.24
570.811	6.13
571.151	6.4
571.492	6.37
571.833	6.24
572.174	6.41
572.514	6.31
572.855	6.33
573.195	6.32
573.536	6.35
573.876	6.3
574.217	6.31
574.557	6.37
574.898	6.24
575.238	6.24
575.578	6.49
575.918	6.38
576.258	6.54
576.598	6.3
576.938	6.24
577.278	6.37
577.618	6.45
577.958	6.49
578.298	6.38
578.638	6.23
578.977	6.51
579.317	6.48
579.657	6.38
579.996	6.4
580.336	6.68
580.675	6.38
581.014	6.54
581.354	6.42
581.693	6.64
582.032	6.83
582.372	6.55
582.711	6.64
583.05	6.44
583.389	6.76
583.728	6.63
584.067	6.6
584.406	6.73
584.745	6.51
585.083	6.68
585.422	6.82
585.761	6.66
586.1	6.55
586.438	6.46
586.777	6.62
587.115	6.68
587.454	6.49
587.792	6.78
588.13	6.6
588.469	6.41
588.807	6.83
589.145	6.74
589.483	6.24
589.821	6.57
590.159	6.76
590.497	6.68
590.835	6.88
591.173	6.79
591.511	6.78
591.849	6.7
592.187	6.55
592.524	6.81
592.862	6.55
593.2	6.94
593.537	6.8
593.875	6.61
594.212	6.58
594.55	6.61
594.887	6.77
595.224	6.66
595.561	6.43
595.899	6.8
596.236	6.83
596.573	6.69
596.91	6.71
597.247	6.95
597.584	6.9
597.921	6.79
598.258	6.92
598.594	6.64
598.931	6.52
599.268	6.58
599.604	6.94
599.941	6.82
600.277	6.77
600.614	6.87
600.95	6.74
601.287	6.67
601.623	6.46
601.959	7.3
602.296	6.86
602.632	6.72
602.968	6.79
603.304	6.76
603.64	6.75
603.976	6.74
604.312	6.68
604.648	6.92
604.984	6.95
605.319	6.91
605.655	6.65
605.991	6.65
606.326	6.86
606.662	6.8
606.998	7.09
607.333	6.73
607.668	6.7
608.004	6.77
608.339	6.86
608.674	6.97
609.01	6.9
609.345	6.94
609.68	6.8
610.015	7.2
610.35	6.99
610.685	6.69
611.02	6.77
611.355	7.03
611.689	7.07
612.024	7.19
612.359	7.14
612.694	7.14
613.028	7.06
613.363	7.1
613.697	7.15
614.032	7.06
614.366	7.11
614.7	7.06
615.035	7.34
615.369	7.34
615.703	7.22
616.037	7.09
616.371	6.99
616.705	6.87
617.039	7.23
617.373	7.27
617.707	7.07
618.041	7.05
618.375	6.98
618.709	7.41
619.042	6.89
619.376	7.18
619.71	7.15
620.043	7.37
620.377	7.35
620.71	7.14
621.043	7.31
621.377	7.15
621.71	7.5
622.043	7.51
622.376	7.18
622.709	7.47
623.043	7.39
623.376	7.36
623.709	7.55
624.041	7.03
624.374	7.23
624.707	7.16
625.04	7.06
625.373	7.22
625.705	7.12
626.038	7.51
626.37	7.25
626.703	7.28
627.035	7.13
627.368	7.63
627.7	7.29
628.032	7.31
628.365	7.3
628.697	7.6
629.029	7.22
629.361	7.51
629.693	7.26
630.025	7.48
630.357	7.71
630.689	7.51
631.021	7.64
631.353	7.5
631.684	7.42
632.016	7.3
632.348	7.48
632.679	7.09
633.011	7.47
633.342	7.57
633.674	7.4
634.005	7.49
634.336	7.71
634.668	7.19
634.999	7.39
635.33	7.69
635.661	7.39
635.992	7.38
636.323	7.71
636.654	7.69
636.985	7.18
637.316	7.7
637.647	7.56
637.977	7.52
638.308	8.14
638.639	7.34
638.969	7.56
639.3	7.82
639.63	7.94
639.961	7.55
640.291	7.49
640.622	7.8
640.952	8.28
641.282	7.79
641.612	7.47
641.943	7.55
642.273	7.43
642.603	7.67
642.933	8.11
643.263	7.79
643.592	8.03
643.922	8.17
644.252	7.57
644.582	7.94
644.911	7.47
645.241	7.61
645.571	7.87
645.9	7.81
646.23	7.71
646.559	7.47
646.888	8.28
647.218	7.79
647.547	7.56
647.876	7.7
648.205	7.65
648.534	8
648.863	7.69
649.192	7.73
649.521	8.06
649.85	8.51
650.179	8
650.508	7.94
650.837	7.96
651.165	8.18
651.494	8.17
651.822	8.03
652.151	7.86
652.479	7.86
652.808	8.19
653.136	7.54
653.465	7.61
653.793	8
654.121	8.1
654.449	7.81
654.777	7.35
655.105	7.55
655.433	8.32
655.761	8.21
656.089	7.61
656.417	8.27
656.745	8.33
657.073	7.8
657.4	7.63
657.728	8.18
658.056	8.21
658.383	7.88
658.711	7.88
659.038	8.45
659.365	8.35
659.693	8.54
660.02	7.64
660.347	7.85
660.674	7.75
661.001	8.01
661.329	7.93
661.656	7.7
661.982	8.16
662.309	8.09
662.636	8.23
662.963	8.18
663.29	8.38
663.616	8.2
663.943	8.26
664.27	8.07
664.596	8.44
664.923	8.13
665.249	8.61
665.576	8.18
665.902	7.61
666.228	8.35
666.554	8.44
666.881	7.38
667.207	8.21
667.533	8.04
667.859	7.61
668.185	8.06
668.511	8.54
668.837	8.04
669.162	8.65
669.488	7.48
669.814	8.36
670.139	7.95
670.465	8.47
670.791	7.94
671.116	8.4
671.442	7.56
671.767	8.11
672.092	8.55
672.418	8.14
672.743	8.22
673.068	8.15
673.393	8.14
673.718	8.19
674.043	8.54
674.368	8.4
674.693	8.05
675.018	8.25
675.343	8.13
675.667	8.23
675.992	8.69
676.317	7.92
676.641	8.49
676.966	7.97
677.29	7.85
677.615	8.74
677.939	8.59
678.264	8.11
678.588	8.88
678.912	8.84
679.236	8.58
679.56	8.22
679.885	8.8
680.209	8.01
680.532	8.83
680.856	9.07
681.18	9.09
681.504	8.67
681.828	8.41
682.152	8.69
682.475	8.56
682.799	8.41
683.122	8.52
683.446	8.48
683.769	8.48
684.093	9.02
684.416	8.34
684.739	8.65
685.062	8.32
685.386	8.56
685.709	8.66
686.032	8.87
686.355	8.44
686.678	9.4
687.001	8.7
687.324	8.8
687.646	8.65
687.969	9.01
688.292	9.38
688.614	8.92
688.937	8.64
689.26	9.17
689.582	9.04
689.904	8.93
690.227	9.13
690.549	9
690.871	9.02
691.194	8.84
691.516	8.59
691.838	9.25
692.16	8.58
