Data from 0007_forehead_Reflection__0__296.txt Node

Date: Thu Dec 15 19:00:50 CST 2022
User: ToomeyLab
Spectrometer: FLMS14357
Trigger mode: 0
Integration Time (sec): 1.000000E-2
Scans to average: 100
Electric dark correction enabled: true
Nonlinearity correction enabled: false
Boxcar width: 0
XAxis mode: Wavelengths
Number of Pixels in Spectrum: 2048
>>>>>Begin Spectral Data<<<<<
189.047	-16.24
189.435	-16.24
189.823	-16.24
190.211	4.07
190.599	62.79
190.987	-75.37
191.375	7.15
191.763	198.73
192.151	40.81
192.538	624.65
192.926	121.13
193.314	19.23
193.702	-32.73
194.089	-46.77
194.477	143.49
194.864	305.36
195.252	-292.5
195.639	96.49
196.027	133.71
196.414	7.02
196.801	-230.54
197.189	107.29
197.576	108.75
197.963	52.81
198.351	11.91
198.738	-84.84
199.125	-211.48
199.512	8.84
199.899	-75.04
200.286	-57.68
200.673	53.69
201.06	36.32
201.447	-5.4
201.833	9.61
202.22	-29.83
202.607	-139.97
202.994	14.69
203.38	-39.34
203.767	-7.78
204.154	22.41
204.54	3.56
204.927	-44.44
205.313	28.87
205.699	18.4
206.086	12.81
206.472	16.59
206.858	-11.38
207.245	-11.43
207.631	-25.8
208.017	31.37
208.403	-90.68
208.789	-14.66
209.175	-23.48
209.561	-99.76
209.947	-45.38
210.333	-16.74
210.719	57.26
211.105	11.51
211.491	-25.53
211.876	-37.95
212.262	-11.79
212.648	20.63
213.034	1.1
213.419	7.94
213.805	-85.6
214.19	-27.62
214.576	-23.53
214.961	-11.79
215.346	-45.18
215.732	-27.23
216.117	23.37
216.502	23.55
216.888	1.22
217.273	-9.2
217.658	0.01
218.043	-42.63
218.428	-20.96
218.813	18.56
219.198	-46.72
219.583	-13.73
219.968	8.92
220.353	-22.13
220.738	-0.97
221.122	-11.93
221.507	-24.38
221.892	-20.5
222.276	-30.72
222.661	-10.47
223.046	-7.33
223.43	17.6
223.815	-5.57
224.199	-1.53
224.583	-8.03
224.968	-7.53
225.352	-20.83
225.736	6.93
226.121	2.96
226.505	-4.3
226.889	-5.28
227.273	-2.44
227.657	2.09
228.041	0.96
228.425	-4.83
228.809	-1.17
229.193	3.01
229.577	-0.84
229.961	1.35
230.344	2.21
230.728	2.09
231.112	2.12
231.495	0.57
231.879	-0.47
232.263	0.99
232.646	2.04
233.03	1.74
233.413	1.11
233.797	0.99
234.18	0.99
234.563	-0.38
234.946	-0.81
235.33	1.94
235.713	1.72
236.096	2.71
236.479	2.67
236.862	1.88
237.245	0.11
237.628	2.2
238.011	1.62
238.394	0.5
238.777	1.61
239.16	2.41
239.543	2.42
239.925	1.01
240.308	-0.55
240.691	0.74
241.073	0.87
241.456	1.4
241.838	0.95
242.221	1.14
242.603	1.49
242.986	2.26
243.368	1.77
243.75	2.23
244.133	2.15
244.515	1.54
244.897	1.26
245.279	1.57
245.661	1.21
246.043	0.79
246.425	2.44
246.807	1.19
247.189	2.04
247.571	1.56
247.953	1.62
248.335	1.98
248.717	1.96
249.098	2.16
249.48	1.83
249.862	1.72
250.243	1.84
250.625	2.18
251.006	2.19
251.388	1.45
251.769	1.27
252.151	2.56
252.532	1.83
252.913	1.43
253.295	2
253.676	2.18
254.057	1.66
254.438	2.09
254.819	1.92
255.2	2.36
255.581	2.86
255.962	1.79
256.343	1.88
256.724	1.74
257.105	0.85
257.486	1.29
257.867	1.65
258.247	2.07
258.628	1.64
259.009	1.03
259.389	1.47
259.77	1.75
260.15	2.55
260.531	2.03
260.911	1.77
261.292	1.93
261.672	1.98
262.052	1.8
262.432	1.74
262.813	2.18
263.193	1.61
263.573	1.81
263.953	1.67
264.333	2
264.713	1.63
265.093	1.93
265.473	1.08
265.853	1.88
266.233	1.58
266.612	1.61
266.992	1.8
267.372	2.04
267.752	1.67
268.131	1.74
268.511	1.8
268.89	2.38
269.27	1.52
269.649	1.9
270.029	1.68
270.408	2.05
270.787	1.73
271.167	1.67
271.546	2.26
271.925	2.08
272.304	1.88
272.683	1.5
273.062	1.62
273.441	1.23
273.82	1.9
274.199	2.02
274.578	1.99
274.957	1.84
275.336	2.11
275.715	1.92
276.093	1.64
276.472	1.34
276.851	1.83
277.229	1.75
277.608	1.39
277.986	1.93
278.365	1.67
278.743	2.1
279.122	1.5
279.5	1.89
279.878	1.51
280.257	1.71
280.635	2
281.013	1.57
281.391	2.14
281.769	2.51
282.147	1.91
282.525	1.39
282.903	1.24
283.281	1.99
283.659	2.14
284.037	2.05
284.415	1.54
284.792	1.82
285.17	1.73
285.548	1.9
285.925	1.87
286.303	2.23
286.68	1.84
287.058	1.97
287.435	1.7
287.813	2.1
288.19	1.86
288.567	2.27
288.945	1.7
289.322	1.99
289.699	2.13
290.076	1.52
290.453	1.57
290.83	2.39
291.207	2.14
291.584	1.99
291.961	2.11
292.338	1.93
292.715	1.69
293.092	2.59
293.469	1.97
293.845	2.37
294.222	2.49
294.599	1.68
294.975	1.82
295.352	2.25
295.728	2.11
296.105	2.3
296.481	2.5
296.858	2.92
297.234	2.21
297.61	2.22
297.986	2.54
298.363	2.55
298.739	2.25
299.115	2.38
299.491	2.43
299.867	2.28
300.243	1.92
300.619	2.11
300.995	2.46
301.371	2.66
301.746	2.97
302.122	2.07
302.498	2.89
302.874	2.52
303.249	2.51
303.625	2.26
304	2.39
304.376	3.17
304.751	2.63
305.127	2.06
305.502	2.21
305.878	2.65
306.253	2.43
306.628	2.2
307.003	2.72
307.378	2.66
307.754	2.64
308.129	2.56
308.504	2.78
308.879	2.65
309.254	2.79
309.629	2.58
310.003	2.92
310.378	3.11
310.753	2.81
311.128	2.67
311.502	2.48
311.877	2.72
312.252	2.96
312.626	3.07
313.001	2.67
313.375	3.04
313.75	3.12
314.124	2.72
314.498	2.96
314.873	2.73
315.247	2.78
315.621	2.78
315.995	3.04
316.369	2.66
316.743	3.18
317.117	3.18
317.491	3.08
317.865	2.48
318.239	3.69
318.613	3.04
318.987	3.06
319.361	3.32
319.734	3.45
320.108	2.98
320.482	3.54
320.855	3.25
321.229	3.02
321.602	3.16
321.976	2.7
322.349	3.47
322.723	3.61
323.096	3.56
323.469	3.09
323.843	3.28
324.216	3.48
324.589	3.63
324.962	3.52
325.335	3.08
325.708	3.79
326.081	3.6
326.454	3.73
326.827	3.9
327.2	3.37
327.573	3.96
327.945	3.61
328.318	3.56
328.691	3.51
329.063	3.03
329.436	3.34
329.809	4.33
330.181	4.29
330.553	3.84
330.926	4.13
331.298	3.91
331.671	3.78
332.043	4.16
332.415	4.39
332.787	4.01
333.159	3.33
333.532	4.05
333.904	4.25
334.276	3.85
334.648	4.17
335.02	4.18
335.391	4.07
335.763	4.06
336.135	4.12
336.507	4.11
336.879	3.91
337.25	4.47
337.622	4.49
337.993	4.15
338.365	4.12
338.736	4.25
339.108	4.55
339.479	4.29
339.851	4.62
340.222	4.99
340.593	4.67
340.964	4.58
341.336	3.97
341.707	4.1
342.078	4.86
342.449	4.38
342.82	4.45
343.191	4.76
343.562	4.73
343.933	4.44
344.303	4.62
344.674	4.62
345.045	4.77
345.416	4.96
345.786	4.43
346.157	4.59
346.527	4.69
346.898	4.33
347.268	5.09
347.639	4.62
348.009	4.98
348.38	4.96
348.75	4.88
349.12	5.05
349.49	4.81
349.861	5.08
350.231	4.56
350.601	4.72
350.971	4.76
351.341	5.2
351.711	5.26
352.081	4.67
352.45	4.95
352.82	4.72
353.19	4.77
353.56	5.34
353.929	5.06
354.299	5.29
354.669	5.42
355.038	5.61
355.408	5.14
355.777	5.78
356.147	5.31
356.516	5.26
356.885	5.51
357.254	5.38
357.624	5.23
357.993	5.33
358.362	5.39
358.731	5.49
359.1	5.56
359.469	5.75
359.838	5.54
360.207	5.59
360.576	5.7
360.945	5.69
361.314	5.56
361.682	5.63
362.051	5.85
362.42	5.42
362.788	5.83
363.157	5.72
363.525	5.87
363.894	5.56
364.262	5.68
364.631	6.07
364.999	6
365.367	5.77
365.735	5.86
366.104	5.94
366.472	6.04
366.84	6.1
367.208	6.25
367.576	5.98
367.944	6.04
368.312	5.91
368.68	6.5
369.048	5.74
369.416	6.03
369.783	5.78
370.151	6.22
370.519	6.51
370.886	6.08
371.254	6.61
371.621	6.59
371.989	6.42
372.356	6.47
372.724	6.28
373.091	6.37
373.458	6.36
373.826	6.6
374.193	6.5
374.56	6.67
374.927	6.4
375.294	6.77
375.661	6.74
376.028	6.57
376.395	6.93
376.762	6.66
377.129	6.73
377.496	7.06
377.863	7.01
378.229	6.9
378.596	7.08
378.963	7.08
379.329	6.99
379.696	6.95
380.062	7.22
380.429	7.06
380.795	7.48
381.161	6.74
381.528	6.66
381.894	6.89
382.26	7.29
382.626	7.33
382.993	7.48
383.359	7.23
383.725	7.28
384.091	7.52
384.457	7.1
384.823	7.41
385.188	7.62
385.554	7.56
385.92	7.37
386.286	7.41
386.651	7.31
387.017	7.79
387.383	7.74
387.748	7.72
388.114	7.72
388.479	7.5
388.845	7.44
389.21	7.85
389.575	8.03
389.94	8.26
390.306	7.93
390.671	8
391.036	7.92
391.401	7.99
391.766	8.04
392.131	8.18
392.496	7.97
392.861	8.01
393.226	7.8
393.591	8.12
393.956	8.19
394.32	8.33
394.685	8.27
395.05	8.39
395.414	8.18
395.779	8.54
396.143	8.04
396.508	8.2
396.872	8.32
397.236	8.79
397.601	8.67
397.965	8.62
398.329	8.58
398.694	8.31
399.058	8.56
399.422	8.42
399.786	8.16
400.15	8.38
400.514	8.81
400.878	8.7
401.242	8.64
401.605	8.63
401.969	8.83
402.333	8.67
402.697	8.87
403.06	8.9
403.424	8.93
403.787	8.78
404.151	8.93
404.514	9.13
404.878	8.88
405.241	8.94
405.604	8.97
405.968	8.85
406.331	9.12
406.694	9.23
407.057	9.09
407.42	9.01
407.783	9.4
408.146	9.06
408.509	9.12
408.872	9.23
409.235	9.49
409.598	9.14
409.961	9.33
410.323	9.35
410.686	9.58
411.049	9.49
411.411	9.31
411.774	9.41
412.136	9.48
412.499	9.71
412.861	9.37
413.223	9.63
413.586	9.74
413.948	9.89
414.31	9.82
414.672	9.68
415.035	10.11
415.397	9.69
415.759	9.53
416.121	10.12
416.483	9.77
416.845	9.91
417.206	9.78
417.568	9.73
417.93	9.88
418.292	9.75
418.653	9.85
419.015	9.79
419.377	9.7
419.738	10.01
420.1	9.93
420.461	9.71
420.822	9.92
421.184	9.91
421.545	9.93
421.906	9.95
422.267	9.89
422.629	9.91
422.99	9.91
423.351	9.96
423.712	10.09
424.073	10.16
424.434	10.05
424.795	10.14
425.155	10.13
425.516	10.17
425.877	10.16
426.238	10.24
426.598	10.28
426.959	10.26
427.32	10.27
427.68	10.44
428.041	10.58
428.401	10.38
428.761	10.56
429.122	10.59
429.482	10.74
429.842	10.63
430.202	10.94
430.563	10.8
430.923	10.9
431.283	10.92
431.643	11.03
432.003	11.02
432.363	10.84
432.722	10.98
433.082	10.85
433.442	11
433.802	10.99
434.161	10.9
434.521	11.04
434.881	11
435.24	10.98
435.6	11.11
435.959	11.12
436.319	11.08
436.678	11.32
437.037	11.23
437.396	11.34
437.756	11.36
438.115	11.34
438.474	11.48
438.833	11.34
439.192	11.44
439.551	11.3
439.91	11.38
440.269	11.49
440.628	11.46
440.987	11.5
441.345	11.52
441.704	11.39
442.063	11.37
442.421	11.35
442.78	11.51
443.138	11.58
443.497	11.59
443.855	11.53
444.214	11.63
444.572	11.93
444.93	11.84
445.288	11.9
445.647	11.72
446.005	11.71
446.363	11.73
446.721	11.74
447.079	11.58
447.437	11.79
447.795	11.68
448.153	11.68
448.51	11.7
448.868	11.81
449.226	11.83
449.584	11.83
449.941	12.03
450.299	12.03
450.656	12.07
451.014	12.24
451.371	12.34
451.729	12.38
452.086	12.49
452.443	12.57
452.801	12.38
453.158	12.68
453.515	12.29
453.872	12.49
454.229	12.36
454.586	12.44
454.943	12.6
455.3	12.66
455.657	12.55
456.014	12.65
456.371	12.78
456.727	12.84
457.084	12.79
457.441	12.53
457.797	12.76
458.154	12.7
458.51	12.82
458.867	13.04
459.223	12.8
459.58	12.79
459.936	12.93
460.292	12.75
460.648	12.65
461.005	12.64
461.361	12.64
461.717	12.68
462.073	12.92
462.429	12.92
462.785	13.16
463.141	13.16
463.496	13.2
463.852	13.24
464.208	13.21
464.564	13.3
464.919	13.42
465.275	13.49
465.631	13.6
465.986	13.71
466.342	13.29
466.697	13.55
467.052	13.71
467.408	13.55
467.763	13.64
468.118	13.5
468.473	13.73
468.829	13.49
469.184	13.69
469.539	13.48
469.894	13.66
470.249	13.62
470.603	13.96
470.958	13.92
471.313	13.86
471.668	14.03
472.023	13.87
472.377	13.95
472.732	14.24
473.086	13.99
473.441	14.01
473.795	14.29
474.15	14.14
474.504	14.11
474.859	14.03
475.213	14.29
475.567	14.17
475.921	14.31
476.275	14.47
476.63	14.49
476.984	14.34
477.338	14.47
477.692	14.37
478.045	14.47
478.399	14.45
478.753	14.42
479.107	14.36
479.461	14.56
479.814	14.51
480.168	14.62
480.521	14.61
480.875	14.6
481.228	14.63
481.582	14.65
481.935	14.82
482.289	14.65
482.642	14.77
482.995	14.65
483.348	14.53
483.701	14.56
484.055	14.48
484.408	14.38
484.761	14.03
485.114	13.85
485.466	13.82
485.819	13.86
486.172	14
486.525	14.08
486.878	14.24
487.23	14.44
487.583	14.61
487.936	14.53
488.288	14.52
488.641	14.37
488.993	14.3
489.345	14.27
489.698	14.42
490.05	14.45
490.402	14.59
490.754	14.73
491.107	14.89
491.459	15.04
491.811	15.14
492.163	15.17
492.515	15
492.866	14.76
493.218	14.66
493.57	14.82
493.922	14.89
494.274	15.15
494.625	15.33
494.977	15.44
495.328	15.52
495.68	15.65
496.031	15.77
496.383	15.71
496.734	15.9
497.086	15.96
497.437	15.89
497.788	15.97
498.139	15.81
498.49	15.75
498.842	15.91
499.193	15.82
499.544	15.95
499.894	15.96
500.245	16.2
500.596	16.15
500.947	16.19
501.298	16.14
501.648	16.34
501.999	16.41
502.35	16.44
502.7	16.53
503.051	16.31
503.401	16.47
503.752	16.52
504.102	16.59
504.452	16.51
504.803	16.57
505.153	16.68
505.503	16.64
505.853	16.65
506.203	16.75
506.553	16.72
506.903	16.82
507.253	16.81
507.603	16.85
507.953	16.92
508.303	17.01
508.652	16.97
509.002	16.77
509.352	16.84
509.701	16.76
510.051	16.9
510.4	17
510.75	16.8
511.099	16.81
511.449	16.98
511.798	17
512.147	16.96
512.496	17.1
512.846	17.04
513.195	17.11
513.544	17.26
513.893	17.08
514.242	17.1
514.591	17.2
514.939	17.25
515.288	17.36
515.637	17.37
515.986	17.46
516.334	17.67
516.683	17.77
517.032	17.62
517.38	17.5
517.729	17.68
518.077	17.56
518.426	17.59
518.774	17.7
519.122	17.56
519.47	17.42
519.819	17.32
520.167	17.22
520.515	17.29
520.863	17.29
521.211	17.49
521.559	17.52
521.907	17.66
522.255	17.83
522.602	17.98
522.95	18.08
523.298	18.08
523.645	17.9
523.993	17.93
524.341	18.05
524.688	18.29
525.036	18.18
525.383	18.22
525.73	18.26
526.078	18.13
526.425	18.05
526.772	18.01
527.119	17.9
527.466	17.94
527.814	17.95
528.161	18.05
528.508	18.11
528.854	17.99
529.201	17.88
529.548	17.78
529.895	17.33
530.242	17.31
530.588	17.47
530.935	17.58
531.282	17.65
531.628	17.9
531.975	17.98
532.321	18.16
532.667	18.35
533.014	18.37
533.36	18.49
533.706	18.46
534.052	18.39
534.399	18.15
534.745	18.11
535.091	18.18
535.437	18.14
535.783	18.38
536.129	18.49
536.474	18.68
536.82	18.87
537.166	18.88
537.512	18.82
537.857	18.76
538.203	18.66
538.549	18.76
538.894	18.78
539.239	18.9
539.585	19.03
539.93	19.25
540.276	19.23
540.621	19.53
540.966	19.41
541.311	19.36
541.656	19.36
542.001	19.11
542.346	19.03
542.691	18.65
543.036	18.61
543.381	18.68
543.726	18.9
544.071	18.94
544.415	19.03
544.76	19.19
545.105	19.24
545.449	19.38
545.794	19.45
546.138	19.67
546.483	19.85
546.827	19.79
547.171	19.91
547.516	19.91
547.86	19.76
548.204	19.8
548.548	19.73
548.892	19.85
549.236	19.98
549.58	20.09
549.924	20.37
550.268	20.42
550.612	20.22
550.956	20.59
551.3	20.7
551.643	20.57
551.987	20.51
552.33	20.92
552.674	20.81
553.017	20.5
553.361	20.74
553.704	20.83
554.048	20.65
554.391	20.74
554.734	20.35
555.077	20.65
555.42	20.67
555.764	20.81
556.107	20.96
556.45	20.91
556.793	21.14
557.135	21.03
557.478	20.99
557.821	21.07
558.164	21.25
558.507	21.28
558.849	21.33
559.192	21.19
559.534	21.34
559.877	21.27
560.219	21.31
560.562	21.24
560.904	21.37
561.246	21.27
561.589	21.45
561.931	21.29
562.273	21.38
562.615	21.5
562.957	21.65
563.299	21.41
563.641	21.62
563.983	21.46
564.325	21.81
564.667	21.71
565.008	21.74
565.35	21.71
565.692	21.6
566.033	21.78
566.375	21.78
566.716	21.89
567.058	21.71
567.399	21.82
567.741	21.76
568.082	21.52
568.423	21.56
568.764	21.83
569.105	21.77
569.447	21.86
569.788	21.79
570.129	22.13
570.47	22.21
570.811	21.96
571.151	22.05
571.492	22.26
571.833	22.21
572.174	22.28
572.514	22.15
572.855	22.36
573.195	22.22
573.536	22.29
573.876	21.99
574.217	22.04
574.557	22.21
574.898	22.27
575.238	22.42
575.578	22.47
575.918	22.5
576.258	22.69
576.598	22.23
576.938	22.22
577.278	22.44
577.618	22.24
577.958	22.62
578.298	22.54
578.638	22.65
578.977	22.9
579.317	22.73
579.657	22.79
579.996	22.89
580.336	22.99
580.675	22.87
581.014	23.13
581.354	22.73
581.693	23.21
582.032	23.31
582.372	23.3
582.711	23.33
583.05	23.33
583.389	23.42
583.728	23.14
584.067	23.29
584.406	23.54
584.745	23.16
585.083	23.44
585.422	23.65
585.761	23.54
586.1	23.56
586.438	23.5
586.777	23.5
587.115	23.61
587.454	23.59
587.792	23.73
588.13	23.8
588.469	23.68
588.807	23.54
589.145	23.7
589.483	23.58
589.821	23.51
590.159	23.63
590.497	23.73
590.835	23.99
591.173	23.84
591.511	24
591.849	23.92
592.187	23.51
592.524	23.95
592.862	23.87
593.2	24.01
593.537	24.16
593.875	24.16
594.212	24.11
594.55	23.97
594.887	24.36
595.224	24.37
595.561	24.19
595.899	24.1
596.236	24.26
596.573	24.01
596.91	24.42
597.247	24.33
597.584	24.19
597.921	24.13
598.258	24.15
598.594	24.02
598.931	24.02
599.268	24.16
599.604	24.29
599.941	24.3
600.277	24.47
600.614	24.43
600.95	24.31
601.287	24.56
601.623	24.53
601.959	24.92
602.296	24.93
602.632	24.56
602.968	24.72
603.304	24.84
603.64	24.79
603.976	24.37
604.312	24.68
604.648	24.78
604.984	24.66
605.319	24.87
605.655	24.82
605.991	24.72
606.326	24.66
606.662	24.61
606.998	24.74
607.333	24.8
607.668	24.89
608.004	24.83
608.339	25.09
608.674	25.25
609.01	25.43
609.345	25.04
609.68	25.4
610.015	25.14
610.35	25.3
610.685	25
611.02	25.03
611.355	24.92
611.689	25.29
612.024	25.25
612.359	25.68
612.694	25.42
613.028	25.19
613.363	25.51
613.697	25.67
614.032	25.78
614.366	25.56
614.7	25.74
615.035	25.84
615.369	25.95
615.703	26.03
616.037	25.81
616.371	25.9
616.705	26.05
617.039	25.67
617.373	25.94
617.707	26.07
618.041	25.9
618.375	25.77
618.709	26.39
619.042	25.84
619.376	25.86
619.71	25.86
620.043	26.02
620.377	26.27
620.71	26.24
621.043	26.83
621.377	26.3
621.71	26.48
622.043	26.43
622.376	26.33
622.709	26.52
623.043	26.44
623.376	26.23
623.709	26.48
624.041	26.6
624.374	26.53
624.707	26.59
625.04	26.43
625.373	26.32
625.705	26.79
626.038	26.7
626.37	26.52
626.703	26.84
627.035	26.75
627.368	26.68
627.7	26.9
628.032	26.65
628.365	26.78
628.697	26.67
629.029	26.86
629.361	26.76
629.693	26.48
630.025	26.97
630.357	26.87
630.689	26.88
631.021	26.81
631.353	27.06
631.684	26.74
632.016	26.25
632.348	26.77
632.679	27.31
633.011	26.96
633.342	26.9
633.674	26.56
634.005	27.36
634.336	27.1
634.668	27.38
634.999	26.77
635.33	27.09
635.661	27.13
635.992	27.17
636.323	27.19
636.654	27.32
636.985	27.1
637.316	26.98
637.647	27.43
637.977	27.69
638.308	28.11
638.639	27.77
638.969	27.47
639.3	27.55
639.63	27.36
639.961	27.81
640.291	28.02
640.622	27.6
640.952	27.75
641.282	27.61
641.612	27.55
641.943	27.49
642.273	27.64
642.603	27.95
642.933	27.99
643.263	28.34
643.592	28.18
643.922	28.25
644.252	28.12
644.582	27.9
644.911	27.87
645.241	28.36
645.571	28.02
645.9	28.33
646.23	28.45
646.559	27.96
646.888	28.68
647.218	27.92
647.547	27.98
647.876	28.12
648.205	27.6
648.534	27.98
648.863	28.32
649.192	28.49
649.521	28.19
649.85	28.46
650.179	28.51
650.508	28.33
650.837	28.6
651.165	29.06
651.494	28.11
651.822	28.31
652.151	28.45
652.479	28.8
652.808	28.25
653.136	28.4
653.465	28.43
653.793	28.51
654.121	28.6
654.449	28.18
654.777	28.1
655.105	28.01
655.433	28.53
655.761	28.83
656.089	28.89
656.417	29.14
656.745	29.26
657.073	28.93
657.4	28.52
657.728	28.53
658.056	28.86
658.383	28.4
658.711	28.77
659.038	29.11
659.365	28.88
659.693	29.32
660.02	28.43
660.347	28.88
660.674	29.04
661.001	28.66
661.329	28.97
661.656	28.65
661.982	29.05
662.309	29.22
662.636	28.99
662.963	28.89
663.29	29.71
663.616	28.98
663.943	29.25
664.27	29.18
664.596	29.46
664.923	29.13
665.249	29.03
665.576	29.4
665.902	29.43
666.228	29.72
666.554	29.72
666.881	29.04
667.207	29.57
667.533	29.45
667.859	29.64
668.185	29.21
668.511	29.88
668.837	29.05
669.162	29.61
669.488	29.07
669.814	30.01
670.139	29.16
670.465	29.41
670.791	29.11
671.116	30.37
671.442	29.14
671.767	30.16
672.092	30.1
672.418	30.21
672.743	29.25
673.068	29.66
673.393	29.83
673.718	30.17
674.043	30.12
674.368	30.08
674.693	29.83
