Data from 0007_forehead_Reflection__2__298.txt Node

Date: Thu Dec 15 19:01:15 CST 2022
User: ToomeyLab
Spectrometer: FLMS14357
Trigger mode: 0
Integration Time (sec): 1.000000E-2
Scans to average: 100
Electric dark correction enabled: true
Nonlinearity correction enabled: false
Boxcar width: 0
XAxis mode: Wavelengths
Number of Pixels in Spectrum: 2048
>>>>>Begin Spectral Data<<<<<
189.047	-101.52
189.435	-101.52
189.823	-101.52
190.211	-3.87
190.599	147.76
190.987	82.86
191.375	25.07
191.763	113.59
192.151	-4.04
192.538	154.69
192.926	180.3
193.314	52.61
193.702	112.45
194.089	74.74
194.477	530.6
194.864	223.78
195.252	-88.17
195.639	56.79
196.027	524.44
196.414	48.79
196.801	44.61
197.189	23.29
197.576	-289.24
197.963	1.17
198.351	45.63
198.738	-30.19
199.125	-215.72
199.512	50.34
199.899	-4.74
200.286	6.98
200.673	28.06
201.06	-4.66
201.447	22.44
201.833	44.97
202.22	48.68
202.607	21.24
202.994	50.95
203.38	79.22
203.767	-10.78
204.154	46.24
204.54	25.09
204.927	42.73
205.313	39.37
205.699	2.42
206.086	38.32
206.472	47.29
206.858	28.15
207.245	-4.41
207.631	7.52
208.017	52.6
208.403	-14.35
208.789	-8.45
209.175	-8.34
209.561	-89.83
209.947	-24.15
210.333	28.36
210.719	31.92
211.105	16.42
211.491	-9.24
211.876	-10.73
212.262	22.06
212.648	29.36
213.034	-23.34
213.419	45.58
213.805	12.07
214.19	-11.73
214.576	-33.73
214.961	64.42
215.346	-8.18
215.732	-13.06
216.117	1.35
216.502	-2.9
216.888	21.6
217.273	6.04
217.658	-3.93
218.043	0.96
218.428	-5.07
218.813	21.32
219.198	-12.31
219.583	17.82
219.968	-5.79
220.353	-16.09
220.738	-8.62
221.122	-14.14
221.507	-7.66
221.892	0.54
222.276	-38.94
222.661	-6.29
223.046	-7.32
223.43	19.67
223.815	-1.51
224.199	-5.64
224.583	0.65
224.968	1.47
225.352	-10.5
225.736	11.01
226.121	4.15
226.505	-0.6
226.889	-0.96
227.273	-3.97
227.657	2.47
228.041	5.56
228.425	2.73
228.809	1.58
229.193	3.5
229.577	2.39
229.961	3.04
230.344	4.02
230.728	4.18
231.112	4.32
231.495	1.9
231.879	2.6
232.263	3.63
232.646	2.74
233.03	4.87
233.413	4.02
233.797	1.15
234.18	4.29
234.563	5.17
234.946	2.71
235.33	3.27
235.713	3.52
236.096	5.49
236.479	4.36
236.862	2.19
237.245	3
237.628	2.81
238.011	3.54
238.394	3.19
238.777	4.01
239.16	4.6
239.543	3.69
239.925	3.47
240.308	2.47
240.691	3.02
241.073	3.23
241.456	4.88
241.838	4.14
242.221	3.4
242.603	3.28
242.986	3.88
243.368	4.14
243.75	3.85
244.133	4.21
244.515	3.46
244.897	3.65
245.279	3.97
245.661	3.79
246.043	3.83
246.425	4.13
246.807	3.94
247.189	3.79
247.571	3.69
247.953	3.57
248.335	3.67
248.717	3.92
249.098	3.61
249.48	3.87
249.862	3.74
250.243	4.08
250.625	3.89
251.006	4.38
251.388	3.35
251.769	3.66
252.151	4.6
252.532	3.11
252.913	3.49
253.295	3.57
253.676	3.45
254.057	3.78
254.438	3.15
254.819	4.21
255.2	4.3
255.581	4.67
255.962	4.22
256.343	4.32
256.724	3.25
257.105	3.92
257.486	3.52
257.867	3.54
258.247	3.6
258.628	4.17
259.009	3.38
259.389	3.38
259.77	3.67
260.15	4.35
260.531	3.91
260.911	3.37
261.292	3.69
261.672	3.48
262.052	3.64
262.432	3.34
262.813	3.88
263.193	3.78
263.573	3.44
263.953	2.93
264.333	3.52
264.713	4.01
265.093	4.18
265.473	3.34
265.853	3.16
266.233	3.71
266.612	3.21
266.992	3.47
267.372	3.92
267.752	3.98
268.131	3.4
268.511	3.41
268.89	4.36
269.27	3.2
269.649	2.95
270.029	3.4
270.408	2.92
270.787	3.55
271.167	3.56
271.546	4.25
271.925	3.74
272.304	3.66
272.683	3.45
273.062	3.44
273.441	3.16
273.82	3.71
274.199	3.29
274.578	3.77
274.957	3.37
275.336	3.69
275.715	3.71
276.093	3.26
276.472	2.95
276.851	3.24
277.229	3.59
277.608	2.95
277.986	2.98
278.365	4.01
278.743	3.85
279.122	3.22
279.5	3.28
279.878	3.28
280.257	3.27
280.635	3.75
281.013	3.07
281.391	4.09
281.769	3.55
282.147	3.4
282.525	3.4
282.903	3.15
283.281	3.91
283.659	3.98
284.037	3.34
284.415	3.28
284.792	3.76
285.17	3.46
285.548	3.63
285.925	3.3
286.303	3.59
286.68	3.43
287.058	3.7
287.435	3.43
287.813	3.17
288.19	3.27
288.567	3.41
288.945	3.17
289.322	3.76
289.699	3.51
290.076	3.68
290.453	3.38
290.83	3.38
291.207	3.73
291.584	3.84
291.961	3.97
292.338	3.8
292.715	3.07
293.092	3.82
293.469	3.73
293.845	3.89
294.222	4.15
294.599	3.65
294.975	2.99
295.352	3.82
295.728	3.74
296.105	3.67
296.481	3.88
296.858	4.11
297.234	3.72
297.61	4.19
297.986	4.18
298.363	4.28
298.739	4.16
299.115	4.18
299.491	4.59
299.867	3.79
300.243	4.01
300.619	3.87
300.995	3.74
301.371	4.31
301.746	4.57
302.122	3.87
302.498	4.25
302.874	4.01
303.249	4.09
303.625	3.98
304	4.5
304.376	4.51
304.751	3.96
305.127	4.28
305.502	4.61
305.878	4.45
306.253	3.99
306.628	4.4
307.003	4.31
307.378	4.05
307.754	5
308.129	4.37
308.504	4.61
308.879	4.58
309.254	4.52
309.629	4.35
310.003	4.53
310.378	4.95
310.753	4.44
311.128	4.32
311.502	4.56
311.877	4.63
312.252	4.47
312.626	4.94
313.001	4.94
313.375	4.63
313.75	5.1
314.124	5.07
314.498	5.26
314.873	4.76
315.247	4.74
315.621	4.29
315.995	4.82
316.369	4.52
316.743	4.51
317.117	4.82
317.491	4.99
317.865	4.93
318.239	4.96
318.613	5.02
318.987	4.65
319.361	5.19
319.734	5.13
320.108	4.99
320.482	5.14
320.855	4.74
321.229	5.12
321.602	5.7
321.976	4.87
322.349	5.59
322.723	5.59
323.096	5.3
323.469	5.17
323.843	5.13
324.216	5.12
324.589	5.47
324.962	5.1
325.335	5.42
325.708	5.46
326.081	5.5
326.454	5.36
326.827	5.59
327.2	5.41
327.573	5.98
327.945	5.65
328.318	5.29
328.691	5.68
329.063	5.45
329.436	5.64
329.809	5.93
330.181	6.05
330.553	6
330.926	5.88
331.298	5.45
331.671	6.2
332.043	5.37
332.415	6.13
332.787	6.31
333.159	5.85
333.532	5.99
333.904	6
334.276	6.04
334.648	6
335.02	5.83
335.391	5.73
335.763	6.22
336.135	6.58
336.507	6.36
336.879	6.05
337.25	6.15
337.622	6.02
337.993	6.1
338.365	6.21
338.736	6.34
339.108	6.37
339.479	6.4
339.851	6.22
340.222	6.45
340.593	6.07
340.964	6.38
341.336	6.49
341.707	6.78
342.078	6.41
342.449	6.5
342.82	6.5
343.191	6.39
343.562	6.68
343.933	6.59
344.303	6.64
344.674	6.66
345.045	6.3
345.416	7.05
345.786	6.73
346.157	7.12
346.527	6.61
346.898	6.4
347.268	6.79
347.639	6.31
348.009	6.98
348.38	6.56
348.75	6.88
349.12	6.69
349.49	6.56
349.861	6.69
350.231	6.91
350.601	6.93
350.971	6.95
351.341	7.39
351.711	6.86
352.081	6.83
352.45	6.77
352.82	6.31
353.19	7.08
353.56	7.06
353.929	7.21
354.299	7.21
354.669	7.08
355.038	7.21
355.408	7.32
355.777	7.21
356.147	7.24
356.516	7.17
356.885	7.39
357.254	6.99
357.624	6.82
357.993	7.13
358.362	7.49
358.731	7.82
359.1	7.61
359.469	7.67
359.838	7.61
360.207	7.35
360.576	7.63
360.945	7.47
361.314	7.39
361.682	7.37
362.051	7.57
362.42	7.55
362.788	7.49
363.157	7.57
363.525	7.71
363.894	7.56
364.262	7.76
364.631	7.72
364.999	7.91
365.367	7.8
365.735	7.68
366.104	7.67
366.472	7.78
366.84	7.75
367.208	8.06
367.576	7.99
367.944	7.71
368.312	8.02
368.68	8.34
369.048	7.91
369.416	7.97
369.783	7.91
370.151	8.34
370.519	8.38
370.886	8.17
371.254	8.62
371.621	8.48
371.989	8.3
372.356	8.49
372.724	8.27
373.091	8.12
373.458	8.43
373.826	8.57
374.193	8.52
374.56	8.69
374.927	8.44
375.294	8.58
375.661	8.6
376.028	8.27
376.395	8.66
376.762	8.24
377.129	8.6
377.496	8.65
377.863	8.67
378.229	9.07
378.596	8.84
378.963	8.85
379.329	8.88
379.696	8.87
380.062	8.85
380.429	8.81
380.795	9.12
381.161	8.75
381.528	8.83
381.894	8.85
382.26	9
382.626	8.79
382.993	9.41
383.359	8.9
383.725	8.92
384.091	9.12
384.457	9
384.823	9.45
385.188	9.26
385.554	9.3
385.92	8.99
386.286	9.13
386.651	9.23
387.017	9.2
387.383	9.38
387.748	9.48
388.114	9.68
388.479	9.4
388.845	9.24
389.21	9.54
389.575	9.55
389.94	9.52
390.306	9.66
390.671	9.65
391.036	9.64
391.401	9.73
391.766	9.58
392.131	9.87
392.496	9.88
392.861	9.72
393.226	9.73
393.591	9.9
393.956	9.81
394.32	9.9
394.685	9.78
395.05	9.75
395.414	10
395.779	10.12
396.143	10.01
396.508	9.89
396.872	10.09
397.236	10.25
397.601	10.39
397.965	10.15
398.329	10.13
398.694	9.96
399.058	10.13
399.422	10.22
399.786	10.24
400.15	10.47
400.514	10.28
400.878	10.3
401.242	10.7
401.605	10.65
401.969	10.32
402.333	10.21
402.697	10.56
403.06	10.4
403.424	10.67
403.787	10.44
404.151	10.49
404.514	10.63
404.878	10.63
405.241	10.54
405.604	10.72
405.968	10.77
406.331	10.81
406.694	10.8
407.057	10.81
407.42	10.92
407.783	10.71
408.146	10.75
408.509	11
408.872	10.84
409.235	11.03
409.598	10.93
409.961	11.22
410.323	11.16
410.686	11.15
411.049	10.97
411.411	11.3
411.774	11.29
412.136	11.39
412.499	11.4
412.861	10.99
413.223	11.35
413.586	11.29
413.948	11.6
414.31	11.59
414.672	11.26
415.035	11.51
415.397	11.38
415.759	11.13
416.121	11.63
416.483	11.49
416.845	11.39
417.206	11.62
417.568	11.48
417.93	11.51
418.292	11.55
418.653	11.49
419.015	11.55
419.377	11.52
419.738	11.71
420.1	11.54
420.461	11.53
420.822	11.59
421.184	11.63
421.545	11.73
421.906	11.57
422.267	11.57
422.629	11.48
422.99	11.59
423.351	11.65
423.712	11.62
424.073	11.75
424.434	11.85
424.795	11.73
425.155	11.74
425.516	11.76
425.877	11.74
426.238	11.78
426.598	11.9
426.959	11.93
427.32	12.01
427.68	12.17
428.041	12.14
428.401	12.29
428.761	12.43
429.122	12.36
429.482	12.39
429.842	12.4
430.202	12.57
430.563	12.44
430.923	12.4
431.283	12.45
431.643	12.68
432.003	12.39
432.363	12.53
432.722	12.63
433.082	12.53
433.442	12.7
433.802	12.69
434.161	12.67
434.521	12.46
434.881	12.63
435.24	12.51
435.6	12.76
435.959	12.75
436.319	12.89
436.678	12.97
437.037	12.76
437.396	12.9
437.756	12.74
438.115	12.83
438.474	12.92
438.833	12.86
439.192	12.96
439.551	12.74
439.91	13.05
440.269	13.02
440.628	12.95
440.987	13.04
441.345	13.02
441.704	12.92
442.063	12.92
442.421	12.96
442.78	13.06
443.138	13.05
443.497	13.16
443.855	13.24
444.214	13.22
444.572	13.38
444.93	13.37
445.288	13.26
445.647	13.33
446.005	13.4
446.363	13.29
446.721	13.29
447.079	13.16
447.437	13.26
447.795	13.3
448.153	13.19
448.51	13.45
448.868	13.35
449.226	13.48
449.584	13.39
449.941	13.61
450.299	13.61
450.656	13.7
451.014	13.87
451.371	13.88
451.729	13.8
452.086	13.85
452.443	13.86
452.801	13.97
453.158	14.08
453.515	13.92
453.872	14.05
454.229	13.81
454.586	13.86
454.943	13.99
455.3	14.11
455.657	13.98
456.014	14.21
456.371	14.18
456.727	14.18
457.084	14.3
457.441	14.11
457.797	14.17
458.154	14.28
458.51	14.12
458.867	14.34
459.223	14.26
459.58	14.4
459.936	14.38
460.292	14.2
460.648	14.22
461.005	14.17
461.361	14.11
461.717	14.14
462.073	14.29
462.429	14.47
462.785	14.5
463.141	14.57
463.496	14.63
463.852	14.76
464.208	14.74
464.564	14.62
464.919	14.81
465.275	14.75
465.631	14.98
465.986	14.99
466.342	14.87
466.697	15.01
467.052	15.01
467.408	15
467.763	14.98
468.118	14.82
468.473	15.12
468.829	14.92
469.184	15.11
469.539	14.82
469.894	15.15
470.249	15.33
470.603	15.2
470.958	15.31
471.313	15.15
471.668	15.25
472.023	15.38
472.377	15.19
472.732	15.41
473.086	15.33
473.441	15.32
473.795	15.74
474.15	15.56
474.504	15.45
474.859	15.29
475.213	15.55
475.567	15.4
475.921	15.67
476.275	15.71
476.63	15.81
476.984	15.67
477.338	15.79
477.692	15.61
478.045	15.74
478.399	15.72
478.753	15.66
479.107	15.76
479.461	15.65
479.814	15.77
480.168	15.8
480.521	15.9
480.875	15.81
481.228	15.95
481.582	15.85
481.935	15.99
482.289	16.04
482.642	16.02
482.995	15.91
483.348	15.73
483.701	15.89
484.055	15.69
484.408	15.59
484.761	15.41
485.114	15.23
485.466	15.06
485.819	15.25
486.172	15.24
486.525	15.4
486.878	15.44
487.23	15.62
487.583	15.72
487.936	15.81
488.288	15.71
488.641	15.6
488.993	15.6
489.345	15.61
489.698	15.6
490.05	15.71
490.402	15.79
490.754	15.95
491.107	16.07
491.459	16.18
491.811	16.33
492.163	16.29
492.515	16.08
492.866	15.97
493.218	15.85
493.57	15.91
493.922	16.03
494.274	16.27
494.625	16.34
494.977	16.54
495.328	16.66
495.68	16.78
496.031	16.86
496.383	16.78
496.734	16.91
497.086	17.11
497.437	17.03
497.788	16.94
498.139	16.84
498.49	16.76
498.842	16.75
499.193	16.86
499.544	16.96
499.894	16.91
500.245	17.25
500.596	17.14
500.947	17.05
501.298	17.28
501.648	17.31
501.999	17.33
502.35	17.29
502.7	17.52
503.051	17.36
503.401	17.36
503.752	17.48
504.102	17.57
504.452	17.45
504.803	17.37
505.153	17.61
505.503	17.52
505.853	17.57
506.203	17.7
506.553	17.49
506.903	17.79
507.253	17.62
507.603	17.69
507.953	17.88
508.303	17.89
508.652	17.57
509.002	17.87
509.352	17.71
509.701	17.71
510.051	17.77
510.4	17.77
510.75	17.66
511.099	17.65
511.449	17.82
511.798	17.77
512.147	17.84
512.496	17.99
512.846	17.94
513.195	18.15
513.544	17.95
513.893	18
514.242	18.02
514.591	18.06
514.939	18.2
515.288	18.16
515.637	18.13
515.986	18.22
516.334	18.6
516.683	18.41
517.032	18.49
517.38	18.38
517.729	18.47
518.077	18.41
518.426	18.49
518.774	18.45
519.122	18.44
519.47	18.19
519.819	18.1
520.167	18.06
520.515	18.15
520.863	18.18
521.211	18.26
521.559	18.24
521.907	18.47
522.255	18.42
522.602	18.64
522.95	18.73
523.298	18.8
523.645	18.61
523.993	18.88
524.341	18.81
524.688	18.85
525.036	18.91
525.383	18.95
525.73	18.91
526.078	18.79
526.425	18.85
526.772	18.55
527.119	18.6
527.466	18.69
527.814	18.67
528.161	18.59
528.508	18.83
528.854	18.77
529.201	18.63
529.548	18.45
529.895	18.19
530.242	18.26
530.588	18.29
530.935	18.35
531.282	18.34
531.628	18.53
531.975	18.65
532.321	18.76
532.667	18.93
533.014	19.06
533.36	19.06
533.706	19.05
534.052	19.05
534.399	18.88
534.745	18.75
535.091	18.69
535.437	18.81
535.783	18.86
536.129	19
536.474	19.23
536.82	19.53
537.166	19.33
537.512	19.43
537.857	19.36
538.203	19.25
538.549	19.3
538.894	19.4
539.239	19.55
539.585	19.68
539.93	19.8
540.276	19.8
540.621	19.84
540.966	19.9
541.311	20
541.656	19.86
542.001	19.64
542.346	19.49
542.691	19.19
543.036	19.22
543.381	19.3
543.726	19.42
544.071	19.43
544.415	19.52
544.76	19.63
545.105	19.66
545.449	19.71
545.794	19.89
546.138	20.02
546.483	20.24
546.827	20
547.171	20.29
547.516	20.27
547.86	20.31
548.204	20.27
548.548	20.2
548.892	20.28
549.236	20.28
549.58	20.56
549.924	20.53
550.268	20.77
550.612	20.63
550.956	20.71
551.3	21.03
551.643	20.77
551.987	21.11
552.33	20.8
552.674	20.89
553.017	21.04
553.361	21.14
553.704	20.81
554.048	21.02
554.391	21.07
554.734	20.81
555.077	20.88
555.42	21.02
555.764	21.17
556.107	21.04
556.45	21.21
556.793	21.36
557.135	21.27
557.478	21.35
557.821	21.24
558.164	21.22
558.507	21.28
558.849	21.63
559.192	21.46
559.534	21.53
559.877	21.48
560.219	21.42
560.562	21.51
560.904	21.86
561.246	21.45
561.589	21.8
561.931	21.66
562.273	21.62
562.615	21.58
562.957	21.55
563.299	21.63
563.641	21.8
563.983	21.62
564.325	22.01
564.667	21.97
565.008	21.94
565.35	21.74
565.692	21.79
566.033	21.92
566.375	21.95
566.716	21.82
567.058	21.96
567.399	21.94
567.741	21.73
568.082	21.91
568.423	21.71
568.764	21.99
569.105	22.02
569.447	21.89
569.788	22.02
570.129	22.26
570.47	22.09
570.811	22.12
571.151	22.08
571.492	22.1
571.833	22.06
572.174	22.47
572.514	22.14
572.855	22.26
573.195	22.15
573.536	22.15
573.876	22.02
574.217	22.08
574.557	22.17
574.898	22.27
575.238	22.38
575.578	22.43
575.918	22.39
576.258	22.42
576.598	22.07
576.938	22.32
577.278	22.56
577.618	22.45
577.958	22.6
578.298	22.4
578.638	22.54
578.977	22.67
579.317	22.74
579.657	22.58
579.996	22.77
580.336	22.81
580.675	22.98
581.014	23.15
581.354	22.78
581.693	22.81
582.032	23.14
582.372	23.05
582.711	23.15
583.05	23.09
583.389	23.12
583.728	23.21
584.067	22.91
584.406	23
584.745	23.15
585.083	23.3
585.422	23.42
585.761	23.3
586.1	23.42
586.438	23.2
586.777	23.27
587.115	23.61
587.454	23.5
587.792	23.61
588.13	23.56
588.469	23.35
588.807	23.43
589.145	23.66
589.483	23.4
589.821	23.4
590.159	23.76
590.497	23.62
590.835	23.67
591.173	23.66
591.511	23.61
591.849	23.67
592.187	23.55
592.524	23.92
592.862	23.7
593.2	23.84
593.537	23.67
593.875	23.82
594.212	23.84
594.55	23.64
594.887	23.91
595.224	24.06
595.561	23.86
595.899	24.05
596.236	23.98
596.573	23.9
596.91	24.04
597.247	24.05
597.584	23.92
597.921	23.94
598.258	24.08
598.594	23.58
598.931	23.68
599.268	23.73
599.604	23.84
599.941	23.88
600.277	23.95
600.614	24.1
600.95	24.05
601.287	23.99
601.623	23.94
601.959	24.36
602.296	24.47
602.632	24.4
602.968	24.4
603.304	24.46
603.64	24.52
603.976	24.45
604.312	24.13
604.648	24.36
604.984	24.29
605.319	24.37
605.655	24.16
605.991	24.24
606.326	24.13
606.662	24.17
606.998	24.36
607.333	24.49
607.668	24.49
608.004	24.53
608.339	24.52
608.674	24.8
609.01	24.91
609.345	24.79
609.68	24.93
610.015	24.94
610.35	24.74
610.685	24.49
611.02	24.65
611.355	24.77
611.689	24.5
612.024	24.77
612.359	24.94
612.694	24.65
613.028	24.71
613.363	25.05
613.697	25
614.032	24.99
614.366	24.91
614.7	25.2
615.035	25.47
615.369	25.26
615.703	25.2
616.037	25.23
616.371	25.2
616.705	25.44
617.039	25.36
617.373	25.4
617.707	25.39
618.041	25.48
618.375	24.85
618.709	25.01
619.042	25.48
619.376	25.4
619.71	24.74
620.043	25.55
620.377	25.73
620.71	25.5
621.043	25.54
621.377	25.37
621.71	25.67
622.043	25.61
622.376	25.74
622.709	26.07
623.043	25.5
623.376	25.69
623.709	25.72
624.041	25.49
624.374	25.59
624.707	25.65
625.04	25.47
625.373	25.86
625.705	25.65
626.038	25.79
626.37	25.51
626.703	26.14
627.035	25.66
627.368	26.16
627.7	25.76
628.032	25.83
628.365	25.87
628.697	26
629.029	25.78
629.361	25.98
629.693	26.22
630.025	26.21
630.357	26.26
630.689	25.93
631.021	26.24
631.353	25.9
631.684	26.08
632.016	25.89
632.348	25.6
632.679	26.35
633.011	26.26
633.342	26.26
633.674	26.14
634.005	26.41
634.336	26.6
634.668	26.09
634.999	26.29
635.33	26.59
635.661	26.28
635.992	26.5
636.323	26.45
636.654	26.43
636.985	26.3
637.316	26.68
637.647	26.6
637.977	26.64
638.308	26.86
638.639	26.59
638.969	26.44
639.3	26.51
639.63	26.56
639.961	26.91
640.291	26.65
640.622	26.84
640.952	27.01
641.282	26.79
641.612	26.82
641.943	26.49
642.273	26.34
642.603	27.3
642.933	27.08
643.263	26.94
643.592	27.4
643.922	27.35
644.252	27.4
644.582	27.22
644.911	27.29
645.241	27.05
645.571	27.04
645.9	27.14
646.23	27.67
646.559	26.97
646.888	27.56
647.218	27.46
647.547	27.34
647.876	27.23
648.205	27.22
648.534	26.92
648.863	27.19
649.192	26.96
649.521	27.01
649.85	27.55
650.179	27.14
650.508	27.45
650.837	27.61
651.165	27.5
651.494	27.44
651.822	27.71
652.151	27.54
652.479	27.5
652.808	27.77
653.136	27.46
653.465	27.27
653.793	27.63
654.121	27.22
654.449	27.17
654.777	27.66
655.105	27.66
655.433	27.63
655.761	27.43
656.089	27.68
656.417	28.44
656.745	27.88
657.073	27.24
657.4	27.29
657.728	27.4
658.056	27.92
658.383	27.51
658.711	28.1
659.038	27.83
659.365	27.75
659.693	28.13
660.02	27.44
660.347	27.71
660.674	27.84
661.001	27.3
661.329	27.96
661.656	27.4
661.982	27.92
662.309	27.8
662.636	28.14
662.963	28.18
663.29	28.69
663.616	28.17
663.943	27.68
664.27	28.48
664.596	27.81
664.923	28.23
665.249	28.75
665.576	28.22
665.902	28.8
666.228	29.09
666.554	28.53
666.881	28.17
667.207	28.56
667.533	28.43
667.859	28.48
668.185	27.81
668.511	28.96
668.837	28.33
669.162	28.9
669.488	27.98
669.814	28.86
670.139	28.06
670.465	29.12
670.791	28.29
671.116	28.19
671.442	28.35
671.767	28.7
672.092	28.96
672.418	29.03
672.743	28.32
673.068	28.31
673.393	28.47
673.718	28.65
674.043	28.68
674.368	28.77
