Data from 0007_chest_Reflection__1__287.txt Node

Date: Thu Dec 15 18:58:06 CST 2022
User: ToomeyLab
Spectrometer: FLMS14357
Trigger mode: 0
Integration Time (sec): 1.000000E-2
Scans to average: 100
Electric dark correction enabled: true
Nonlinearity correction enabled: false
Boxcar width: 0
XAxis mode: Wavelengths
Number of Pixels in Spectrum: 2048
>>>>>Begin Spectral Data<<<<<
189.047	7.68
189.435	7.68
189.823	7.68
190.211	-24.72
190.599	157.78
190.987	77.04
191.375	12.88
191.763	177.13
192.151	96.03
192.538	927.26
192.926	103.62
193.314	-37.89
193.702	65.79
194.089	-92.66
194.477	335.03
194.864	500.24
195.252	-115.67
195.639	104.86
196.027	110.38
196.414	-1.35
196.801	-167.59
197.189	153.19
197.576	46.46
197.963	58.48
198.351	-5.31
198.738	-28.32
199.125	-253.76
199.512	62.97
199.899	-57.37
200.286	-2.33
200.673	15.16
201.06	45.76
201.447	-2.68
201.833	-3.56
202.22	31.52
202.607	-29.26
202.994	84.25
203.38	3.62
203.767	16.27
204.154	9.46
204.54	24.86
204.927	50.69
205.313	25.94
205.699	6.78
206.086	17.28
206.472	5.1
206.858	20.88
207.245	-12.7
207.631	-2.27
208.017	41.86
208.403	-73.3
208.789	9.92
209.175	-29.34
209.561	-48.56
209.947	-3.32
210.333	24.62
210.719	-3.84
211.105	16.96
211.491	-2.75
211.876	-37.31
212.262	21.85
212.648	-4.25
213.034	-19.25
213.419	1.32
213.805	-0.14
214.19	-23.18
214.576	-30.62
214.961	2.7
215.346	-20.63
215.732	-0.61
216.117	31.64
216.502	-28.05
216.888	0.5
217.273	-4.16
217.658	-13.65
218.043	-12.49
218.428	-37.91
218.813	16.49
219.198	-44.58
219.583	-19.9
219.968	1.52
220.353	-6.09
220.738	4.99
221.122	-17.13
221.507	-15.59
221.892	-14.62
222.276	-25.82
222.661	-8.03
223.046	-5.01
223.43	7.75
223.815	5.43
224.199	1.51
224.583	3.13
224.968	1.32
225.352	-5.17
225.736	13.1
226.121	3.89
226.505	3.68
226.889	4.58
227.273	0.65
227.657	5.98
228.041	4.61
228.425	4.04
228.809	3.55
229.193	4.81
229.577	6.29
229.961	5.96
230.344	6.61
230.728	7.05
231.112	6.97
231.495	5.75
231.879	6.6
232.263	7.95
232.646	5.69
233.03	6.56
233.413	6.2
233.797	4.87
234.18	3.71
234.563	5.62
234.946	4.66
235.33	6.08
235.713	6.32
236.096	6.56
236.479	5.85
236.862	5.89
237.245	4.79
237.628	6.15
238.011	6.39
238.394	5
238.777	6.77
239.16	6.94
239.543	6.56
239.925	5.79
240.308	5.42
240.691	5.09
241.073	7.5
241.456	5.36
241.838	6.94
242.221	5.87
242.603	5.99
242.986	6.4
243.368	6.11
243.75	6.59
244.133	6.52
244.515	6.01
244.897	5.61
245.279	5.25
245.661	6.44
246.043	5.4
246.425	6.02
246.807	6.22
247.189	5.58
247.571	5.52
247.953	5.84
248.335	6.04
248.717	5.96
249.098	6.01
249.48	6.32
249.862	5.94
250.243	5.93
250.625	6.21
251.006	6.61
251.388	5.17
251.769	5.29
252.151	6.77
252.532	5.59
252.913	5.51
253.295	6.03
253.676	5.75
254.057	5.53
254.438	5.48
254.819	5.62
255.2	5.41
255.581	6.17
255.962	6.42
256.343	5.71
256.724	5.15
257.105	5.14
257.486	4.63
257.867	4.79
258.247	5.72
258.628	5.57
259.009	5.16
259.389	4.86
259.77	5.39
260.15	5.86
260.531	5.49
260.911	5.53
261.292	5.69
261.672	5.52
262.052	5.64
262.432	5.78
262.813	5.88
263.193	6.12
263.573	5.49
263.953	5.56
264.333	5.36
264.713	6.07
265.093	5.16
265.473	4.98
265.853	5.53
266.233	4.96
266.612	4.59
266.992	5.26
267.372	5.36
267.752	5.67
268.131	5.26
268.511	5.18
268.89	5.74
269.27	4.92
269.649	5.02
270.029	5.17
270.408	5.15
270.787	5.32
271.167	5.37
271.546	5.71
271.925	5.88
272.304	5.3
272.683	4.93
273.062	5.09
273.441	5.43
273.82	5.47
274.199	5.21
274.578	5.64
274.957	5.69
275.336	5.7
275.715	5.85
276.093	4.55
276.472	5.45
276.851	5.45
277.229	5.24
277.608	5.1
277.986	5.32
278.365	5.39
278.743	5.83
279.122	5.4
279.5	4.77
279.878	5.14
280.257	4.96
280.635	5.17
281.013	5.16
281.391	5
281.769	5.76
282.147	5.36
282.525	5.34
282.903	4.88
283.281	5.57
283.659	5.4
284.037	5.05
284.415	5.15
284.792	5.13
285.17	5.47
285.548	5.14
285.925	5.19
286.303	5.54
286.68	5.24
287.058	5.61
287.435	5.21
287.813	5.15
288.19	5.14
288.567	5.51
288.945	4.97
289.322	5.42
289.699	5.43
290.076	5.1
290.453	5.11
290.83	5.47
291.207	5.11
291.584	5.72
291.961	5.31
292.338	5.33
292.715	5.22
293.092	5.32
293.469	4.91
293.845	5.65
294.222	5.72
294.599	5.62
294.975	4.98
295.352	5.33
295.728	5.57
296.105	5.41
296.481	5.3
296.858	5.49
297.234	4.84
297.61	5.12
297.986	5.6
298.363	5.47
298.739	5.88
299.115	5.34
299.491	5.72
299.867	5.2
300.243	5.41
300.619	5.23
300.995	5.44
301.371	5.59
301.746	5.43
302.122	5.23
302.498	5.43
302.874	5.33
303.249	5.51
303.625	5.59
304	5.73
304.376	6.02
304.751	5.43
305.127	5.34
305.502	5.84
305.878	5.71
306.253	5.3
306.628	5.61
307.003	5.82
307.378	5.77
307.754	5.76
308.129	5.17
308.504	5.49
308.879	5.76
309.254	6.37
309.629	5.5
310.003	5.36
310.378	5.67
310.753	6.22
311.128	5.56
311.502	5.65
311.877	5.53
312.252	5.49
312.626	5.74
313.001	5.79
313.375	5.79
313.75	6.24
314.124	5.97
314.498	5.79
314.873	5.56
315.247	5.62
315.621	5.43
315.995	5.82
316.369	5.08
316.743	5.56
317.117	5.76
317.491	6
317.865	5.04
318.239	6.15
318.613	5.46
318.987	5.67
319.361	5.89
319.734	5.86
320.108	5.98
320.482	5.96
320.855	5.54
321.229	5.85
321.602	6.04
321.976	5.33
322.349	6.11
322.723	5.72
323.096	6.3
323.469	5.73
323.843	5.71
324.216	6.18
324.589	5.96
324.962	5.5
325.335	5.57
325.708	6.14
326.081	6.48
326.454	6.5
326.827	5.86
327.2	5.75
327.573	6.53
327.945	5.87
328.318	5.77
328.691	5.67
329.063	5.84
329.436	5.97
329.809	6.29
330.181	6.62
330.553	6.66
330.926	6.23
331.298	5.89
331.671	6.42
332.043	6.07
332.415	5.92
332.787	6.5
333.159	5.59
333.532	6.18
333.904	6.36
334.276	6.37
334.648	6.14
335.02	6.02
335.391	6.04
335.763	6.07
336.135	6.24
336.507	5.99
336.879	6.19
337.25	6.37
337.622	6.35
337.993	6.33
338.365	5.96
338.736	6.67
339.108	6.64
339.479	6.28
339.851	6.41
340.222	6.34
340.593	6.15
340.964	6.57
341.336	6.05
341.707	6.33
342.078	6.36
342.449	6.29
342.82	5.99
343.191	6.4
343.562	6.25
343.933	6.28
344.303	6.42
344.674	6.31
345.045	6.41
345.416	6.43
345.786	6.35
346.157	6.26
346.527	6.3
346.898	6
347.268	6.38
347.639	6.02
348.009	6.54
348.38	6.01
348.75	6.33
349.12	6.63
349.49	6.58
349.861	6.38
350.231	6.11
350.601	6.58
350.971	6.47
351.341	6.82
351.711	6.58
352.081	5.96
352.45	6.45
352.82	6.02
353.19	6.41
353.56	6.28
353.929	6.11
354.299	6.65
354.669	6.36
355.038	6.58
355.408	6.53
355.777	6.62
356.147	6.67
356.516	6.42
356.885	6.53
357.254	6.55
357.624	6.13
357.993	6.65
358.362	6.59
358.731	6.68
359.1	6.56
359.469	6.95
359.838	6.98
360.207	6.38
360.576	6.65
360.945	6.78
361.314	6.39
361.682	6.44
362.051	6.77
362.42	6.55
362.788	6.83
363.157	6.53
363.525	6.79
363.894	6.59
364.262	6.7
364.631	6.72
364.999	6.7
365.367	6.73
365.735	6.69
366.104	6.75
366.472	6.69
366.84	6.71
367.208	6.79
367.576	6.67
367.944	6.59
368.312	6.55
368.68	6.91
369.048	6.96
369.416	6.4
369.783	6.47
370.151	7.22
370.519	7.24
370.886	7.22
371.254	7.08
371.621	6.76
371.989	6.99
372.356	6.6
372.724	6.98
373.091	6.96
373.458	6.79
373.826	7.04
374.193	6.86
374.56	6.89
374.927	6.42
375.294	6.9
375.661	7.33
376.028	6.79
376.395	7.03
376.762	6.73
377.129	6.49
377.496	6.99
377.863	6.97
378.229	7.21
378.596	7.17
378.963	7.26
379.329	7.1
379.696	6.81
380.062	7.06
380.429	6.68
380.795	7.15
381.161	6.68
381.528	6.87
381.894	7.11
382.26	7.08
382.626	7.14
382.993	7.25
383.359	6.87
383.725	6.69
384.091	7.59
384.457	7
384.823	7.18
385.188	7.26
385.554	6.91
385.92	7.07
386.286	7.21
386.651	7.05
387.017	7.16
387.383	6.95
387.748	7.33
388.114	7.31
388.479	7.28
388.845	7.31
389.21	7.46
389.575	7.47
389.94	7.43
390.306	7.25
390.671	7.32
391.036	7.23
391.401	7.55
391.766	7.15
392.131	7.52
392.496	7.27
392.861	7.37
393.226	7.13
393.591	7.35
393.956	7.44
394.32	7.28
394.685	7.41
395.05	7.26
395.414	7.55
395.779	7.34
396.143	7.42
396.508	7.2
396.872	7.51
397.236	7.57
397.601	7.41
397.965	7.36
398.329	7.39
398.694	7.29
399.058	7.61
399.422	7.46
399.786	7.45
400.15	7.35
400.514	7.51
400.878	7.64
401.242	7.53
401.605	7.49
401.969	7.25
402.333	7.57
402.697	7.69
403.06	7.64
403.424	7.57
403.787	7.67
404.151	7.76
404.514	7.75
404.878	7.58
405.241	7.41
405.604	7.55
405.968	7.69
406.331	7.63
406.694	7.58
407.057	7.38
407.42	7.55
407.783	7.75
408.146	7.51
408.509	7.9
408.872	7.76
409.235	8.13
409.598	7.74
409.961	7.65
410.323	7.64
410.686	7.81
411.049	7.86
411.411	7.75
411.774	7.71
412.136	7.73
412.499	7.77
412.861	7.4
413.223	7.66
413.586	7.74
413.948	7.9
414.31	7.9
414.672	7.49
415.035	7.88
415.397	7.7
415.759	7.39
416.121	7.82
416.483	7.83
416.845	7.8
417.206	7.91
417.568	7.87
417.93	8.02
418.292	7.69
418.653	7.6
419.015	7.77
419.377	7.63
419.738	7.82
420.1	7.66
420.461	7.76
420.822	7.75
421.184	7.73
421.545	7.84
421.906	7.75
422.267	7.68
422.629	7.73
422.99	7.67
423.351	7.61
423.712	7.8
424.073	7.82
424.434	7.99
424.795	7.74
425.155	7.79
425.516	7.63
425.877	7.88
426.238	7.8
426.598	7.93
426.959	7.91
427.32	7.91
427.68	8.01
428.041	7.97
428.401	7.91
428.761	7.98
429.122	7.91
429.482	7.91
429.842	7.97
430.202	8.04
430.563	8.05
430.923	8.19
431.283	8.17
431.643	8.2
432.003	8.13
432.363	8.26
432.722	8.05
433.082	8.05
433.442	8.13
433.802	8.06
434.161	8.12
434.521	8.04
434.881	8.22
435.24	8.11
435.6	8.14
435.959	8.23
436.319	8.3
436.678	8.17
437.037	8.18
437.396	8.33
437.756	8.15
438.115	8.3
438.474	8.34
438.833	8.27
439.192	8.35
439.551	8.08
439.91	8.33
440.269	8.34
440.628	8.16
440.987	8.21
441.345	8.28
441.704	8.14
442.063	8.21
442.421	8.16
442.78	8.29
443.138	8.24
443.497	8.19
443.855	8.35
444.214	8.21
444.572	8.59
444.93	8.22
445.288	8.32
445.647	8.29
446.005	8.21
446.363	8.38
446.721	8.32
447.079	8.23
447.437	8.37
447.795	8.41
448.153	8.33
448.51	8.36
448.868	8.28
449.226	8.42
449.584	8.18
449.941	8.35
450.299	8.38
450.656	8.49
451.014	8.59
451.371	8.6
451.729	8.56
452.086	8.63
452.443	8.59
452.801	8.6
453.158	8.69
453.515	8.49
453.872	8.72
454.229	8.54
454.586	8.64
454.943	8.73
455.3	8.67
455.657	8.51
456.014	8.65
456.371	8.72
456.727	8.84
457.084	8.75
457.441	8.74
457.797	8.77
458.154	8.66
458.51	8.56
458.867	8.79
459.223	8.62
459.58	8.79
459.936	8.69
460.292	8.52
460.648	8.57
461.005	8.61
461.361	8.65
461.717	8.61
462.073	8.71
462.429	8.73
462.785	8.83
463.141	8.61
463.496	8.82
463.852	8.76
464.208	8.74
464.564	8.71
464.919	8.94
465.275	8.91
465.631	9.09
465.986	9.21
466.342	8.86
466.697	8.88
467.052	8.99
467.408	8.97
467.763	8.91
468.118	8.88
468.473	9.01
468.829	8.91
469.184	8.99
469.539	8.85
469.894	9.02
470.249	9.08
470.603	9.12
470.958	8.98
471.313	9.06
471.668	9.04
472.023	9.16
472.377	8.99
472.732	9.1
473.086	8.94
473.441	8.99
473.795	9.24
474.15	8.97
474.504	9.03
474.859	8.97
475.213	9.12
475.567	9.09
475.921	9.2
476.275	9.23
476.63	9.28
476.984	9.12
477.338	9.36
477.692	9.38
478.045	9.3
478.399	9.24
478.753	9.16
479.107	9.31
479.461	9.21
479.814	9.31
480.168	9.12
480.521	9.35
480.875	9.34
481.228	9.28
481.582	9.15
481.935	9.39
482.289	9.41
482.642	9.43
482.995	9.35
483.348	9.14
483.701	9.18
484.055	9.14
484.408	9.13
484.761	8.99
485.114	8.85
485.466	8.88
485.819	8.91
486.172	8.96
486.525	8.97
486.878	9.04
487.23	9
487.583	9.21
487.936	9.12
488.288	9.19
488.641	9.16
488.993	9.07
489.345	9.09
489.698	9.11
490.05	9.12
490.402	9.19
490.754	9.27
491.107	9.34
491.459	9.33
491.811	9.39
492.163	9.43
492.515	9.33
492.866	9.27
493.218	9.33
493.57	9.36
493.922	9.34
494.274	9.41
494.625	9.44
494.977	9.54
495.328	9.52
495.68	9.63
496.031	9.87
496.383	9.67
496.734	9.74
497.086	9.87
497.437	9.95
497.788	9.92
498.139	9.76
498.49	9.79
498.842	9.76
499.193	9.67
499.544	9.8
499.894	9.76
500.245	9.98
500.596	9.93
500.947	9.86
501.298	9.85
501.648	9.99
501.999	10.03
502.35	9.91
502.7	10.16
503.051	10.04
503.401	10.11
503.752	10.08
504.102	10.11
504.452	9.95
504.803	10.04
505.153	10.15
505.503	10.09
505.853	10.16
506.203	10.1
506.553	10.15
506.903	10.24
507.253	10.17
507.603	10.13
507.953	10.13
508.303	10.34
508.652	10.18
509.002	10.2
509.352	10.26
509.701	10.2
510.051	10.22
510.4	10.3
510.75	10.08
511.099	10.22
511.449	10.33
511.798	10.24
512.147	10.29
512.496	10.46
512.846	10.26
513.195	10.4
513.544	10.36
513.893	10.33
514.242	10.34
514.591	10.42
514.939	10.44
515.288	10.48
515.637	10.39
515.986	10.61
516.334	10.57
516.683	10.59
517.032	10.55
517.38	10.53
517.729	10.59
518.077	10.56
518.426	10.75
518.774	10.65
519.122	10.73
519.47	10.54
519.819	10.56
520.167	10.47
520.515	10.49
520.863	10.52
521.211	10.64
521.559	10.51
521.907	10.67
522.255	10.64
522.602	10.83
522.95	10.75
523.298	10.87
523.645	10.83
523.993	10.74
524.341	10.93
524.688	10.9
525.036	10.86
525.383	10.98
525.73	10.82
526.078	10.9
526.425	10.84
526.772	10.82
527.119	10.84
527.466	10.96
527.814	10.89
528.161	10.89
528.508	11.01
528.854	10.86
529.201	10.82
529.548	10.79
529.895	10.69
530.242	10.75
530.588	10.75
530.935	10.75
531.282	10.72
531.628	10.77
531.975	10.86
532.321	10.92
532.667	11.08
533.014	11.18
533.36	11.21
533.706	11.23
534.052	11.14
534.399	11.18
534.745	11.09
535.091	11.09
535.437	11.04
535.783	11.15
536.129	11.07
536.474	11.26
536.82	11.39
537.166	11.36
537.512	11.36
537.857	11.29
538.203	11.42
538.549	11.41
538.894	11.4
539.239	11.47
539.585	11.58
539.93	11.64
540.276	11.61
540.621	11.72
540.966	11.68
541.311	11.75
541.656	11.65
542.001	11.68
542.346	11.57
542.691	11.46
543.036	11.48
543.381	11.48
543.726	11.54
544.071	11.58
544.415	11.56
544.76	11.66
545.105	11.73
545.449	11.83
545.794	11.81
546.138	11.99
546.483	12.06
546.827	11.91
547.171	12.07
547.516	12.19
547.86	12.08
548.204	12.11
548.548	12.09
548.892	12.13
549.236	12.29
549.58	12.23
549.924	12.25
550.268	12.25
550.612	12.25
550.956	12.49
551.3	12.68
551.643	12.52
551.987	12.47
552.33	12.61
552.674	12.53
553.017	12.64
553.361	12.63
553.704	12.74
554.048	12.67
554.391	12.69
554.734	12.58
555.077	12.68
555.42	12.79
555.764	12.67
556.107	12.87
556.45	12.76
556.793	12.92
557.135	12.88
557.478	12.86
557.821	13.05
558.164	13.07
558.507	12.81
558.849	13.04
559.192	12.99
559.534	13.02
559.877	13.01
560.219	12.89
560.562	13.1
560.904	13.28
561.246	13.11
561.589	13.28
561.931	12.93
562.273	13.06
562.615	13.19
562.957	13.26
563.299	13.41
563.641	13.34
563.983	13.33
564.325	13.38
564.667	13.29
565.008	13.55
565.35	13.25
565.692	13.49
566.033	13.55
566.375	13.49
566.716	13.51
567.058	13.47
567.399	13.55
567.741	13.79
568.082	13.68
568.423	13.66
568.764	13.63
569.105	13.66
569.447	13.63
569.788	13.59
570.129	13.84
570.47	13.74
570.811	13.89
571.151	14.11
571.492	13.87
571.833	13.88
572.174	14.11
572.514	14.09
572.855	14.09
573.195	13.98
573.536	14.15
573.876	14.11
574.217	14
574.557	14.05
574.898	14.23
575.238	14.14
575.578	14.25
575.918	14.38
576.258	14.52
576.598	14.3
576.938	14.28
577.278	14.52
577.618	14.38
577.958	14.33
578.298	14.41
578.638	14.36
578.977	14.76
579.317	14.66
579.657	14.58
579.996	14.73
580.336	14.69
580.675	14.59
581.014	14.79
581.354	14.62
581.693	14.97
582.032	15.1
582.372	15.07
582.711	15.12
583.05	14.9
583.389	14.85
583.728	14.92
584.067	14.93
584.406	14.93
584.745	14.79
585.083	15.27
585.422	15.16
585.761	15.16
586.1	15.33
586.438	15.2
586.777	15.15
587.115	15.58
587.454	15.4
587.792	15.5
588.13	15.5
588.469	15.44
588.807	15.56
589.145	15.36
589.483	15.35
589.821	15.58
590.159	15.68
590.497	15.53
590.835	15.66
591.173	15.81
591.511	15.89
591.849	15.56
592.187	15.66
592.524	16.08
592.862	15.65
593.2	16.04
593.537	15.61
593.875	16.02
594.212	15.9
594.55	16.04
594.887	15.9
595.224	16.23
595.561	16.07
595.899	16.06
596.236	16.15
596.573	15.99
596.91	16.05
597.247	16.2
597.584	16.07
597.921	16.49
598.258	16.54
598.594	16.14
598.931	16.12
599.268	15.99
599.604	16.2
599.941	16.33
600.277	16.38
600.614	16.3
600.95	16.42
601.287	16.42
601.623	16.44
601.959	16.91
602.296	16.89
602.632	16.61
602.968	16.54
603.304	16.67
603.64	16.78
603.976	16.87
604.312	16.68
604.648	16.72
604.984	17.03
605.319	16.73
605.655	17.03
605.991	17.08
606.326	16.87
606.662	16.81
606.998	16.99
607.333	16.93
607.668	16.87
608.004	16.95
608.339	16.99
608.674	17.23
609.01	17.35
609.345	17.61
609.68	17.36
610.015	17.45
610.35	17.56
610.685	17.24
611.02	17.31
611.355	17.3
611.689	17.41
612.024	17.43
612.359	17.7
612.694	17.87
613.028	17.37
613.363	17.59
613.697	17.69
614.032	17.71
614.366	17.91
614.7	17.86
615.035	17.83
615.369	18.01
615.703	17.9
616.037	17.88
616.371	17.74
616.705	17.96
617.039	18.42
617.373	18.45
617.707	18.26
618.041	18.14
618.375	17.72
618.709	18.33
619.042	18.21
619.376	18.34
619.71	18.15
620.043	18.55
620.377	18.58
620.71	18.28
621.043	18.58
621.377	18.25
621.71	18.69
622.043	18.24
622.376	18.57
622.709	19.1
623.043	18.83
623.376	18.65
623.709	18.86
624.041	18.62
624.374	18.83
624.707	18.88
625.04	18.95
625.373	19.01
625.705	18.78
626.038	19
626.37	18.97
626.703	19.21
627.035	19.31
627.368	19.53
627.7	19.15
628.032	19.22
628.365	19.54
628.697	19.46
629.029	19.21
629.361	19.44
629.693	19.55
630.025	19.44
630.357	19.53
630.689	19.17
631.021	19.65
631.353	19.72
631.684	19.6
632.016	19.69
632.348	19.5
632.679	19.83
633.011	19.36
633.342	19.48
633.674	19.49
634.005	19.85
634.336	19.7
634.668	20.11
634.999	19.79
635.33	20.53
635.661	19.89
635.992	20.15
636.323	20.13
636.654	20.04
636.985	19.83
637.316	20.1
637.647	20.31
637.977	20.24
638.308	20.46
638.639	20.5
638.969	20.09
639.3	20.21
639.63	19.98
639.961	20.66
640.291	20.51
640.622	20.92
640.952	20.31
641.282	20.55
641.612	20.63
641.943	20.25
642.273	20.21
642.603	20.74
642.933	21.07
643.263	21.35
643.592	21.33
643.922	21
644.252	20.98
644.582	21.33
644.911	20.96
645.241	20.69
645.571	20.9
645.9	21.11
646.23	21.72
646.559	20.8
646.888	20.79
647.218	21.04
647.547	21.14
647.876	21.18
648.205	21.57
648.534	21.34
648.863	21.36
649.192	21.39
649.521	21.48
649.85	21.66
650.179	21.81
650.508	21.62
650.837	21.82
651.165	21.68
651.494	21.39
651.822	21.89
652.151	21.72
652.479	21.94
652.808	22.13
653.136	21.41
653.465	21.38
653.793	22.08
654.121	21.54
654.449	21.62
654.777	21.85
655.105	21.34
655.433	22.34
655.761	22.02
656.089	21.85
656.417	23.08
656.745	22.58
657.073	22.24
657.4	22.21
657.728	21.8
658.056	22.06
658.383	21.87
658.711	22.32
659.038	22.57
659.365	22.72
659.693	22.58
660.02	22.63
660.347	22.38
660.674	22.38
661.001	22.44
661.329	22.65
661.656	22.55
661.982	22.41
662.309	22.73
662.636	22.74
662.963	22.88
663.29	22.97
663.616	22.95
663.943	23.03
664.27	23.19
664.596	22.51
664.923	23.06
665.249	23.46
665.576	23.07
665.902	23.39
666.228	23.31
666.554	23.6
666.881	22.79
667.207	23.59
667.533	23.29
667.859	23.54
668.185	23.31
668.511	23.63
668.837	23.25
669.162	23.5
669.488	23.37
669.814	23.57
670.139	23.23
670.465	23.84
670.791	23.67
671.116	23.72
671.442	23.56
671.767	23.63
672.092	23.62
672.418	23.46
672.743	23.78
673.068	23.32
673.393	24.26
673.718	23.42
674.043	24.09
674.368	23.76
674.693	23.73
675.018	23.84
675.343	23.94
675.667	24.07
675.992	24.55
676.317	24.12
676.641	25.18
676.966	24.82
677.29	24.43
677.615	24.71
677.939	25
678.264	24.35
678.588	24.92
678.912	24.42
679.236	24.53
679.56	24.28
