Data from 0007_crown_Reflection__3__294.txt Node

Date: Thu Dec 15 19:00:07 CST 2022
User: ToomeyLab
Spectrometer: FLMS14357
Trigger mode: 0
Integration Time (sec): 1.000000E-2
Scans to average: 100
Electric dark correction enabled: true
Nonlinearity correction enabled: false
Boxcar width: 0
XAxis mode: Wavelengths
Number of Pixels in Spectrum: 2048
>>>>>Begin Spectral Data<<<<<
189.047	-22.6
189.435	-22.6
189.823	-22.6
190.211	-12.39
190.599	103.75
190.987	305.75
191.375	85.18
191.763	118.45
192.151	-39.33
192.538	555.03
192.926	193.09
193.314	40.3
193.702	194.8
194.089	-125.99
194.477	951.69
194.864	32.71
195.252	36.63
195.639	83.84
196.027	-450.33
196.414	10.3
196.801	59.83
197.189	10.93
197.576	34.24
197.963	125.89
198.351	24.88
198.738	-88.37
199.125	-59.04
199.512	28.41
199.899	-36.27
200.286	-38.11
200.673	18.1
201.06	-32.6
201.447	1.74
201.833	0.44
202.22	-27.04
202.607	-17.4
202.994	-46.5
203.38	61.51
203.767	-18.28
204.154	17.49
204.54	11.53
204.927	28.98
205.313	20.7
205.699	14.83
206.086	6.47
206.472	6.44
206.858	-22
207.245	-25.55
207.631	-15.54
208.017	4.58
208.403	-90.66
208.789	-21.92
209.175	-93.68
209.561	-107.92
209.947	-24.17
210.333	-3.69
210.719	-6.98
211.105	23.3
211.491	-6.97
211.876	-29.81
212.262	2.97
212.648	2.17
213.034	15.81
213.419	-9.92
213.805	-65.79
214.19	-41.27
214.576	-9.12
214.961	10.24
215.346	-28.63
215.732	2.77
216.117	8.76
216.502	-22.7
216.888	4.12
217.273	-11.66
217.658	-27.85
218.043	-69.62
218.428	-34.44
218.813	16.9
219.198	-74.12
219.583	6.83
219.968	6.89
220.353	-23.63
220.738	3.69
221.122	-7.83
221.507	-26.18
221.892	-33.34
222.276	-49.17
222.661	-7.22
223.046	-19.98
223.43	7.42
223.815	-11.24
224.199	-2.03
224.583	-5.58
224.968	-4.83
225.352	-8.36
225.736	3.67
226.121	-3.16
226.505	-4.2
226.889	2.16
227.273	-3.29
227.657	0.47
228.041	-0.88
228.425	-1.6
228.809	2.26
229.193	1.84
229.577	1.98
229.961	2.47
230.344	3.46
230.728	3.06
231.112	3.11
231.495	0.95
231.879	2.94
232.263	3
232.646	2.05
233.03	3.69
233.413	3.82
233.797	-1.05
234.18	2.5
234.563	3
234.946	1.61
235.33	1.62
235.713	3.34
236.096	4.25
236.479	3.77
236.862	0.45
237.245	2.19
237.628	3.64
238.011	1.99
238.394	1.29
238.777	2.68
239.16	3.3
239.543	3.09
239.925	-0.08
240.308	1.16
240.691	2.13
241.073	2.7
241.456	2.71
241.838	2.2
242.221	3.38
242.603	3.03
242.986	2.76
243.368	3.18
243.75	3.18
244.133	3.36
244.515	2.95
244.897	2.52
245.279	2.48
245.661	2.32
246.043	2.67
246.425	2.98
246.807	2.94
247.189	2.66
247.571	3.13
247.953	2.71
248.335	3.02
248.717	2.98
249.098	3.03
249.48	3.03
249.862	3.09
250.243	3.06
250.625	2.69
251.006	3.24
251.388	3.01
251.769	1.84
252.151	3.24
252.532	1.91
252.913	2.98
253.295	2.5
253.676	2.86
254.057	3.21
254.438	2.34
254.819	2.14
255.2	2.81
255.581	3.52
255.962	2.64
256.343	2.94
256.724	2.51
257.105	1.28
257.486	1.92
257.867	2.47
258.247	3.34
258.628	3.3
259.009	2.03
259.389	2.44
259.77	2.52
260.15	3.42
260.531	3.08
260.911	2.72
261.292	2.99
261.672	2.81
262.052	3.2
262.432	2.65
262.813	2.82
263.193	2.88
263.573	2.69
263.953	2.47
264.333	2.92
264.713	3
265.093	2.23
265.473	1.92
265.853	2.55
266.233	3.21
266.612	2.59
266.992	2.96
267.372	2.92
267.752	3.01
268.131	2.56
268.511	3.32
268.89	3.37
269.27	2.54
269.649	2.36
270.029	2.53
270.408	2.85
270.787	3.26
271.167	2.9
271.546	3.31
271.925	3.13
272.304	2.47
272.683	2.7
273.062	2.78
273.441	2.45
273.82	3.08
274.199	2.71
274.578	2.91
274.957	2.72
275.336	2.88
275.715	2.57
276.093	2.52
276.472	1.73
276.851	2.59
277.229	1.88
277.608	2.51
277.986	2.62
278.365	3.35
278.743	2.88
279.122	2.9
279.5	2.63
279.878	2.42
280.257	2.63
280.635	2.61
281.013	2.22
281.391	2.46
281.769	3.25
282.147	2.64
282.525	2.31
282.903	2.54
283.281	2.72
283.659	2.89
284.037	2.72
284.415	2.55
284.792	3.1
285.17	2.47
285.548	2.53
285.925	2.42
286.303	3.17
286.68	2.61
287.058	2.95
287.435	2.88
287.813	2.9
288.19	2.4
288.567	2.9
288.945	2.73
289.322	2.55
289.699	2.86
290.076	2.35
290.453	2.45
290.83	2.87
291.207	2.58
291.584	2.86
291.961	2.67
292.338	2.77
292.715	2.25
293.092	2.48
293.469	2.38
293.845	3.08
294.222	2.74
294.599	2.43
294.975	2.42
295.352	2.7
295.728	2.69
296.105	2.54
296.481	2.86
296.858	2.93
297.234	2.31
297.61	2.79
297.986	3.26
298.363	2.92
298.739	2.81
299.115	2.76
299.491	3.2
299.867	2.69
300.243	2.7
300.619	2.52
300.995	2.81
301.371	3
301.746	2.81
302.122	2.49
302.498	2.47
302.874	2.62
303.249	2.89
303.625	2.45
304	2.55
304.376	3.22
304.751	2.99
305.127	2.47
305.502	2.62
305.878	2.64
306.253	2.52
306.628	3.01
307.003	2.45
307.378	2.32
307.754	2.66
308.129	2.7
308.504	2.35
308.879	2.78
309.254	2.79
309.629	2.63
310.003	2.67
310.378	2.64
310.753	2.58
311.128	2.42
311.502	2.59
311.877	2.73
312.252	2.89
312.626	3.2
313.001	2.94
313.375	2.82
313.75	2.83
314.124	3.04
314.498	3.45
314.873	2.47
315.247	2.28
315.621	2.47
315.995	2.43
316.369	2.33
316.743	2.57
317.117	2.41
317.491	3.17
317.865	2.17
318.239	3.09
318.613	2.81
318.987	1.92
319.361	2.78
319.734	2.73
320.108	2.82
320.482	2.84
320.855	2.45
321.229	2.45
321.602	2.63
321.976	2.57
322.349	2.99
322.723	2.65
323.096	2.39
323.469	2.37
323.843	2.39
324.216	2.72
324.589	2.56
324.962	2.45
325.335	2.82
325.708	2.49
326.081	2.89
326.454	2.73
326.827	2.8
327.2	2.56
327.573	2.85
327.945	2.41
328.318	2.28
328.691	2.6
329.063	2.38
329.436	2.18
329.809	2.63
330.181	3.53
330.553	2.72
330.926	3.61
331.298	2.61
331.671	2.57
332.043	2.38
332.415	3.02
332.787	2.97
333.159	2.65
333.532	2.67
333.904	2.98
334.276	2.67
334.648	2.83
335.02	2.59
335.391	2.63
335.763	3.26
336.135	2.78
336.507	2.6
336.879	2.47
337.25	2.65
337.622	2.99
337.993	2.63
338.365	2.75
338.736	2.62
339.108	2.74
339.479	2.96
339.851	2.75
340.222	2.92
340.593	2.51
340.964	2.8
341.336	2.57
341.707	2.54
342.078	2.9
342.449	2.47
342.82	2.71
343.191	2.78
343.562	2.79
343.933	2.58
344.303	2.98
344.674	2.52
345.045	2.71
345.416	3.33
345.786	3.1
346.157	2.95
346.527	2.71
346.898	2.64
347.268	2.69
347.639	2.6
348.009	3.23
348.38	2.63
348.75	3.41
349.12	3.29
349.49	3.14
349.861	2.96
350.231	2.79
350.601	2.92
350.971	2.61
351.341	2.86
351.711	2.94
352.081	2.48
352.45	2.47
352.82	2.59
353.19	2.57
353.56	2.69
353.929	2.66
354.299	3.07
354.669	2.94
355.038	2.75
355.408	3.08
355.777	3.34
356.147	2.91
356.516	2.89
356.885	2.91
357.254	2.63
357.624	2.65
357.993	2.93
358.362	2.75
358.731	3.16
359.1	3.01
359.469	2.98
359.838	2.87
360.207	2.81
360.576	3.06
360.945	3.06
361.314	2.81
361.682	2.74
362.051	3
362.42	2.8
362.788	3.2
363.157	2.85
363.525	2.88
363.894	2.9
364.262	2.97
364.631	3.25
364.999	3.22
365.367	2.73
365.735	2.7
366.104	2.68
366.472	2.92
366.84	2.96
367.208	3.24
367.576	2.78
367.944	2.79
368.312	2.94
368.68	3.05
369.048	2.86
369.416	2.7
369.783	2.87
370.151	3.54
370.519	3.1
370.886	3.02
371.254	3.04
371.621	3.08
371.989	3.17
372.356	2.82
372.724	3.05
373.091	3.04
373.458	3.01
373.826	3.09
374.193	3.08
374.56	2.91
374.927	2.84
375.294	3.37
375.661	3.07
376.028	3
376.395	2.86
376.762	2.88
377.129	3.04
377.496	3.23
377.863	3.01
378.229	3.18
378.596	3.17
378.963	3.22
379.329	3.36
379.696	2.97
380.062	3
380.429	2.78
380.795	3.37
381.161	2.62
381.528	2.66
381.894	2.81
382.26	3.23
382.626	3.05
382.993	3.31
383.359	3.09
383.725	2.96
384.091	3.04
384.457	2.89
384.823	3.14
385.188	2.98
385.554	3.09
385.92	2.98
386.286	3.14
386.651	3.24
387.017	3.26
387.383	2.97
387.748	3.37
388.114	3.37
388.479	3.04
388.845	2.81
389.21	3.38
389.575	3.54
389.94	3.39
390.306	3.03
390.671	3.33
391.036	3.1
391.401	3.06
391.766	3.09
392.131	3.42
392.496	2.96
392.861	3.24
393.226	2.93
393.591	3.12
393.956	3.22
394.32	3.46
394.685	3.19
395.05	3.11
395.414	3.11
395.779	3.23
396.143	2.96
396.508	3.23
396.872	2.99
397.236	3.61
397.601	3.36
397.965	3.22
398.329	3.35
398.694	3.14
399.058	3.37
399.422	3.02
399.786	3.08
400.15	3.17
400.514	3.35
400.878	3.35
401.242	3.24
401.605	3.03
401.969	2.99
402.333	3.09
402.697	3.48
403.06	3.03
403.424	3.28
403.787	3.25
404.151	3.3
404.514	3.39
404.878	3.25
405.241	3.25
405.604	3.32
405.968	3.25
406.331	3.44
406.694	3.34
407.057	3.07
407.42	3.24
407.783	3.26
408.146	3.27
408.509	3.33
408.872	3.22
409.235	3.18
409.598	3.3
409.961	3.19
410.323	3.04
410.686	3.28
411.049	3.42
411.411	3.39
411.774	3.31
412.136	3.16
412.499	3.48
412.861	2.83
413.223	3.28
413.586	3.48
413.948	3.33
414.31	3.5
414.672	3.39
415.035	3.48
415.397	3.35
415.759	3.18
416.121	3.49
416.483	3.23
416.845	3.52
417.206	3.21
417.568	3.32
417.93	3.42
418.292	3.12
418.653	3.13
419.015	3.25
419.377	3.15
419.738	3.43
420.1	3.21
420.461	3.21
420.822	3.37
421.184	3.33
421.545	3.19
421.906	3.36
422.267	3.28
422.629	3.24
422.99	3.26
423.351	3.25
423.712	3.25
424.073	3.37
424.434	3.32
424.795	3.21
425.155	3.24
425.516	3.18
425.877	3.22
426.238	3.26
426.598	3.4
426.959	3.28
427.32	3.23
427.68	3.31
428.041	3.41
428.401	3.26
428.761	3.43
429.122	3.42
429.482	3.46
429.842	3.37
430.202	3.56
430.563	3.26
430.923	3.38
431.283	3.52
431.643	3.43
432.003	3.5
432.363	3.56
432.722	3.51
433.082	3.27
433.442	3.48
433.802	3.4
434.161	3.37
434.521	3.42
434.881	3.35
435.24	3.46
435.6	3.43
435.959	3.39
436.319	3.43
436.678	3.55
437.037	3.45
437.396	3.45
437.756	3.37
438.115	3.44
438.474	3.5
438.833	3.28
439.192	3.39
439.551	3.34
439.91	3.43
440.269	3.46
440.628	3.38
440.987	3.38
441.345	3.4
441.704	3.35
442.063	3.43
442.421	3.33
442.78	3.42
443.138	3.42
443.497	3.4
443.855	3.52
444.214	3.34
444.572	3.58
444.93	3.4
445.288	3.48
445.647	3.33
446.005	3.41
446.363	3.43
446.721	3.41
447.079	3.33
447.437	3.39
447.795	3.53
448.153	3.37
448.51	3.49
448.868	3.38
449.226	3.41
449.584	3.4
449.941	3.4
450.299	3.38
450.656	3.42
451.014	3.54
451.371	3.58
451.729	3.54
452.086	3.43
452.443	3.61
452.801	3.58
453.158	3.57
453.515	3.44
453.872	3.66
454.229	3.39
454.586	3.45
454.943	3.48
455.3	3.63
455.657	3.51
456.014	3.56
456.371	3.48
456.727	3.69
457.084	3.63
457.441	3.52
457.797	3.48
458.154	3.62
458.51	3.53
458.867	3.49
459.223	3.48
459.58	3.52
459.936	3.54
460.292	3.45
460.648	3.49
461.005	3.48
461.361	3.45
461.717	3.39
462.073	3.63
462.429	3.56
462.785	3.74
463.141	3.59
463.496	3.55
463.852	3.68
464.208	3.66
464.564	3.38
464.919	3.53
465.275	3.77
465.631	3.8
465.986	3.68
466.342	3.38
466.697	3.62
467.052	3.66
467.408	3.66
467.763	3.59
468.118	3.5
468.473	3.72
468.829	3.64
469.184	3.72
469.539	3.57
469.894	3.71
470.249	3.7
470.603	3.79
470.958	3.75
471.313	3.65
471.668	3.48
472.023	3.72
472.377	3.59
472.732	3.83
473.086	3.66
473.441	3.61
473.795	3.86
474.15	3.69
474.504	3.77
474.859	3.59
475.213	3.71
475.567	3.66
475.921	3.73
476.275	3.73
476.63	3.87
476.984	3.55
477.338	3.72
477.692	3.65
478.045	3.81
478.399	3.8
478.753	3.6
479.107	3.69
479.461	3.76
479.814	3.67
480.168	3.71
480.521	3.78
480.875	3.82
481.228	3.7
481.582	3.7
481.935	3.85
482.289	3.78
482.642	3.82
482.995	3.55
483.348	3.59
483.701	3.69
484.055	3.66
484.408	3.62
484.761	3.53
485.114	3.39
485.466	3.4
485.819	3.44
486.172	3.51
486.525	3.55
486.878	3.63
487.23	3.6
487.583	3.65
487.936	3.55
488.288	3.52
488.641	3.5
488.993	3.5
489.345	3.53
489.698	3.5
490.05	3.58
490.402	3.58
490.754	3.59
491.107	3.63
491.459	3.74
491.811	3.7
492.163	3.63
492.515	3.65
492.866	3.54
493.218	3.57
493.57	3.58
493.922	3.62
494.274	3.77
494.625	3.82
494.977	3.8
495.328	3.83
495.68	3.75
496.031	3.76
496.383	3.69
496.734	3.75
497.086	3.89
497.437	3.8
497.788	3.74
498.139	3.77
498.49	3.74
498.842	3.83
499.193	3.67
499.544	3.78
499.894	3.73
500.245	3.83
500.596	3.85
500.947	3.77
501.298	3.78
501.648	3.81
501.999	3.8
502.35	3.6
502.7	3.99
503.051	3.85
503.401	3.99
503.752	3.75
504.102	3.77
504.452	3.71
504.803	3.71
505.153	3.94
505.503	3.79
505.853	3.83
506.203	3.85
506.553	3.76
506.903	3.91
507.253	3.81
507.603	3.86
507.953	3.89
508.303	3.91
508.652	3.72
509.002	3.84
509.352	3.9
509.701	3.79
510.051	3.87
510.4	3.88
510.75	3.77
511.099	3.77
511.449	3.87
511.798	3.86
512.147	3.82
512.496	3.97
512.846	3.8
513.195	3.78
513.544	3.97
513.893	3.83
514.242	3.77
514.591	3.86
514.939	3.89
515.288	3.89
515.637	3.91
515.986	3.91
516.334	3.98
516.683	3.92
517.032	3.99
517.38	3.87
517.729	3.91
518.077	3.89
518.426	3.99
518.774	3.81
519.122	3.94
519.47	3.9
519.819	3.8
520.167	3.77
520.515	3.84
520.863	3.87
521.211	3.86
521.559	3.86
521.907	3.97
522.255	3.96
522.602	3.91
522.95	4
523.298	3.94
523.645	4
523.993	3.91
524.341	3.91
524.688	3.98
525.036	3.82
525.383	3.91
525.73	3.84
526.078	3.99
526.425	3.87
526.772	3.9
527.119	3.93
527.466	4.03
527.814	3.93
528.161	4
528.508	4.07
528.854	3.92
529.201	3.9
529.548	3.87
529.895	3.75
530.242	3.73
530.588	3.77
530.935	3.8
531.282	3.83
531.628	3.93
531.975	3.97
532.321	3.91
532.667	3.98
533.014	4.11
533.36	3.97
533.706	3.94
534.052	3.91
534.399	3.9
534.745	3.85
535.091	3.81
535.437	3.9
535.783	3.91
536.129	3.94
536.474	4.01
536.82	4.04
537.166	3.99
537.512	4.01
537.857	3.9
538.203	3.93
538.549	3.86
538.894	3.93
539.239	4.04
539.585	4.14
539.93	4.06
540.276	4.01
540.621	4.12
540.966	4.11
541.311	4.19
541.656	3.97
542.001	3.96
542.346	3.87
542.691	3.81
543.036	3.84
543.381	3.85
543.726	4.01
544.071	3.99
544.415	4.02
544.76	4.04
545.105	3.98
545.449	4.04
545.794	4.11
546.138	4.07
546.483	4.16
546.827	4.06
547.171	4.08
547.516	4.19
547.86	4.12
548.204	4.11
548.548	4.05
548.892	4.15
549.236	4.1
549.58	4.08
549.924	4.19
550.268	4.26
550.612	4.27
550.956	4.24
551.3	4.38
551.643	4.05
551.987	4.26
552.33	4.21
552.674	4.29
553.017	4.16
553.361	4.44
553.704	4.25
554.048	4.19
554.391	4.19
554.734	4.18
555.077	4.23
555.42	4.13
555.764	4.15
556.107	4.35
556.45	4.25
556.793	4.29
557.135	4.19
557.478	4.33
557.821	4.41
558.164	4.27
558.507	4.12
558.849	4.29
559.192	4.33
559.534	4.01
559.877	4.1
560.219	4.14
560.562	4.18
560.904	4.45
561.246	4.27
561.589	4.36
561.931	4.27
562.273	4.17
562.615	4.2
562.957	4.16
563.299	4.21
563.641	4.24
563.983	4.17
564.325	4.19
564.667	4.37
565.008	4.18
565.35	4.19
565.692	4.18
566.033	4.19
566.375	4.27
566.716	4.23
567.058	4.29
567.399	4.36
567.741	4.41
568.082	4.31
568.423	4.2
568.764	4.2
569.105	4.26
569.447	4.25
569.788	4.32
570.129	4.24
570.47	4.34
570.811	4.23
571.151	4.27
571.492	4.23
571.833	4.2
572.174	4.34
572.514	4.4
572.855	4.34
573.195	4.28
573.536	4.39
573.876	4.38
574.217	4.24
574.557	4.33
574.898	4.21
575.238	4.32
575.578	4.2
575.918	4.37
576.258	4.52
576.598	4.22
576.938	4.27
577.278	4.44
577.618	4.29
577.958	4.27
578.298	4.29
578.638	4.35
578.977	4.46
579.317	4.39
579.657	4.23
579.996	4.4
580.336	4.43
580.675	4.31
581.014	4.4
581.354	4.26
581.693	4.52
582.032	4.44
582.372	4.32
582.711	4.09
583.05	4.46
583.389	4.56
583.728	4.46
584.067	4.2
584.406	4.58
584.745	4.26
585.083	4.39
585.422	4.47
585.761	4.6
586.1	4.48
586.438	4.4
586.777	4.52
587.115	4.37
587.454	4.32
587.792	4.4
588.13	4.41
588.469	4.46
588.807	4.43
589.145	4.64
589.483	4.02
589.821	4.38
590.159	4.33
590.497	4.3
590.835	4.55
591.173	4.48
591.511	4.53
591.849	4.48
592.187	4.19
592.524	4.46
592.862	4.13
593.2	4.3
593.537	4.49
593.875	4.26
594.212	4.5
594.55	4.41
594.887	4.61
595.224	4.62
595.561	4.43
595.899	4.51
596.236	4.54
596.573	4.28
596.91	4.49
597.247	4.55
597.584	4.42
597.921	4.43
598.258	4.73
598.594	4.36
598.931	4.4
599.268	4.29
599.604	4.54
599.941	4.35
600.277	4.57
600.614	4.59
600.95	4.31
601.287	4.18
601.623	4.39
601.959	4.87
602.296	4.56
602.632	4.34
602.968	4.5
603.304	4.38
603.64	4.44
603.976	4.16
604.312	4.38
604.648	4.67
604.984	4.49
605.319	4.63
605.655	4.48
605.991	4.45
606.326	4.65
606.662	4.24
606.998	4.68
607.333	4.6
607.668	4.42
608.004	4.38
608.339	4.34
608.674	4.52
609.01	5.01
609.345	4.52
609.68	4.44
610.015	4.63
610.35	4.72
610.685	4.34
611.02	4.48
611.355	4.49
611.689	4.54
612.024	4.63
612.359	4.78
612.694	4.58
613.028	4.4
613.363	4.73
613.697	4.5
614.032	4.46
614.366	4.68
614.7	4.71
615.035	4.59
615.369	4.92
615.703	4.78
616.037	4.72
616.371	4.51
616.705	4.8
617.039	4.77
617.373	4.82
617.707	4.72
618.041	4.47
618.375	3.96
618.709	4.44
619.042	4.49
619.376	4.52
619.71	4.63
620.043	4.9
620.377	4.61
620.71	4.66
621.043	4.79
621.377	4.73
621.71	5.03
622.043	4.84
622.376	4.72
622.709	4.97
623.043	4.77
623.376	4.92
623.709	4.92
624.041	4.51
624.374	4.51
624.707	5
625.04	4.82
625.373	4.81
625.705	4.94
626.038	4.7
626.37	4.61
626.703	4.88
627.035	4.85
627.368	5.22
627.7	4.98
628.032	4.7
628.365	4.89
628.697	4.95
629.029	4.55
629.361	5
629.693	4.7
630.025	4.75
630.357	4.8
630.689	4.7
631.021	4.83
631.353	4.84
631.684	4.59
632.016	4.41
632.348	4.71
632.679	4.71
633.011	4.51
633.342	4.89
633.674	4.55
634.005	5.01
634.336	4.85
634.668	4.77
634.999	4.66
635.33	5.11
635.661	4.48
635.992	4.87
636.323	4.97
636.654	4.84
636.985	4.54
637.316	4.74
637.647	4.86
637.977	4.61
638.308	5.06
638.639	4.67
638.969	4.78
639.3	5.11
639.63	4.88
639.961	4.66
640.291	4.6
640.622	5.12
640.952	5.26
641.282	4.5
641.612	5.15
641.943	4.78
642.273	4.63
642.603	5.15
642.933	5.24
643.263	4.84
643.592	5.18
643.922	5.25
644.252	4.88
644.582	4.97
644.911	5.09
645.241	4.55
645.571	5.08
645.9	5.05
646.23	5.28
646.559	4.51
646.888	5.18
647.218	4.63
647.547	5.02
647.876	5
648.205	4.81
648.534	5.22
648.863	4.87
649.192	5.03
649.521	5.31
649.85	5.22
650.179	5.21
650.508	4.59
650.837	4.95
651.165	5.01
651.494	5.45
651.822	5.38
652.151	4.78
652.479	5.06
652.808	4.72
653.136	4.75
653.465	4.8
653.793	4.73
654.121	5.1
654.449	4.81
654.777	4.25
655.105	4.31
655.433	5.21
655.761	5.08
656.089	5.04
656.417	5.25
656.745	5.47
657.073	4.71
657.4	4.54
657.728	4.64
658.056	5
658.383	4.7
658.711	4.76
659.038	5.23
659.365	5.02
659.693	5.05
660.02	4.75
660.347	5.19
660.674	4.74
661.001	4.92
661.329	4.64
661.656	4.83
661.982	4.84
662.309	4.84
662.636	5.49
662.963	4.95
663.29	5.2
663.616	5.09
663.943	5.24
664.27	5.25
664.596	4.84
664.923	5.08
665.249	5.31
665.576	4.82
665.902	5
666.228	5.37
666.554	5.86
666.881	4.63
667.207	5.11
667.533	4.8
667.859	5.18
668.185	5.32
668.511	5.52
668.837	5.31
669.162	5.26
669.488	4.5
669.814	5.08
670.139	4.8
670.465	5.2
670.791	5.09
671.116	4.79
671.442	4.51
671.767	5.03
672.092	5.28
672.418	5.31
672.743	5.04
673.068	4.61
673.393	5.45
673.718	4.69
674.043	5.23
674.368	5.33
674.693	5.35
675.018	5.63
675.343	5.36
675.667	5.29
675.992	5.2
676.317	4.37
676.641	5.32
676.966	5.02
677.29	4.99
677.615	4.5
677.939	5.21
678.264	5.12
678.588	5.66
678.912	5.27
679.236	4.75
679.56	4.78
679.885	5.3
680.209	6.11
680.532	5.84
680.856	5.29
681.18	5.56
681.504	5.39
681.828	4.72
682.152	4.86
682.475	5.2
682.799	5.19
683.122	5.1
683.446	4.33
683.769	5.32
684.093	5.3
684.416	4.6
684.739	5.13
685.062	5.22
685.386	5.24
685.709	4.9
686.032	5.48
686.355	5.43
686.678	5.46
687.001	4.92
687.324	4.77
687.646	5.22
687.969	5.21
688.292	5.42
688.614	5.57
688.937	5.92
689.26	5.53
689.582	5.19
689.904	5.52
690.227	5.7
690.549	5.63
690.871	5.2
691.194	5.58
691.516	5.02
691.838	5.55
692.16	4.55
692.482	5.24
692.804	5.32
