Data from 0007_crown_Reflection__0__291.txt Node

Date: Thu Dec 15 18:59:36 CST 2022
User: ToomeyLab
Spectrometer: FLMS14357
Trigger mode: 0
Integration Time (sec): 1.000000E-2
Scans to average: 100
Electric dark correction enabled: true
Nonlinearity correction enabled: false
Boxcar width: 0
XAxis mode: Wavelengths
Number of Pixels in Spectrum: 2048
>>>>>Begin Spectral Data<<<<<
189.047	-44.39
189.435	-44.39
189.823	-44.39
190.211	-32.56
190.599	67.47
190.987	73.21
191.375	14.73
191.763	-10.82
192.151	-16.61
192.538	410.94
192.926	132.79
193.314	78.16
193.702	95.47
194.089	-44.22
194.477	176.95
194.864	139.04
195.252	10.67
195.639	74.95
196.027	410.6
196.414	9.57
196.801	-78.98
197.189	69
197.576	-87.85
197.963	81.94
198.351	29.74
198.738	-126.46
199.125	-61.51
199.512	6.63
199.899	-132.85
200.286	-78.05
200.673	30.97
201.06	-31.23
201.447	-20.96
201.833	-42.1
202.22	-19.2
202.607	-35.33
202.994	25.31
203.38	-46.3
203.767	-40.12
204.154	-4.36
204.54	25.06
204.927	-14.47
205.313	21.15
205.699	26.55
206.086	1.2
206.472	24.77
206.858	-2.06
207.245	-30.53
207.631	-3.25
208.017	15.73
208.403	-127.37
208.789	23.35
209.175	-19.46
209.561	-106.44
209.947	-22.6
210.333	-32.2
210.719	3.63
211.105	22.38
211.491	-0.35
211.876	-42.02
212.262	-0.19
212.648	39.86
213.034	-22.28
213.419	-11.23
213.805	-102.02
214.19	-46.16
214.576	-13.97
214.961	35.22
215.346	-5.72
215.732	3.39
216.117	29.23
216.502	-25.93
216.888	-10.23
217.273	-7.5
217.658	-49.99
218.043	-29.19
218.428	-47.28
218.813	2.5
219.198	-81.67
219.583	15.77
219.968	-2.82
220.353	-28.43
220.738	-5.13
221.122	-26.1
221.507	-18.98
221.892	-32.68
222.276	-24.54
222.661	-26.1
223.046	-5.02
223.43	7.58
223.815	-0.18
224.199	-8.38
224.583	-4.74
224.968	-1.01
225.352	-14.69
225.736	7.29
226.121	-6.09
226.505	-1.64
226.889	1.43
227.273	-6.16
227.657	4.91
228.041	2.18
228.425	0.77
228.809	-0.54
229.193	3.48
229.577	4.3
229.961	4.15
230.344	5.52
230.728	5.12
231.112	5.37
231.495	3.98
231.879	4.53
232.263	4.88
232.646	3.59
233.03	5.63
233.413	4.06
233.797	3.79
234.18	4.11
234.563	5.64
234.946	3.6
235.33	3.49
235.713	3.66
236.096	6.18
236.479	4.48
236.862	2.42
237.245	3.19
237.628	4.71
238.011	3.97
238.394	2.53
238.777	3.25
239.16	5.11
239.543	4.6
239.925	2.55
240.308	3.41
240.691	3.06
241.073	3.78
241.456	5.24
241.838	4.78
242.221	4.01
242.603	4.75
242.986	4.29
243.368	4.84
243.75	4.74
244.133	4.86
244.515	4.95
244.897	4.74
245.279	4.67
245.661	3.71
246.043	5.32
246.425	5.06
246.807	4.26
247.189	4.12
247.571	4.34
247.953	4.51
248.335	4.81
248.717	4.76
249.098	4.75
249.48	4.65
249.862	4.45
250.243	4.54
250.625	4.66
251.006	5.2
251.388	4.14
251.769	3.54
252.151	5.1
252.532	4.07
252.913	4.21
253.295	4.4
253.676	4.79
254.057	4.42
254.438	4.55
254.819	4.04
255.2	3.9
255.581	5.07
255.962	5.01
256.343	4.74
256.724	4.72
257.105	3.31
257.486	3.09
257.867	3.75
258.247	3.98
258.628	4.35
259.009	3.22
259.389	3.44
259.77	3.84
260.15	4.35
260.531	4.5
260.911	4.31
261.292	4.28
261.672	4.4
262.052	4.57
262.432	4
262.813	4.78
263.193	4.76
263.573	4.58
263.953	4.32
264.333	4.31
264.713	4.36
265.093	3.8
265.473	3.71
265.853	4.33
266.233	3.67
266.612	3.27
266.992	4.16
267.372	4.58
267.752	4.24
268.131	4.06
268.511	4.27
268.89	4.78
269.27	3.78
269.649	4.13
270.029	4.59
270.408	4.26
270.787	4.81
271.167	4.6
271.546	4.86
271.925	4.24
272.304	4.63
272.683	4.06
273.062	4.16
273.441	3.84
273.82	4.46
274.199	3.88
274.578	4.04
274.957	3.95
275.336	4.32
275.715	4.4
276.093	3.66
276.472	3.47
276.851	4.17
277.229	3.78
277.608	3.82
277.986	4.24
278.365	4.49
278.743	4.37
279.122	4.01
279.5	4.53
279.878	3.99
280.257	3.98
280.635	3.93
281.013	3.77
281.391	3.81
281.769	4.62
282.147	4.4
282.525	3.9
282.903	3.96
283.281	4.44
283.659	4.49
284.037	3.82
284.415	3.6
284.792	3.65
285.17	4.19
285.548	3.73
285.925	3.94
286.303	4.23
286.68	4.16
287.058	4.1
287.435	3.68
287.813	3.89
288.19	3.9
288.567	3.93
288.945	3.84
289.322	3.5
289.699	4.22
290.076	3.91
290.453	3.8
290.83	3.76
291.207	3.82
291.584	3.9
291.961	3.91
292.338	3.64
292.715	4.13
293.092	3.85
293.469	4
293.845	3.82
294.222	4.26
294.599	3.64
294.975	3.83
295.352	4.18
295.728	3.92
296.105	3.84
296.481	4.03
296.858	3.95
297.234	3.43
297.61	3.64
297.986	4.18
298.363	3.92
298.739	4.03
299.115	3.72
299.491	4.2
299.867	3.43
300.243	3.96
300.619	3.52
300.995	3.92
301.371	4.32
301.746	3.86
302.122	2.99
302.498	3.88
302.874	3.94
303.249	3.85
303.625	3.43
304	3.99
304.376	3.79
304.751	3.72
305.127	3.25
305.502	3.63
305.878	3.66
306.253	3.27
306.628	3.7
307.003	3.62
307.378	3.59
307.754	3.6
308.129	3.71
308.504	3.49
308.879	3.71
309.254	3.67
309.629	3.61
310.003	3.58
310.378	3.75
310.753	3.7
311.128	3.38
311.502	3.54
311.877	3.45
312.252	3.67
312.626	3.79
313.001	3.8
313.375	3.77
313.75	3.84
314.124	3.85
314.498	3.94
314.873	3.63
315.247	3.68
315.621	3.4
315.995	3.87
316.369	3.38
316.743	2.87
317.117	3.37
317.491	3.67
317.865	3.34
318.239	3.9
318.613	3.43
318.987	3.37
319.361	3.51
319.734	3.12
320.108	3.49
320.482	3.33
320.855	3.57
321.229	3.56
321.602	3.48
321.976	2.39
322.349	3.93
322.723	3.51
323.096	3.51
323.469	3.32
323.843	3.06
324.216	3.76
324.589	3.48
324.962	3.1
325.335	3.15
325.708	3.41
326.081	3.64
326.454	3.83
326.827	3.4
327.2	3.31
327.573	3.72
327.945	3.55
328.318	3.4
328.691	3.78
329.063	3.26
329.436	2.93
329.809	3.45
330.181	3.96
330.553	3.52
330.926	3.55
331.298	3.34
331.671	3.7
332.043	3.78
332.415	3.87
332.787	3.46
333.159	3.69
333.532	3.98
333.904	3.74
334.276	3.78
334.648	3.33
335.02	3.59
335.391	3.26
335.763	3.41
336.135	3.68
336.507	3.42
336.879	3.45
337.25	3.64
337.622	3.46
337.993	3.09
338.365	3.62
338.736	3.93
339.108	3.43
339.479	3.37
339.851	3.81
340.222	3.96
340.593	3.34
340.964	3.39
341.336	3.41
341.707	3.58
342.078	3.36
342.449	3.31
342.82	3.56
343.191	3.95
343.562	3.58
343.933	3.17
344.303	3.55
344.674	3.72
345.045	3.71
345.416	3.88
345.786	3.46
346.157	3.69
346.527	3.48
346.898	3.15
347.268	3.57
347.639	3.63
348.009	3.92
348.38	3.43
348.75	3.42
349.12	3.66
349.49	3.48
349.861	3.69
350.231	3.78
350.601	3.5
350.971	3.29
351.341	3.75
351.711	3.38
352.081	3.32
352.45	3.52
352.82	3.33
353.19	3.41
353.56	3.51
353.929	3.56
354.299	3.78
354.669	3.59
355.038	3.94
355.408	3.68
355.777	3.63
356.147	3.27
356.516	3.17
356.885	3.49
357.254	3.39
357.624	3.31
357.993	3.74
358.362	3.71
358.731	3.84
359.1	3.6
359.469	3.79
359.838	3.73
360.207	3.48
360.576	3.82
360.945	3.68
361.314	3.43
361.682	3.76
362.051	3.45
362.42	3.59
362.788	3.75
363.157	3.76
363.525	3.83
363.894	3.71
364.262	3.67
364.631	3.9
364.999	3.83
365.367	3.79
365.735	3.55
366.104	3.58
366.472	3.38
366.84	3.94
367.208	3.92
367.576	3.66
367.944	3.63
368.312	3.72
368.68	4.2
369.048	3.54
369.416	3.28
369.783	3.57
370.151	3.85
370.519	4.13
370.886	4
371.254	3.68
371.621	3.83
371.989	3.57
372.356	3.58
372.724	3.5
373.091	3.48
373.458	3.53
373.826	3.92
374.193	3.7
374.56	3.96
374.927	3.55
375.294	4.03
375.661	3.68
376.028	3.99
376.395	3.83
376.762	3.67
377.129	3.61
377.496	3.85
377.863	3.65
378.229	4.21
378.596	3.98
378.963	3.87
379.329	4.07
379.696	3.77
380.062	3.9
380.429	3.9
380.795	3.99
381.161	3.55
381.528	3.91
381.894	3.83
382.26	3.8
382.626	3.84
382.993	4.04
383.359	3.69
383.725	3.61
384.091	3.87
384.457	3.7
384.823	3.8
385.188	3.82
385.554	3.88
385.92	3.85
386.286	3.91
386.651	3.81
387.017	4.21
387.383	4.05
387.748	3.74
388.114	4.01
388.479	3.98
388.845	3.78
389.21	4.08
389.575	4.06
389.94	4.18
390.306	4.1
390.671	3.76
391.036	3.87
391.401	4.1
391.766	3.84
392.131	4.01
392.496	3.86
392.861	4.04
393.226	3.87
393.591	4.14
393.956	3.95
394.32	4.16
394.685	3.93
395.05	3.97
395.414	3.95
395.779	4.24
396.143	3.99
396.508	4
396.872	4.06
397.236	4.21
397.601	4.34
397.965	4.11
398.329	3.9
398.694	3.64
399.058	3.93
399.422	4.09
399.786	4
400.15	3.95
400.514	4.11
400.878	4.07
401.242	4.21
401.605	4.08
401.969	3.98
402.333	4.02
402.697	4.3
403.06	4.1
403.424	4.13
403.787	4.19
404.151	4.19
404.514	4.1
404.878	3.92
405.241	4.02
405.604	4.02
405.968	4.19
406.331	4.21
406.694	4.13
407.057	3.91
407.42	4.24
407.783	4.09
408.146	4.04
408.509	4.29
408.872	4.11
409.235	4.06
409.598	4.05
409.961	4.29
410.323	3.98
410.686	4.37
411.049	4.24
411.411	4.26
411.774	4.17
412.136	4.12
412.499	4.13
412.861	3.8
413.223	4.03
413.586	4.01
413.948	4.17
414.31	4.27
414.672	4.21
415.035	4.33
415.397	4.23
415.759	3.93
416.121	4.59
416.483	4.26
416.845	4.18
417.206	4.08
417.568	4.2
417.93	4.19
418.292	4.05
418.653	4.07
419.015	4.35
419.377	3.94
419.738	4.33
420.1	4.2
420.461	4.12
420.822	4.18
421.184	4.19
421.545	4.13
421.906	4.26
422.267	4.18
422.629	4.18
422.99	4.14
423.351	4.15
423.712	4.22
424.073	4.44
424.434	4.25
424.795	4.21
425.155	4.24
425.516	4.24
425.877	4.24
426.238	4.22
426.598	4.24
426.959	4.24
427.32	4.13
427.68	4.29
428.041	4.33
428.401	4.15
428.761	4.31
429.122	4.37
429.482	4.43
429.842	4.2
430.202	4.4
430.563	4.26
430.923	4.24
431.283	4.57
431.643	4.56
432.003	4.33
432.363	4.43
432.722	4.29
433.082	4.32
433.442	4.4
433.802	4.1
434.161	4.48
434.521	4.32
434.881	4.39
435.24	4.34
435.6	4.39
435.959	4.41
436.319	4.52
436.678	4.46
437.037	4.47
437.396	4.25
437.756	4.12
438.115	4.23
438.474	4.23
438.833	4.29
439.192	4.21
439.551	4.24
439.91	4.47
440.269	4.41
440.628	4.33
440.987	4.26
441.345	4.44
441.704	4.34
442.063	4.38
442.421	4.31
442.78	4.37
443.138	4.39
443.497	4.26
443.855	4.57
444.214	4.25
444.572	4.53
444.93	4.25
445.288	4.43
445.647	4.32
446.005	4.34
446.363	4.34
446.721	4.4
447.079	4.21
447.437	4.39
447.795	4.38
448.153	4.35
448.51	4.43
448.868	4.32
449.226	4.33
449.584	4.37
449.941	4.45
450.299	4.38
450.656	4.42
451.014	4.52
451.371	4.58
451.729	4.44
452.086	4.53
452.443	4.57
452.801	4.33
453.158	4.79
453.515	4.47
453.872	4.54
454.229	4.31
454.586	4.35
454.943	4.58
455.3	4.46
455.657	4.47
456.014	4.51
456.371	4.69
456.727	4.68
457.084	4.63
457.441	4.51
457.797	4.38
458.154	4.68
458.51	4.39
458.867	4.62
459.223	4.48
459.58	4.42
459.936	4.39
460.292	4.41
460.648	4.48
461.005	4.37
461.361	4.44
461.717	4.42
462.073	4.43
462.429	4.49
462.785	4.64
463.141	4.4
463.496	4.5
463.852	4.56
464.208	4.55
464.564	4.46
464.919	4.46
465.275	4.53
465.631	4.86
465.986	4.63
466.342	4.59
466.697	4.48
467.052	4.64
467.408	4.71
467.763	4.53
468.118	4.35
468.473	4.66
468.829	4.39
469.184	4.62
469.539	4.51
469.894	4.59
470.249	4.65
470.603	4.71
470.958	4.64
471.313	4.6
471.668	4.55
472.023	4.57
472.377	4.66
472.732	4.7
473.086	4.46
473.441	4.69
473.795	4.87
474.15	4.57
474.504	4.66
474.859	4.36
475.213	4.76
475.567	4.55
475.921	4.73
476.275	4.74
476.63	4.74
476.984	4.69
477.338	4.7
477.692	4.64
478.045	4.59
478.399	4.73
478.753	4.51
479.107	4.67
479.461	4.6
479.814	4.7
480.168	4.66
480.521	4.74
480.875	4.71
481.228	4.72
481.582	4.68
481.935	4.66
482.289	4.69
482.642	4.82
482.995	4.58
483.348	4.64
483.701	4.64
484.055	4.57
484.408	4.56
484.761	4.49
485.114	4.39
485.466	4.37
485.819	4.39
486.172	4.44
486.525	4.49
486.878	4.56
487.23	4.55
487.583	4.56
487.936	4.55
488.288	4.57
488.641	4.51
488.993	4.52
489.345	4.51
489.698	4.5
490.05	4.47
490.402	4.51
490.754	4.51
491.107	4.6
491.459	4.72
491.811	4.63
492.163	4.61
492.515	4.6
492.866	4.44
493.218	4.52
493.57	4.6
493.922	4.6
494.274	4.68
494.625	4.72
494.977	4.72
495.328	4.76
495.68	4.69
496.031	4.72
496.383	4.69
496.734	4.61
497.086	4.81
497.437	4.7
497.788	4.84
498.139	4.72
498.49	4.68
498.842	4.71
499.193	4.66
499.544	4.73
499.894	4.76
500.245	4.83
500.596	4.8
500.947	4.78
501.298	4.79
501.648	4.79
501.999	4.72
502.35	4.68
502.7	5.05
503.051	4.82
503.401	4.82
503.752	4.72
504.102	4.83
504.452	4.71
504.803	4.82
505.153	4.88
505.503	4.78
505.853	4.84
506.203	4.82
506.553	4.75
506.903	4.93
507.253	4.81
507.603	4.88
507.953	4.76
508.303	5
508.652	4.75
509.002	4.87
509.352	4.79
509.701	4.71
510.051	4.94
510.4	4.89
510.75	4.85
511.099	4.73
511.449	4.82
511.798	4.73
512.147	4.84
512.496	4.85
512.846	4.72
513.195	4.86
513.544	4.98
513.893	4.87
514.242	4.8
514.591	4.91
514.939	4.86
515.288	4.82
515.637	4.85
515.986	4.82
516.334	4.85
516.683	4.76
517.032	4.88
517.38	4.95
517.729	4.89
518.077	4.86
518.426	4.93
518.774	4.89
519.122	4.93
519.47	4.86
519.819	4.76
520.167	4.75
520.515	4.75
520.863	4.85
521.211	4.89
521.559	4.78
521.907	4.87
522.255	4.86
522.602	4.96
522.95	5.01
523.298	4.96
523.645	4.92
523.993	4.99
524.341	4.95
524.688	5
525.036	4.9
525.383	4.88
525.73	4.78
526.078	5
526.425	4.86
526.772	4.9
527.119	4.83
527.466	4.94
527.814	4.91
528.161	4.93
528.508	4.96
528.854	4.88
529.201	4.94
529.548	4.79
529.895	4.77
530.242	4.68
530.588	4.73
530.935	4.75
531.282	4.68
531.628	4.79
531.975	4.8
532.321	4.85
532.667	4.9
533.014	4.97
533.36	4.92
533.706	4.87
534.052	5
534.399	4.86
534.745	4.76
535.091	4.81
535.437	4.85
535.783	4.87
536.129	4.88
536.474	4.94
536.82	4.97
537.166	4.89
537.512	4.94
537.857	4.93
538.203	4.94
538.549	4.84
538.894	4.96
539.239	4.94
539.585	4.93
539.93	5
540.276	5.04
540.621	5.03
540.966	5.03
541.311	5.06
541.656	5.05
542.001	4.95
542.346	4.88
542.691	4.77
543.036	4.83
543.381	4.89
543.726	4.92
544.071	4.92
544.415	4.89
544.76	4.93
545.105	4.98
545.449	4.97
545.794	5.02
546.138	4.94
546.483	5.06
546.827	4.94
547.171	5.13
547.516	5.07
547.86	5.08
548.204	5.12
548.548	4.98
548.892	5.08
549.236	4.92
549.58	5.11
549.924	5.18
550.268	5.23
550.612	5.11
550.956	5.14
551.3	5.37
551.643	5.14
551.987	5.25
552.33	5.41
552.674	5.07
553.017	5.08
553.361	5.16
553.704	5.07
554.048	5.16
554.391	5.21
554.734	4.93
555.077	5.24
555.42	5.19
555.764	5.18
556.107	5.28
556.45	5.22
556.793	5.22
557.135	5.32
557.478	5.32
557.821	5.15
558.164	5.25
558.507	5.05
558.849	5.2
559.192	5.12
559.534	5.28
559.877	5.06
560.219	5.16
560.562	5.13
560.904	5.4
561.246	5.1
561.589	5.18
561.931	5.22
562.273	5.07
562.615	5.13
562.957	5.2
563.299	5.16
563.641	5.16
563.983	5.1
564.325	5.16
564.667	5.39
565.008	5.13
565.35	5.06
565.692	5.32
566.033	5.29
566.375	5.21
566.716	5.11
567.058	5.27
567.399	5.2
567.741	5.17
568.082	5.1
568.423	5.07
568.764	5.19
569.105	5.14
569.447	5.11
569.788	5.24
570.129	5.27
570.47	5.25
570.811	5.27
571.151	5.13
571.492	5.18
571.833	5.11
572.174	5.23
572.514	5.27
572.855	5.29
573.195	5.2
573.536	5.4
573.876	5.21
574.217	5.26
574.557	5.16
574.898	5.08
575.238	5.37
575.578	5.27
575.918	5.29
576.258	5.35
576.598	5.22
576.938	5.11
577.278	5.16
577.618	5.27
577.958	5.31
578.298	5.37
578.638	5.13
578.977	5.19
579.317	5.29
579.657	5.39
579.996	5.29
580.336	5.38
580.675	5.18
581.014	5.47
581.354	5.27
581.693	5.28
582.032	5.3
582.372	5.38
582.711	5.25
583.05	5.34
583.389	5.52
583.728	5.31
584.067	5.2
584.406	5.33
584.745	5.14
585.083	5.31
585.422	5.3
585.761	5.3
586.1	5.45
586.438	5.22
586.777	5.37
587.115	5.48
587.454	5.29
587.792	5.35
588.13	5.3
588.469	5.2
588.807	5.42
589.145	5.39
589.483	5.07
589.821	5.36
590.159	5.38
590.497	5.51
590.835	5.24
591.173	5.47
591.511	5.46
591.849	5.28
592.187	5.17
592.524	5.3
592.862	5.19
593.2	5.33
593.537	5.33
593.875	5.37
594.212	5.43
594.55	5.35
594.887	5.21
595.224	5.31
595.561	5.21
595.899	5.42
596.236	5.41
596.573	5.15
596.91	5.12
597.247	5.43
597.584	5.34
597.921	5.25
598.258	5.47
598.594	5.5
598.931	5.23
599.268	5.16
599.604	5.48
599.941	5.39
600.277	5.38
600.614	5.18
600.95	5.31
601.287	5.05
601.623	4.97
601.959	5.66
602.296	5.41
602.632	5.3
602.968	5.1
603.304	5.48
603.64	5.11
603.976	5.24
604.312	5.14
604.648	5.41
604.984	5.31
605.319	5.39
605.655	5.37
605.991	5.33
606.326	5.29
606.662	5.29
606.998	5.56
607.333	5.27
607.668	5.36
608.004	5.26
608.339	5.18
608.674	5.51
609.01	5.6
609.345	5.45
609.68	5.38
610.015	5.56
610.35	5.41
610.685	5.12
611.02	5.33
611.355	5.36
611.689	5.28
612.024	5.42
612.359	5.55
612.694	5.38
613.028	5.46
613.363	5.32
613.697	5.54
614.032	5.22
614.366	5.43
614.7	5.11
615.035	5.47
615.369	5.7
615.703	5.5
616.037	5.54
616.371	5.27
616.705	5.3
617.039	5.53
617.373	5.75
617.707	5.19
618.041	5.23
618.375	4.83
618.709	5.32
619.042	5.2
619.376	5.47
619.71	5.21
620.043	5.4
620.377	5.6
620.71	5.26
621.043	5.49
621.377	5.5
621.71	5.76
622.043	5.51
622.376	5.41
622.709	5.7
623.043	5.4
623.376	5.55
623.709	5.33
624.041	5.42
624.374	5.55
624.707	5.41
625.04	5.49
625.373	5.8
625.705	5.34
626.038	5.55
626.37	5.56
626.703	5.4
627.035	5.59
627.368	5.78
627.7	5.44
628.032	5.46
628.365	5.5
628.697	5.92
629.029	5.39
629.361	5.5
629.693	5.33
630.025	5.28
630.357	5.64
630.689	5.4
631.021	5.81
631.353	5.49
631.684	5.11
632.016	5.07
632.348	5.39
632.679	5.48
633.011	5.33
633.342	5.23
633.674	5.31
634.005	5.52
634.336	5.57
634.668	5.56
634.999	5.32
635.33	5.67
635.661	5.28
635.992	5.68
636.323	5.3
636.654	5
636.985	5.32
637.316	5.35
637.647	5.54
637.977	5.54
638.308	5.77
638.639	5.25
638.969	5.6
639.3	5.63
639.63	5.54
639.961	5.47
640.291	4.95
640.622	5.62
640.952	5.77
641.282	5.12
641.612	5.45
641.943	5.64
642.273	5.4
642.603	5.88
642.933	5.65
643.263	5.61
643.592	5.7
643.922	6.11
644.252	5.63
644.582	5.63
644.911	5.48
645.241	5.04
645.571	5.77
645.9	5.71
646.23	5.94
646.559	5.62
646.888	5.69
647.218	5.14
647.547	5.7
647.876	5.52
648.205	5.35
648.534	5.52
648.863	5.52
649.192	5.29
649.521	5.45
649.85	5.67
650.179	5.5
650.508	5.36
650.837	5.69
651.165	5.54
651.494	6.13
651.822	5.7
652.151	5.37
652.479	5.54
652.808	5.39
653.136	5.56
653.465	4.91
653.793	5.49
654.121	5.69
654.449	5.38
654.777	5
655.105	5.1
655.433	6.09
655.761	5.36
656.089	5.36
656.417	6.03
656.745	6.45
657.073	5.24
657.4	5.42
657.728	5.23
658.056	5.7
658.383	5.76
658.711	5.61
659.038	6.04
659.365	5.57
659.693	5.52
660.02	5.87
660.347	5.64
660.674	5.72
661.001	5.41
661.329	5.24
661.656	5.35
661.982	5.36
662.309	5.14
662.636	5.71
662.963	5.69
663.29	5.84
663.616	5.15
663.943	5.51
664.27	5.56
664.596	5.27
664.923	6.02
665.249	5.91
665.576	5.41
665.902	5.34
666.228	6.43
666.554	5.83
666.881	5.06
667.207	5.27
667.533	5.36
667.859	5.78
668.185	5.42
668.511	5.86
668.837	5.97
669.162	5.22
669.488	5.15
669.814	5.12
670.139	4.41
670.465	6.56
670.791	5.29
671.116	5.57
671.442	4.92
671.767	5.54
672.092	5.26
672.418	6.21
672.743	5.53
673.068	5.22
673.393	5.33
673.718	5.58
674.043	5.79
674.368	5.21
674.693	6.05
675.018	5.72
675.343	5.87
675.667	5.31
675.992	5.61
676.317	4.62
676.641	5.7
676.966	5.17
677.29	5.54
677.615	5.03
677.939	5.31
678.264	4.87
678.588	5.68
678.912	5.53
679.236	5.44
679.56	5.58
679.885	5.82
680.209	5.44
680.532	5.95
680.856	6.1
681.18	6.42
681.504	5.43
681.828	5.11
682.152	5.66
682.475	5.78
682.799	5.37
683.122	5.61
683.446	5.04
683.769	5.9
684.093	5.92
684.416	5.12
684.739	5.74
685.062	5.78
685.386	6.26
685.709	6.16
686.032	6.37
686.355	5.92
686.678	6.17
687.001	5.72
687.324	5.81
687.646	5.77
687.969	5.75
688.292	6.25
688.614	5.77
688.937	5.79
689.26	5.88
689.582	5.6
689.904	6.08
690.227	6.17
690.549	6.19
690.871	5.82
691.194	4.97
691.516	5.68
691.838	5.95
692.16	5
