Data from 0007_forehead_Reflection__1__297.txt Node

Date: Thu Dec 15 19:01:02 CST 2022
User: ToomeyLab
Spectrometer: FLMS14357
Trigger mode: 0
Integration Time (sec): 1.000000E-2
Scans to average: 100
Electric dark correction enabled: true
Nonlinearity correction enabled: false
Boxcar width: 0
XAxis mode: Wavelengths
Number of Pixels in Spectrum: 2048
>>>>>Begin Spectral Data<<<<<
189.047	9.07
189.435	9.07
189.823	9.07
190.211	-6.25
190.599	119.55
190.987	218.56
191.375	-33.9
191.763	281.89
192.151	25.28
192.538	-134.03
192.926	213.6
193.314	46.45
193.702	124.62
194.089	-36.87
194.477	374.48
194.864	145.78
195.252	-320.38
195.639	86.39
196.027	-18.3
196.414	-24.42
196.801	-191.73
197.189	86.13
197.576	-111.39
197.963	122.39
198.351	22.29
198.738	-37.29
199.125	-125.84
199.512	51.65
199.899	-89.19
200.286	-33.75
200.673	46.24
201.06	15.75
201.447	20.86
201.833	-3.54
202.22	28.07
202.607	-88.55
202.994	21.34
203.38	50.79
203.767	-29.26
204.154	3.84
204.54	26.05
204.927	18.21
205.313	37.06
205.699	20.1
206.086	60.84
206.472	26.45
206.858	-8.78
207.245	6.65
207.631	-37.24
208.017	42.71
208.403	-90.4
208.789	-8.46
209.175	27.3
209.561	-126.83
209.947	-47.13
210.333	-32.91
210.719	28.89
211.105	28.37
211.491	15.45
211.876	26.91
212.262	24.31
212.648	13.93
213.034	7.86
213.419	2.77
213.805	-10.45
214.19	3.8
214.576	7.12
214.961	28.79
215.346	-36.73
215.732	14.07
216.117	-16.26
216.502	-38.6
216.888	-11.3
217.273	-31.27
217.658	-37.87
218.043	7.68
218.428	-30.19
218.813	-6.88
219.198	-84.2
219.583	-29.73
219.968	11.57
220.353	-25.93
220.738	-1.12
221.122	-16.79
221.507	-17.63
221.892	-27.32
222.276	-40.06
222.661	-9.19
223.046	-12.35
223.43	7.33
223.815	14.94
224.199	-2.03
224.583	0.48
224.968	-7
225.352	-9.21
225.736	5.59
226.121	4.22
226.505	-6.85
226.889	-1.14
227.273	-4.21
227.657	2.79
228.041	3.05
228.425	0.85
228.809	0.3
229.193	-0.59
229.577	1.06
229.961	1.13
230.344	1.73
230.728	2.24
231.112	2.11
231.495	-0.27
231.879	2.1
232.263	2.6
232.646	0.53
233.03	1.44
233.413	1.29
233.797	2.01
234.18	1.27
234.563	1.1
234.946	0.19
235.33	0.78
235.713	1.44
236.096	2.28
236.479	2.53
236.862	0.51
237.245	0.26
237.628	0.78
238.011	1.5
238.394	1.6
238.777	0.54
239.16	0.16
239.543	3.18
239.925	0.01
240.308	1.58
240.691	0.95
241.073	1.27
241.456	1.07
241.838	0.83
242.221	1.83
242.603	1.59
242.986	1.85
243.368	1.72
243.75	1.91
244.133	2.05
244.515	1.49
244.897	0.94
245.279	1.34
245.661	1.94
246.043	1.52
246.425	1.76
246.807	1.09
247.189	1.67
247.571	1.25
247.953	1.77
248.335	1.69
248.717	1.88
249.098	1.82
249.48	1.73
249.862	1.64
250.243	1.96
250.625	1.72
251.006	2.28
251.388	3.1
251.769	1.08
252.151	1.74
252.532	0.89
252.913	1.33
253.295	1.73
253.676	1.78
254.057	1.88
254.438	1.46
254.819	1.8
255.2	2.1
255.581	2.75
255.962	2.58
256.343	2.18
256.724	1.45
257.105	0.3
257.486	1.27
257.867	1.39
258.247	1.54
258.628	1.18
259.009	1.36
259.389	0.47
259.77	1.36
260.15	2.27
260.531	1.92
260.911	1.65
261.292	1.8
261.672	1.8
262.052	1.8
262.432	1.73
262.813	1.81
263.193	1.78
263.573	2.15
263.953	1.9
264.333	1.97
264.713	1.85
265.093	1.25
265.473	1.32
265.853	1.58
266.233	1.78
266.612	1.11
266.992	1.09
267.372	1.85
267.752	1.69
268.131	1.64
268.511	2.01
268.89	2.02
269.27	1.43
269.649	1.51
270.029	1.64
270.408	1.82
270.787	1.44
271.167	1.6
271.546	1.96
271.925	1.9
272.304	1.86
272.683	1.53
273.062	1.92
273.441	1.31
273.82	2.01
274.199	1.67
274.578	1.78
274.957	1.69
275.336	1.76
275.715	2.42
276.093	1.44
276.472	1.97
276.851	1.74
277.229	1.94
277.608	1.1
277.986	1.36
278.365	1.85
278.743	1.54
279.122	1.26
279.5	1.69
279.878	1.5
280.257	1.46
280.635	1.64
281.013	1.26
281.391	1.51
281.769	1.94
282.147	1.52
282.525	1.34
282.903	1.69
283.281	1.95
283.659	2.08
284.037	1.74
284.415	1.79
284.792	1.95
285.17	1.45
285.548	1.73
285.925	1.53
286.303	2.07
286.68	1.63
287.058	1.89
287.435	1.69
287.813	1.79
288.19	1.73
288.567	1.56
288.945	1.35
289.322	2.11
289.699	2.1
290.076	1.53
290.453	1.29
290.83	1.78
291.207	1.68
291.584	2.08
291.961	1.83
292.338	1.91
292.715	1.65
293.092	1.7
293.469	2.15
293.845	2.19
294.222	1.74
294.599	1.7
294.975	1.49
295.352	2.07
295.728	1.85
296.105	2.08
296.481	2.21
296.858	2.27
297.234	1.83
297.61	1.86
297.986	2.63
298.363	2.15
298.739	2.46
299.115	2.07
299.491	2.51
299.867	2.09
300.243	2.05
300.619	1.97
300.995	2.13
301.371	2.08
301.746	2.57
302.122	1.79
302.498	2.03
302.874	2.6
303.249	2.57
303.625	2.03
304	2.34
304.376	2.54
304.751	2.33
305.127	2.19
305.502	2.51
305.878	2.56
306.253	2.45
306.628	2.25
307.003	2.24
307.378	1.84
307.754	2.36
308.129	1.98
308.504	2.49
308.879	2.8
309.254	2.79
309.629	2.42
310.003	2.49
310.378	2.59
310.753	2.58
311.128	2.15
311.502	2.62
311.877	2.42
312.252	2.73
312.626	2.99
313.001	2.72
313.375	2.73
313.75	2.75
314.124	2.98
314.498	2.72
314.873	2.6
315.247	2.25
315.621	2.41
315.995	2.58
316.369	2.82
316.743	2.68
317.117	2.72
317.491	2.73
317.865	2.45
318.239	3.18
318.613	3.06
318.987	3.14
319.361	2.87
319.734	3.03
320.108	2.82
320.482	3.21
320.855	2.78
321.229	2.82
321.602	3
321.976	2.47
322.349	3.23
322.723	2.97
323.096	2.83
323.469	2.56
323.843	3
324.216	3.02
324.589	3.55
324.962	2.71
325.335	3.43
325.708	3.28
326.081	3.13
326.454	3.74
326.827	3.1
327.2	3.38
327.573	3.38
327.945	3.47
328.318	3.21
328.691	2.99
329.063	3.08
329.436	2.79
329.809	3.57
330.181	3.91
330.553	3.51
330.926	4.12
331.298	3.33
331.671	3.52
332.043	3.49
332.415	3.82
332.787	3.7
333.159	3.62
333.532	3.72
333.904	3.64
334.276	3.76
334.648	3.82
335.02	3.49
335.391	3.57
335.763	3.78
336.135	4.12
336.507	3.53
336.879	3.7
337.25	4.09
337.622	3.35
337.993	3.89
338.365	3.83
338.736	4.36
339.108	4.03
339.479	3.97
339.851	4.04
340.222	4.02
340.593	4.12
340.964	4.08
341.336	4.06
341.707	4.1
342.078	3.62
342.449	3.92
342.82	4.12
343.191	4.02
343.562	4.21
343.933	4.08
344.303	4.88
344.674	4.43
345.045	4.2
345.416	4.37
345.786	4.19
346.157	4.43
346.527	4
346.898	3.92
347.268	4.34
347.639	4.05
348.009	4.23
348.38	3.93
348.75	4.89
349.12	4.61
349.49	4.48
349.861	5.15
350.231	4.32
350.601	4.45
350.971	4.18
351.341	4.57
351.711	4.74
352.081	4.47
352.45	4.23
352.82	4.26
353.19	4.59
353.56	4.74
353.929	4.53
354.299	4.83
354.669	4.69
355.038	4.98
355.408	4.62
355.777	4.91
356.147	4.86
356.516	4.68
356.885	4.74
357.254	4.55
357.624	4.46
357.993	4.94
358.362	4.93
358.731	4.79
359.1	4.92
359.469	4.88
359.838	5.05
360.207	4.66
360.576	5.43
360.945	5.19
361.314	5.18
361.682	4.84
362.051	4.97
362.42	4.89
362.788	5.16
363.157	5.01
363.525	5.23
363.894	4.86
364.262	5.09
364.631	5.26
364.999	5.39
365.367	5.05
365.735	4.97
366.104	5.26
366.472	5.5
366.84	5.5
367.208	5.51
367.576	5.25
367.944	5.24
368.312	5.26
368.68	5.6
369.048	5.28
369.416	5.21
369.783	5.48
370.151	5.41
370.519	5.42
370.886	5.43
371.254	5.59
371.621	5.71
371.989	5.69
372.356	5.82
372.724	5.37
373.091	5.43
373.458	5.45
373.826	5.71
374.193	5.72
374.56	5.84
374.927	5.54
375.294	5.93
375.661	5.84
376.028	5.55
376.395	6.22
376.762	5.62
377.129	5.67
377.496	5.84
377.863	5.85
378.229	6.2
378.596	6.15
378.963	6.2
379.329	6.18
379.696	6.06
380.062	6.18
380.429	5.64
380.795	6.35
381.161	5.93
381.528	5.92
381.894	6.32
382.26	6.19
382.626	6.37
382.993	6.39
383.359	6.14
383.725	5.86
384.091	6.08
384.457	5.99
384.823	6.47
385.188	6.41
385.554	6.25
385.92	6.4
386.286	6.37
386.651	6.56
387.017	6.69
387.383	6.15
387.748	6.69
388.114	6.62
388.479	6.65
388.845	6.31
389.21	6.85
389.575	6.95
389.94	6.85
390.306	6.91
390.671	6.83
391.036	6.73
391.401	6.97
391.766	6.78
392.131	6.77
392.496	6.96
392.861	6.82
393.226	6.92
393.591	6.82
393.956	7.01
394.32	7.03
394.685	6.98
395.05	6.97
395.414	6.92
395.779	7
396.143	6.92
396.508	6.97
396.872	6.8
397.236	7.44
397.601	7.39
397.965	7.05
398.329	7.17
398.694	7.03
399.058	7.3
399.422	6.93
399.786	7.24
400.15	7.28
400.514	7.19
400.878	7.4
401.242	7.18
401.605	7.25
401.969	7.31
402.333	7.37
402.697	7.52
403.06	7.41
403.424	7.42
403.787	7.63
404.151	7.67
404.514	7.7
404.878	7.41
405.241	7.35
405.604	7.46
405.968	7.49
406.331	7.78
406.694	7.59
407.057	7.57
407.42	7.53
407.783	7.78
408.146	7.68
408.509	7.76
408.872	7.83
409.235	8.04
409.598	7.89
409.961	8.06
410.323	7.84
410.686	7.83
411.049	7.96
411.411	7.82
411.774	7.74
412.136	7.87
412.499	8.19
412.861	7.64
413.223	7.95
413.586	8.36
413.948	8.26
414.31	8.04
414.672	7.98
415.035	8.45
415.397	8.13
415.759	7.93
416.121	8.36
416.483	8.27
416.845	8.12
417.206	8.2
417.568	8.09
417.93	8.39
418.292	8.06
418.653	8.07
419.015	8.2
419.377	8.24
419.738	8.35
420.1	8.31
420.461	8.2
420.822	8.31
421.184	8.19
421.545	8.4
421.906	8.22
422.267	8.18
422.629	8.27
422.99	8.27
423.351	8.29
423.712	8.42
424.073	8.4
424.434	8.52
424.795	8.37
425.155	8.36
425.516	8.33
425.877	8.42
426.238	8.52
426.598	8.53
426.959	8.55
427.32	8.53
427.68	8.63
428.041	8.66
428.401	8.68
428.761	8.84
429.122	8.84
429.482	8.78
429.842	8.82
430.202	8.89
430.563	8.93
430.923	9.06
431.283	9.26
431.643	9.15
432.003	9.02
432.363	9.15
432.722	8.9
433.082	9.05
433.442	9.2
433.802	9.11
434.161	9.12
434.521	9.13
434.881	9.1
435.24	9.17
435.6	9.29
435.959	9.23
436.319	9.21
436.678	9.18
437.037	9.24
437.396	9.28
437.756	9.2
438.115	9.42
438.474	9.38
438.833	9.3
439.192	9.49
439.551	9.26
439.91	9.51
440.269	9.47
440.628	9.46
440.987	9.32
441.345	9.51
441.704	9.39
442.063	9.4
442.421	9.43
442.78	9.48
443.138	9.52
443.497	9.46
443.855	9.7
444.214	9.43
444.572	9.81
444.93	9.81
445.288	9.74
445.647	9.57
446.005	9.68
446.363	9.72
446.721	9.71
447.079	9.51
447.437	9.66
447.795	9.75
448.153	9.64
448.51	9.61
448.868	9.58
449.226	9.82
449.584	9.73
449.941	9.88
450.299	9.85
450.656	9.78
451.014	10.1
451.371	10.05
451.729	9.99
452.086	9.95
452.443	10.21
452.801	10.16
453.158	10.28
453.515	10
453.872	10.14
454.229	10.19
454.586	10.17
454.943	10.37
455.3	10.38
455.657	10.24
456.014	10.31
456.371	10.3
456.727	10.55
457.084	10.6
457.441	10.54
457.797	10.52
458.154	10.56
458.51	10.4
458.867	10.52
459.223	10.44
459.58	10.49
459.936	10.62
460.292	10.41
460.648	10.4
461.005	10.33
461.361	10.29
461.717	10.37
462.073	10.48
462.429	10.52
462.785	10.79
463.141	10.62
463.496	10.84
463.852	10.9
464.208	10.84
464.564	10.73
464.919	10.99
465.275	10.92
465.631	11.15
465.986	11.21
466.342	11.04
466.697	11.05
467.052	11.09
467.408	11.04
467.763	11.13
468.118	10.9
468.473	11.09
468.829	11.06
469.184	11.18
469.539	10.89
469.894	11.27
470.249	11.24
470.603	11.37
470.958	11.48
471.313	11.46
471.668	11.41
472.023	11.53
472.377	11.38
472.732	11.59
473.086	11.4
473.441	11.43
473.795	11.67
474.15	11.46
474.504	11.53
474.859	11.38
475.213	11.56
475.567	11.46
475.921	11.64
476.275	11.76
476.63	11.66
476.984	11.61
477.338	11.84
477.692	11.68
478.045	11.85
478.399	11.84
478.753	11.6
479.107	11.8
479.461	11.66
479.814	11.75
480.168	11.8
480.521	11.96
480.875	11.97
481.228	11.94
481.582	11.89
481.935	12.04
482.289	12.05
482.642	12.01
482.995	11.82
483.348	11.83
483.701	11.87
484.055	11.69
484.408	11.67
484.761	11.45
485.114	11.23
485.466	11.15
485.819	11.25
486.172	11.37
486.525	11.52
486.878	11.63
487.23	11.77
487.583	11.88
487.936	11.83
488.288	11.71
488.641	11.64
488.993	11.63
489.345	11.61
489.698	11.63
490.05	11.67
490.402	11.88
490.754	11.97
491.107	12.06
491.459	12.2
491.811	12.26
492.163	12.26
492.515	12
492.866	11.94
493.218	11.91
493.57	12.03
493.922	12.06
494.274	12.25
494.625	12.44
494.977	12.51
495.328	12.57
495.68	12.78
496.031	12.85
496.383	12.81
496.734	12.85
497.086	13
497.437	12.81
497.788	12.9
498.139	12.71
498.49	12.8
498.842	12.92
499.193	12.79
499.544	12.79
499.894	12.79
500.245	13.11
500.596	13.12
500.947	13.12
501.298	13
501.648	13.22
501.999	13.41
502.35	13.01
502.7	13.45
503.051	13.23
503.401	13.33
503.752	13.18
504.102	13.22
504.452	13.32
504.803	13.4
505.153	13.31
505.503	13.36
505.853	13.55
506.203	13.56
506.553	13.45
506.903	13.49
507.253	13.61
507.603	13.4
507.953	13.55
508.303	13.69
508.652	13.52
509.002	13.69
509.352	13.58
509.701	13.52
510.051	13.64
510.4	13.67
510.75	13.56
511.099	13.58
511.449	13.71
511.798	13.63
512.147	13.72
512.496	13.84
512.846	13.72
513.195	13.84
513.544	13.93
513.893	13.89
514.242	13.71
514.591	13.73
514.939	13.99
515.288	14.01
515.637	13.95
515.986	14.04
516.334	14.26
516.683	14.15
517.032	13.99
517.38	14.19
517.729	14.12
518.077	14.21
518.426	14.18
518.774	14.19
519.122	14.21
519.47	13.98
519.819	13.95
520.167	13.82
520.515	14
520.863	13.81
521.211	14.08
521.559	14.14
521.907	14.26
522.255	14.22
522.602	14.42
522.95	14.46
523.298	14.47
523.645	14.53
523.993	14.55
524.341	14.64
524.688	14.51
525.036	14.55
525.383	14.66
525.73	14.55
526.078	14.56
526.425	14.42
526.772	14.36
527.119	14.29
527.466	14.43
527.814	14.37
528.161	14.47
528.508	14.55
528.854	14.32
529.201	14.36
529.548	14.13
529.895	13.94
530.242	13.92
530.588	14.01
530.935	14.06
531.282	14.18
531.628	14.38
531.975	14.5
532.321	14.67
532.667	14.76
533.014	14.77
533.36	14.77
533.706	14.8
534.052	14.87
534.399	14.65
534.745	14.54
535.091	14.5
535.437	14.6
535.783	14.68
536.129	14.82
536.474	15.1
536.82	15.06
537.166	15.09
537.512	14.89
537.857	14.93
538.203	14.92
538.549	14.93
538.894	15.18
539.239	15.16
539.585	15.39
539.93	15.43
540.276	15.57
540.621	15.62
540.966	15.55
541.311	15.54
541.656	15.5
542.001	15.29
542.346	15.13
542.691	14.86
543.036	14.9
543.381	14.96
543.726	15.11
544.071	15.2
544.415	15.3
544.76	15.35
545.105	15.38
545.449	15.46
545.794	15.6
546.138	15.74
546.483	15.79
546.827	15.65
547.171	15.91
547.516	15.85
547.86	15.79
548.204	15.84
548.548	15.79
548.892	15.91
549.236	15.94
549.58	16.05
549.924	16.18
550.268	16.24
550.612	16.22
550.956	16.34
551.3	16.57
551.643	16.44
551.987	16.28
552.33	16.67
552.674	16.46
553.017	16.56
553.361	16.74
553.704	16.5
554.048	16.43
554.391	16.51
554.734	16.33
555.077	16.45
555.42	16.68
555.764	16.66
556.107	16.67
556.45	16.78
556.793	16.91
557.135	16.78
557.478	16.92
557.821	16.81
558.164	16.84
558.507	16.8
558.849	16.99
559.192	16.9
559.534	16.9
559.877	16.82
560.219	17.14
560.562	16.97
560.904	17.34
561.246	17.04
561.589	17.33
561.931	16.96
562.273	16.98
562.615	16.95
562.957	17.13
563.299	17.07
563.641	17.08
563.983	17.02
564.325	17.44
564.667	17.25
565.008	17.23
565.35	17.23
565.692	17.35
566.033	17.44
566.375	17.57
566.716	17.19
567.058	17.12
567.399	17.29
567.741	17.32
568.082	17.29
568.423	17.19
568.764	17.48
569.105	17.38
569.447	17.44
569.788	17.42
570.129	17.66
570.47	17.68
570.811	17.66
571.151	17.55
571.492	17.78
571.833	17.61
572.174	17.6
572.514	17.66
572.855	17.76
573.195	17.45
573.536	17.51
573.876	17.59
574.217	17.55
574.557	17.55
574.898	17.57
575.238	17.79
575.578	17.74
575.918	17.88
576.258	18.11
576.598	17.75
576.938	17.89
577.278	17.94
577.618	17.88
577.958	18.16
578.298	17.98
578.638	18.03
578.977	18.17
579.317	18.2
579.657	18.16
579.996	18.39
580.336	18.23
580.675	18.52
581.014	18.49
581.354	18.25
581.693	18.7
582.032	18.61
582.372	18.65
582.711	18.6
583.05	18.9
583.389	18.68
583.728	18.53
584.067	18.47
584.406	18.92
584.745	18.71
585.083	18.64
585.422	18.89
585.761	18.9
586.1	18.79
586.438	18.78
586.777	18.71
587.115	18.96
587.454	18.7
587.792	19.09
588.13	18.99
588.469	18.76
588.807	19.09
589.145	19.16
589.483	18.94
589.821	18.97
590.159	19.01
590.497	18.98
590.835	18.87
591.173	19.13
591.511	18.97
591.849	18.96
592.187	18.83
592.524	19.49
592.862	18.89
593.2	19.17
593.537	19.21
593.875	19.15
594.212	19.35
594.55	19.21
594.887	19.18
595.224	19.52
595.561	19.26
595.899	19.24
596.236	19.33
596.573	19.21
596.91	19.28
597.247	19.34
597.584	19.32
597.921	19.24
598.258	19.34
598.594	19.18
598.931	19.06
599.268	18.96
599.604	19.52
599.941	19.31
600.277	19.58
600.614	19.48
600.95	19.43
601.287	19.49
601.623	19.57
601.959	19.95
602.296	19.66
602.632	19.62
602.968	19.57
603.304	19.89
603.64	20.01
603.976	19.44
604.312	19.6
604.648	19.87
604.984	19.77
605.319	19.77
605.655	19.64
605.991	19.85
606.326	19.54
606.662	19.51
606.998	19.74
607.333	19.74
607.668	19.64
608.004	19.99
608.339	19.97
608.674	20.12
609.01	20.11
609.345	19.97
609.68	20.26
610.015	20.57
610.35	20.15
610.685	19.91
611.02	19.87
611.355	20
611.689	20.02
612.024	20.17
612.359	20.33
612.694	20.35
613.028	20.18
613.363	20.66
613.697	20.24
614.032	20.37
614.366	20.62
614.7	20.4
615.035	20.67
615.369	20.35
615.703	20.45
616.037	20.64
616.371	20.46
616.705	20.54
617.039	21.07
617.373	20.99
617.707	20.45
618.041	20.93
618.375	20.27
618.709	20.87
619.042	20.59
619.376	20.72
619.71	20.4
620.043	20.94
620.377	20.97
620.71	20.71
621.043	20.93
621.377	21.2
621.71	21.28
622.043	21.11
622.376	21.15
622.709	21.55
623.043	20.83
623.376	20.97
623.709	21.31
624.041	20.84
624.374	21.3
624.707	21.34
625.04	21.21
625.373	21.34
625.705	21.27
626.038	21.24
626.37	21.29
626.703	21.17
627.035	21.48
627.368	21.47
627.7	21.35
628.032	21.26
628.365	21.41
628.697	21.26
629.029	21.34
629.361	21.55
629.693	21.23
630.025	21.7
630.357	21.47
630.689	21.47
631.021	21.79
631.353	21.71
631.684	21.28
632.016	21.45
632.348	21.28
632.679	21.44
633.011	21.36
633.342	21.72
633.674	21.45
634.005	21.8
634.336	21.88
634.668	21.72
634.999	21.77
635.33	21.86
635.661	21.7
635.992	21.5
636.323	22.2
636.654	21.88
636.985	21.68
637.316	21.93
637.647	22.13
637.977	21.84
638.308	22.33
638.639	21.97
638.969	21.89
639.3	22.06
639.63	22.12
639.961	21.96
640.291	21.93
640.622	22.49
640.952	22
641.282	22.18
641.612	22.44
641.943	21.81
642.273	22.51
642.603	22.55
642.933	22.63
643.263	22.8
643.592	22.43
643.922	22.83
644.252	22.43
644.582	22.43
644.911	22.44
645.241	21.97
645.571	22.76
645.9	23.02
646.23	23.21
646.559	22.29
646.888	22.79
647.218	22.41
647.547	22.42
647.876	22.33
648.205	22.55
648.534	22.79
648.863	22.98
649.192	22.45
649.521	23.14
649.85	22.96
650.179	22.78
650.508	22.61
650.837	22.5
651.165	22.85
651.494	22.82
651.822	23
652.151	22.4
652.479	23.34
652.808	22.38
653.136	23.13
653.465	22.55
653.793	22.75
654.121	22.69
654.449	22.68
654.777	22.94
655.105	23.05
655.433	23.18
655.761	23.34
656.089	23.37
656.417	23.44
656.745	23.25
657.073	23.3
657.4	22.97
657.728	23.01
658.056	23.4
658.383	23.04
658.711	23.19
659.038	23.7
659.365	23.65
659.693	23.75
660.02	23.36
660.347	23.05
660.674	22.9
661.001	23.13
661.329	23.13
661.656	22.79
661.982	23.21
662.309	23.15
662.636	23.61
662.963	23.59
663.29	23.88
663.616	23.41
663.943	23.28
664.27	23.72
664.596	23.17
664.923	23.71
665.249	24.01
665.576	23.66
665.902	23.48
666.228	23.11
666.554	23.83
666.881	23.31
667.207	23.84
667.533	23.16
667.859	23.6
668.185	23.74
668.511	23.88
668.837	23.71
669.162	23.81
669.488	23.42
669.814	24.08
670.139	23.43
670.465	23.91
670.791	23.26
671.116	23.38
671.442	23.78
671.767	23.89
672.092	24.06
672.418	24.15
672.743	23.44
673.068	23.2
673.393	24.34
673.718	23.72
674.043	24.09
674.368	24.25
674.693	23.49
675.018	24.77
675.343	24.52
675.667	24.13
675.992	23.9
676.317	23.48
676.641	25.04
