Data from 0007_crown_Reflection__4__295.txt Node

Date: Thu Dec 15 19:00:17 CST 2022
User: ToomeyLab
Spectrometer: FLMS14357
Trigger mode: 0
Integration Time (sec): 1.000000E-2
Scans to average: 100
Electric dark correction enabled: true
Nonlinearity correction enabled: false
Boxcar width: 0
XAxis mode: Wavelengths
Number of Pixels in Spectrum: 2048
>>>>>Begin Spectral Data<<<<<
189.047	-10.59
189.435	-10.59
189.823	-10.59
190.211	-47.62
190.599	47
190.987	-100.06
191.375	6.09
191.763	110.14
192.151	274.55
192.538	747.05
192.926	161.44
193.314	65.07
193.702	171.8
194.089	27.45
194.477	366.54
194.864	387.09
195.252	-364.71
195.639	133.69
196.027	524.89
196.414	38.71
196.801	-147.53
197.189	26.74
197.576	-40.07
197.963	94.92
198.351	58.7
198.738	-28.35
199.125	-107.18
199.512	4.13
199.899	18.36
200.286	-12.04
200.673	42.61
201.06	-0.51
201.447	14.7
201.833	76.46
202.22	28.95
202.607	-120.45
202.994	-28.72
203.38	2.12
203.767	-34.23
204.154	62.4
204.54	13.88
204.927	19.51
205.313	34.01
205.699	28.24
206.086	-10.81
206.472	10.99
206.858	33.04
207.245	-0.37
207.631	3.14
208.017	17.25
208.403	-62.09
208.789	23.66
209.175	39.73
209.561	-85.79
209.947	-11.83
210.333	-12.47
210.719	56.17
211.105	43.48
211.491	39.53
211.876	-27.49
212.262	18.3
212.648	16.5
213.034	19.28
213.419	-18.43
213.805	-54.47
214.19	-8.87
214.576	5.17
214.961	-8.43
215.346	-37.83
215.732	17.43
216.117	19.77
216.502	-28.33
216.888	33.26
217.273	36.23
217.658	-3.44
218.043	-26.64
218.428	-32.49
218.813	-4.32
219.198	-59.22
219.583	-22.94
219.968	17.47
220.353	-24.62
220.738	12
221.122	7.77
221.507	-12
221.892	-25.63
222.276	-28.23
222.661	-7.92
223.046	-16.98
223.43	17.68
223.815	2.56
224.199	-6
224.583	0.04
224.968	-1.76
225.352	-6.51
225.736	6.1
226.121	-5.09
226.505	-2.19
226.889	1.63
227.273	-6.66
227.657	3.92
228.041	1.03
228.425	-0.17
228.809	2.08
229.193	3.66
229.577	1.94
229.961	2.66
230.344	3.7
230.728	4.03
231.112	4.38
231.495	2.9
231.879	3.37
232.263	3.93
232.646	3.23
233.03	4.48
233.413	4.29
233.797	1.22
234.18	1.64
234.563	2.9
234.946	3.11
235.33	2.37
235.713	5.07
236.096	4.36
236.479	3.78
236.862	0.22
237.245	1.82
237.628	4.24
238.011	2.79
238.394	3.26
238.777	3.15
239.16	5.15
239.543	5.03
239.925	3.5
240.308	1.71
240.691	1.41
241.073	1.86
241.456	2.75
241.838	2.86
242.221	3.38
242.603	4.32
242.986	3.42
243.368	3.84
243.75	3.54
244.133	3.94
244.515	3.31
244.897	3.23
245.279	3.26
245.661	3.55
246.043	3.55
246.425	3.03
246.807	4.32
247.189	3.73
247.571	3.62
247.953	3.73
248.335	3.79
248.717	3.9
249.098	3.69
249.48	3.78
249.862	4.06
250.243	3.85
250.625	3.64
251.006	4.57
251.388	2.84
251.769	2.92
252.151	5.19
252.532	3.6
252.913	3.13
253.295	3.87
253.676	4.05
254.057	3.71
254.438	3.71
254.819	4.12
255.2	4.12
255.581	3.7
255.962	3.86
256.343	4.27
256.724	4.23
257.105	3.71
257.486	2.22
257.867	2.7
258.247	3.72
258.628	3.53
259.009	2.88
259.389	3.08
259.77	3.58
260.15	3.89
260.531	3.65
260.911	3.48
261.292	3.65
261.672	3.47
262.052	3.39
262.432	3.6
262.813	3.6
263.193	3.45
263.573	3.72
263.953	3.34
264.333	3.5
264.713	3.61
265.093	3.33
265.473	2.76
265.853	4.15
266.233	3.31
266.612	3.31
266.992	3.4
267.372	3.44
267.752	3.86
268.131	3.25
268.511	3.29
268.89	3.98
269.27	2.98
269.649	3.21
270.029	3.39
270.408	3.19
270.787	2.86
271.167	3.82
271.546	3.4
271.925	3.86
272.304	3.41
272.683	3.16
273.062	3.37
273.441	3.28
273.82	3.69
274.199	3.09
274.578	3.32
274.957	3.02
275.336	3.63
275.715	3.4
276.093	3.06
276.472	3.06
276.851	3.11
277.229	3.24
277.608	2.62
277.986	3.69
278.365	3.85
278.743	3.64
279.122	3.09
279.5	3.05
279.878	3.24
280.257	3.26
280.635	3.42
281.013	2.63
281.391	3.27
281.769	3.6
282.147	3.3
282.525	3.01
282.903	3
283.281	3.51
283.659	3.42
284.037	3.42
284.415	3.62
284.792	3.18
285.17	3.3
285.548	3.37
285.925	3.18
286.303	3.96
286.68	3.3
287.058	3.39
287.435	3.43
287.813	3.35
288.19	3.17
288.567	3.31
288.945	2.96
289.322	3.55
289.699	3.63
290.076	3.29
290.453	3.1
290.83	3.1
291.207	3.43
291.584	3.38
291.961	3.23
292.338	3.24
292.715	3.44
293.092	3.46
293.469	3
293.845	3.46
294.222	3.85
294.599	3.07
294.975	3.1
295.352	3.59
295.728	3.57
296.105	3.64
296.481	3.99
296.858	3.88
297.234	3.4
297.61	3.63
297.986	3.66
298.363	3.57
298.739	3.5
299.115	3.63
299.491	3.6
299.867	3.38
300.243	3.41
300.619	3.3
300.995	3.29
301.371	3.31
301.746	3.74
302.122	3.67
302.498	3.55
302.874	3.75
303.249	3.53
303.625	3.17
304	3.87
304.376	3.62
304.751	3.75
305.127	3.29
305.502	3.57
305.878	3.55
306.253	2.73
306.628	3.58
307.003	3.26
307.378	3.27
307.754	3.63
308.129	3.39
308.504	3.61
308.879	3.36
309.254	3.96
309.629	3.53
310.003	3.56
310.378	3.58
310.753	3.55
311.128	3.2
311.502	3.68
311.877	3.31
312.252	3.53
312.626	3.84
313.001	3.4
313.375	3.71
313.75	3.65
314.124	3.86
314.498	3.98
314.873	3.42
315.247	3.98
315.621	3.22
315.995	3.76
316.369	3.18
316.743	3.54
317.117	3.12
317.491	4.05
317.865	3.26
318.239	4.08
318.613	3.64
318.987	3.32
319.361	3.21
319.734	3.72
320.108	3.72
320.482	3.74
320.855	3.86
321.229	3.74
321.602	3.98
321.976	3.43
322.349	4.41
322.723	3.55
323.096	3.65
323.469	3.9
323.843	3.34
324.216	3.56
324.589	4.02
324.962	3.55
325.335	3.35
325.708	3.56
326.081	3.85
326.454	4.03
326.827	3.81
327.2	3.4
327.573	4.39
327.945	3.48
328.318	3.65
328.691	3.34
329.063	3.14
329.436	3.11
329.809	3.74
330.181	4.29
330.553	4.04
330.926	4.34
331.298	3.72
331.671	4.12
332.043	3.39
332.415	4.15
332.787	3.99
333.159	3.85
333.532	3.64
333.904	4.2
334.276	3.81
334.648	3.62
335.02	3.9
335.391	3.81
335.763	3.85
336.135	3.67
336.507	3.58
336.879	3.65
337.25	3.8
337.622	3.93
337.993	3.79
338.365	3.91
338.736	4.1
339.108	3.47
339.479	4.13
339.851	3.95
340.222	3.92
340.593	3.6
340.964	3.83
341.336	3.69
341.707	3.72
342.078	3.77
342.449	3.65
342.82	3.82
343.191	4.02
343.562	4.05
343.933	3.55
344.303	4.22
344.674	3.61
345.045	3.7
345.416	3.93
345.786	3.9
346.157	4.05
346.527	3.95
346.898	3.61
347.268	4.09
347.639	3.74
348.009	3.88
348.38	3.58
348.75	3.9
349.12	4.19
349.49	4.07
349.861	4.01
350.231	3.5
350.601	3.82
350.971	3.75
351.341	4.14
351.711	3.54
352.081	3.48
352.45	3.7
352.82	3.24
353.19	3.3
353.56	3.49
353.929	3.81
354.299	3.86
354.669	3.72
355.038	4.29
355.408	4.07
355.777	4.07
356.147	3.75
356.516	3.75
356.885	3.54
357.254	3.58
357.624	3.37
357.993	3.74
358.362	4.02
358.731	4.34
359.1	4.06
359.469	4.08
359.838	3.89
360.207	3.82
360.576	3.94
360.945	4.04
361.314	3.88
361.682	3.7
362.051	3.76
362.42	3.96
362.788	3.93
363.157	3.8
363.525	4.09
363.894	3.54
364.262	3.92
364.631	4.16
364.999	4.1
365.367	4.12
365.735	3.82
366.104	3.9
366.472	3.73
366.84	3.91
367.208	4.04
367.576	3.61
367.944	3.91
368.312	3.9
368.68	4.18
369.048	3.9
369.416	3.87
369.783	3.96
370.151	3.94
370.519	4.12
370.886	3.96
371.254	4.1
371.621	4
371.989	4.24
372.356	3.81
372.724	4.05
373.091	3.79
373.458	4.04
373.826	4.11
374.193	3.83
374.56	4.19
374.927	3.88
375.294	4.2
375.661	3.99
376.028	3.93
376.395	4.2
376.762	4.03
377.129	4.09
377.496	4.08
377.863	3.97
378.229	3.96
378.596	4.24
378.963	4.2
379.329	3.98
379.696	3.92
380.062	4.06
380.429	3.9
380.795	4.36
381.161	3.94
381.528	3.62
381.894	3.86
382.26	4.13
382.626	3.91
382.993	4.36
383.359	4.07
383.725	3.86
384.091	4.23
384.457	3.9
384.823	4.1
385.188	4.34
385.554	4.22
385.92	4.03
386.286	4.24
386.651	4.05
387.017	4.55
387.383	4.02
387.748	3.97
388.114	4.5
388.479	4.18
388.845	3.85
389.21	4.34
389.575	4.41
389.94	4.36
390.306	4.32
390.671	4.47
391.036	4.05
391.401	4.19
391.766	4.27
392.131	4.14
392.496	4.17
392.861	4.15
393.226	3.89
393.591	4.26
393.956	4.17
394.32	4.31
394.685	4.29
395.05	4.2
395.414	4.17
395.779	4.41
396.143	4.23
396.508	4.12
396.872	4.27
397.236	4.61
397.601	4.4
397.965	4.19
398.329	4.36
398.694	4.18
399.058	4.28
399.422	4.22
399.786	4.24
400.15	4.3
400.514	4.17
400.878	4.4
401.242	4.35
401.605	4.41
401.969	4.22
402.333	4.36
402.697	4.43
403.06	4.12
403.424	4.35
403.787	4.24
404.151	4.48
404.514	4.3
404.878	4.21
405.241	4.45
405.604	4.22
405.968	4.21
406.331	4.43
406.694	4.28
407.057	4.21
407.42	4.35
407.783	4.53
408.146	4.16
408.509	4.41
408.872	4.27
409.235	4.64
409.598	4.31
409.961	4.54
410.323	4.19
410.686	4.31
411.049	4.37
411.411	4.11
411.774	4.29
412.136	4.52
412.499	4.3
412.861	4.15
413.223	4.19
413.586	4.4
413.948	4.46
414.31	4.46
414.672	4.42
415.035	4.62
415.397	4.3
415.759	4.18
416.121	4.46
416.483	4.23
416.845	4.31
417.206	4.57
417.568	4.26
417.93	4.5
418.292	4.26
418.653	4.21
419.015	4.38
419.377	4.29
419.738	4.48
420.1	4.38
420.461	4.3
420.822	4.4
421.184	4.38
421.545	4.47
421.906	4.47
422.267	4.31
422.629	4.33
422.99	4.28
423.351	4.32
423.712	4.42
424.073	4.37
424.434	4.45
424.795	4.46
425.155	4.35
425.516	4.36
425.877	4.43
426.238	4.39
426.598	4.43
426.959	4.51
427.32	4.29
427.68	4.54
428.041	4.55
428.401	4.51
428.761	4.66
429.122	4.42
429.482	4.56
429.842	4.56
430.202	4.65
430.563	4.41
430.923	4.7
431.283	4.62
431.643	4.56
432.003	4.67
432.363	4.69
432.722	4.57
433.082	4.44
433.442	4.61
433.802	4.68
434.161	4.43
434.521	4.5
434.881	4.59
435.24	4.57
435.6	4.66
435.959	4.63
436.319	4.64
436.678	4.64
437.037	4.73
437.396	4.63
437.756	4.38
438.115	4.57
438.474	4.64
438.833	4.65
439.192	4.58
439.551	4.57
439.91	4.63
440.269	4.51
440.628	4.6
440.987	4.63
441.345	4.62
441.704	4.56
442.063	4.54
442.421	4.61
442.78	4.6
443.138	4.77
443.497	4.6
443.855	4.66
444.214	4.53
444.572	4.84
444.93	4.63
445.288	4.66
445.647	4.53
446.005	4.58
446.363	4.66
446.721	4.64
447.079	4.53
447.437	4.66
447.795	4.64
448.153	4.61
448.51	4.59
448.868	4.55
449.226	4.58
449.584	4.65
449.941	4.74
450.299	4.67
450.656	4.61
451.014	4.8
451.371	4.78
451.729	4.66
452.086	4.67
452.443	4.79
452.801	4.58
453.158	4.88
453.515	4.64
453.872	4.74
454.229	4.5
454.586	4.6
454.943	4.78
455.3	4.82
455.657	4.76
456.014	4.91
456.371	4.76
456.727	4.92
457.084	4.92
457.441	4.76
457.797	4.76
458.154	4.79
458.51	4.79
458.867	4.8
459.223	4.61
459.58	4.86
459.936	4.62
460.292	4.68
460.648	4.67
461.005	4.76
461.361	4.77
461.717	4.65
462.073	4.85
462.429	4.87
462.785	4.98
463.141	4.87
463.496	4.94
463.852	4.92
464.208	4.96
464.564	4.86
464.919	4.87
465.275	5.01
465.631	5.02
465.986	4.96
466.342	4.79
466.697	5.01
467.052	5
467.408	4.96
467.763	4.89
468.118	4.8
468.473	4.98
468.829	4.94
469.184	4.94
469.539	4.93
469.894	5.02
470.249	4.93
470.603	5.04
470.958	5.18
471.313	4.96
471.668	4.99
472.023	5.02
472.377	5
472.732	5.2
473.086	4.89
473.441	4.89
473.795	5.24
474.15	4.91
474.504	5.11
474.859	4.93
475.213	5.13
475.567	4.85
475.921	5.05
476.275	5.13
476.63	5.06
476.984	4.89
477.338	5.28
477.692	5.08
478.045	5.16
478.399	5.09
478.753	5.06
479.107	5.15
479.461	4.91
479.814	5.19
480.168	4.97
480.521	5.21
480.875	5.11
481.228	5.1
481.582	5.08
481.935	5.18
482.289	5.15
482.642	5.17
482.995	5.07
483.348	4.95
483.701	5.12
484.055	5.03
484.408	4.99
484.761	4.88
485.114	4.79
485.466	4.75
485.819	4.75
486.172	4.85
486.525	4.91
486.878	4.99
487.23	5.04
487.583	4.96
487.936	4.99
488.288	5.01
488.641	4.94
488.993	4.88
489.345	4.89
489.698	4.89
490.05	4.94
490.402	5
490.754	5.06
491.107	5.05
491.459	5.14
491.811	5.13
492.163	5.11
492.515	5.05
492.866	4.95
493.218	4.91
493.57	5.05
493.922	5.06
494.274	5.23
494.625	5.26
494.977	5.33
495.328	5.23
495.68	5.12
496.031	5.27
496.383	5.21
496.734	5.28
497.086	5.3
497.437	5.33
497.788	5.37
498.139	5.32
498.49	5.35
498.842	5.24
499.193	5.23
499.544	5.19
499.894	5.29
500.245	5.43
500.596	5.36
500.947	5.25
501.298	5.23
501.648	5.4
501.999	5.46
502.35	5.25
502.7	5.57
503.051	5.3
503.401	5.41
503.752	5.3
504.102	5.4
504.452	5.33
504.803	5.37
505.153	5.45
505.503	5.46
505.853	5.5
506.203	5.43
506.553	5.33
506.903	5.46
507.253	5.4
507.603	5.58
507.953	5.46
508.303	5.42
508.652	5.42
509.002	5.6
509.352	5.49
509.701	5.44
510.051	5.48
510.4	5.6
510.75	5.33
511.099	5.35
511.449	5.53
511.798	5.51
512.147	5.38
512.496	5.4
512.846	5.46
513.195	5.5
513.544	5.61
513.893	5.52
514.242	5.52
514.591	5.56
514.939	5.64
515.288	5.72
515.637	5.59
515.986	5.63
516.334	5.72
516.683	5.58
517.032	5.53
517.38	5.53
517.729	5.61
518.077	5.58
518.426	5.72
518.774	5.47
519.122	5.58
519.47	5.49
519.819	5.52
520.167	5.48
520.515	5.49
520.863	5.53
521.211	5.51
521.559	5.55
521.907	5.63
522.255	5.67
522.602	5.66
522.95	5.7
523.298	5.61
523.645	5.63
523.993	5.69
524.341	5.71
524.688	5.57
525.036	5.69
525.383	5.71
525.73	5.64
526.078	5.75
526.425	5.66
526.772	5.56
527.119	5.64
527.466	5.66
527.814	5.62
528.161	5.69
528.508	5.7
528.854	5.64
529.201	5.57
529.548	5.53
529.895	5.42
530.242	5.42
530.588	5.48
530.935	5.52
531.282	5.53
531.628	5.62
531.975	5.6
532.321	5.75
532.667	5.76
533.014	5.77
533.36	5.81
533.706	5.79
534.052	5.72
534.399	5.73
534.745	5.6
535.091	5.64
535.437	5.65
535.783	5.69
536.129	5.72
536.474	5.8
536.82	5.82
537.166	5.77
537.512	5.74
537.857	5.81
538.203	5.76
538.549	5.72
538.894	5.82
539.239	5.87
539.585	5.92
539.93	5.94
540.276	5.9
540.621	6.03
540.966	5.95
541.311	5.9
541.656	5.89
542.001	5.9
542.346	5.76
542.691	5.62
543.036	5.66
543.381	5.72
543.726	5.81
544.071	5.82
544.415	5.89
544.76	5.87
545.105	5.89
545.449	5.9
545.794	6.01
546.138	6
546.483	6.08
546.827	6
547.171	6.06
547.516	6.03
547.86	5.98
548.204	5.96
548.548	5.98
548.892	5.87
549.236	6
549.58	5.99
549.924	6.18
550.268	6.27
550.612	6.2
550.956	6.44
551.3	6.33
551.643	6.16
551.987	6.22
552.33	6.39
552.674	6
553.017	6.37
553.361	6.24
553.704	6.22
554.048	6.22
554.391	6.33
554.734	6.08
555.077	6.27
555.42	6.29
555.764	6.19
556.107	6.27
556.45	6.3
556.793	6.36
557.135	6.23
557.478	6.33
557.821	6.37
558.164	6.4
558.507	6.29
558.849	6.44
559.192	6.41
559.534	6.53
559.877	6.34
560.219	6.33
560.562	6.43
560.904	6.46
561.246	6.35
561.589	6.56
561.931	6.46
562.273	6.36
562.615	6.37
562.957	6.24
563.299	6.4
563.641	6.43
563.983	6.43
564.325	6.71
564.667	6.5
565.008	6.42
565.35	6.38
565.692	6.49
566.033	6.37
566.375	6.46
566.716	6.29
567.058	6.4
567.399	6.43
567.741	6.58
568.082	6.52
568.423	6.39
568.764	6.43
569.105	6.43
569.447	6.32
569.788	6.55
570.129	6.47
570.47	6.63
570.811	6.48
571.151	6.46
571.492	6.58
571.833	6.49
572.174	6.59
572.514	6.46
572.855	6.64
573.195	6.54
573.536	6.65
573.876	6.49
574.217	6.49
574.557	6.57
574.898	6.45
575.238	6.71
575.578	6.62
575.918	6.62
576.258	6.77
576.598	6.49
576.938	6.56
577.278	6.74
577.618	6.7
577.958	6.64
578.298	6.66
578.638	6.71
578.977	6.65
579.317	6.72
579.657	6.66
579.996	6.69
580.336	6.66
580.675	6.64
581.014	6.78
581.354	6.66
581.693	6.9
582.032	6.85
582.372	6.59
582.711	6.82
583.05	7.02
583.389	6.75
583.728	6.99
584.067	6.81
584.406	7
584.745	6.83
585.083	6.94
585.422	7.06
585.761	6.96
586.1	6.94
586.438	6.82
586.777	6.93
587.115	6.87
587.454	6.67
587.792	6.97
588.13	6.86
588.469	6.82
588.807	7.09
589.145	7.02
589.483	6.95
589.821	6.7
590.159	7.07
590.497	7.03
590.835	7.08
591.173	6.94
591.511	6.96
591.849	7.09
592.187	6.77
592.524	7.06
592.862	7
593.2	7.4
593.537	6.97
593.875	7.03
594.212	7.37
594.55	7.17
594.887	7.09
595.224	7.15
595.561	6.98
595.899	7.04
596.236	7.05
596.573	7.08
596.91	6.95
597.247	7.1
597.584	7.38
597.921	7.12
598.258	6.98
598.594	7.1
598.931	6.96
599.268	7
599.604	7.18
599.941	6.91
600.277	7.09
600.614	7.31
600.95	7.18
601.287	6.94
601.623	7.04
601.959	7.36
602.296	7.2
602.632	7.02
602.968	7.29
603.304	7.28
603.64	6.96
603.976	7.37
604.312	6.88
604.648	7.09
604.984	7.25
605.319	7.19
605.655	7.26
605.991	7.09
606.326	7.2
606.662	7.03
606.998	7.31
607.333	7.34
607.668	6.97
608.004	7.23
608.339	7.51
608.674	7.45
609.01	7.37
609.345	7.44
609.68	7.35
610.015	7.41
610.35	7.4
610.685	7.14
611.02	7.42
611.355	7.58
611.689	7.42
612.024	7.53
612.359	7.49
612.694	7.43
613.028	7.39
613.363	7.3
613.697	7.53
614.032	7.4
614.366	7.43
614.7	7.66
615.035	7.49
615.369	7.62
615.703	7.83
616.037	7.52
616.371	7.34
616.705	7.7
617.039	7.59
617.373	7.43
617.707	7.73
618.041	7.16
618.375	7.12
618.709	7.97
619.042	7.59
619.376	7.55
619.71	7.51
620.043	7.91
620.377	7.86
620.71	7.74
621.043	7.8
621.377	7.88
621.71	7.63
622.043	7.74
622.376	7.68
622.709	8
623.043	7.71
623.376	7.62
623.709	7.97
624.041	7.34
624.374	7.7
624.707	7.78
625.04	7.35
625.373	7.78
625.705	7.88
626.038	8.09
626.37	7.57
626.703	7.55
627.035	7.77
627.368	7.8
627.7	7.98
628.032	7.73
628.365	7.81
628.697	8.03
629.029	7.78
629.361	7.89
629.693	7.97
630.025	7.93
630.357	7.83
630.689	7.75
631.021	8.07
631.353	8.05
631.684	7.85
632.016	7.83
632.348	8.02
632.679	8.09
633.011	8.05
633.342	8.11
633.674	7.63
634.005	7.76
634.336	8.22
634.668	7.99
634.999	8
635.33	7.88
635.661	7.89
635.992	8.33
636.323	8.01
636.654	8.24
636.985	8.01
637.316	8.23
637.647	8.28
637.977	7.88
638.308	8.29
638.639	8.14
638.969	7.76
639.3	7.89
639.63	7.82
639.961	7.88
640.291	7.95
640.622	7.95
640.952	8.61
641.282	7.89
641.612	8.05
641.943	7.97
642.273	7.76
642.603	8.79
642.933	8.12
643.263	8.32
643.592	8.4
643.922	8.71
644.252	8.41
644.582	8.55
644.911	8.28
645.241	8.23
645.571	8.16
645.9	8.47
646.23	8.39
646.559	7.95
646.888	8.38
647.218	8.45
647.547	8.29
647.876	8.35
648.205	8.34
648.534	8.15
648.863	7.83
649.192	8.66
649.521	8.37
649.85	8.28
650.179	8.41
650.508	8.2
650.837	8.71
651.165	8.74
651.494	8.63
651.822	8.83
652.151	8.45
652.479	8.43
652.808	8.79
653.136	7.96
653.465	8.47
653.793	8.41
654.121	8.36
654.449	8.23
654.777	7.95
655.105	8.32
655.433	9.1
655.761	8.54
656.089	8.82
656.417	8.56
656.745	8.77
657.073	8.7
657.4	8.36
657.728	8.1
658.056	8.62
658.383	8.34
658.711	8.97
659.038	9.05
659.365	9.11
659.693	8.47
660.02	8.43
660.347	8.86
660.674	8.17
661.001	8.49
661.329	8.73
661.656	8.34
661.982	8.39
662.309	8.59
662.636	8.48
662.963	8.76
663.29	9.23
663.616	8.72
663.943	8.4
664.27	8.36
664.596	8.35
664.923	9.48
665.249	8.5
665.576	8.76
665.902	8.05
666.228	8.68
666.554	8.74
666.881	8.13
667.207	8.95
667.533	8.93
667.859	8.94
668.185	9.16
668.511	9.47
668.837	8.76
669.162	8.54
669.488	7.99
669.814	8.92
670.139	8.53
670.465	9.31
670.791	8.41
671.116	8.7
671.442	8.68
671.767	8.78
672.092	8.95
672.418	8.98
672.743	8.81
673.068	8.68
673.393	9.14
673.718	8.82
674.043	9.12
674.368	8.57
674.693	9.14
675.018	9.18
675.343	9.52
675.667	8.83
675.992	8.98
676.317	8.13
676.641	9.32
676.966	8.93
677.29	8.56
677.615	8.64
677.939	9.32
678.264	8.75
678.588	9.58
678.912	8.85
679.236	8.94
679.56	8.49
679.885	9.57
680.209	9.53
680.532	9.99
680.856	8.88
681.18	9.83
681.504	9.03
681.828	8.98
682.152	9.03
682.475	9.25
682.799	9.49
683.122	9.27
683.446	8.64
683.769	9.26
684.093	9.52
684.416	8.68
684.739	8.86
685.062	9.2
685.386	9.12
685.709	9.09
686.032	9.48
686.355	9.48
686.678	9.99
687.001	9.58
687.324	9.31
687.646	10.15
687.969	9.53
688.292	9.27
688.614	9.74
688.937	10.4
689.26	9.76
689.582	9.67
689.904	9.79
690.227	9.27
690.549	9.63
690.871	10.14
691.194	9.18
691.516	9.43
691.838	10.11
692.16	9.35
692.482	9.18
692.804	9.55
