Data from 0007_forehead_Reflection__4__300.txt Node

Date: Thu Dec 15 19:01:43 CST 2022
User: ToomeyLab
Spectrometer: FLMS14357
Trigger mode: 0
Integration Time (sec): 1.000000E-2
Scans to average: 100
Electric dark correction enabled: true
Nonlinearity correction enabled: false
Boxcar width: 0
XAxis mode: Wavelengths
Number of Pixels in Spectrum: 2048
>>>>>Begin Spectral Data<<<<<
189.047	-88.58
189.435	-88.58
189.823	-88.58
190.211	4.26
190.599	44.48
190.987	134.1
191.375	17.42
191.763	134.99
192.151	68.75
192.538	742.88
192.926	158.22
193.314	61.25
193.702	132.49
194.089	41.2
194.477	719.66
194.864	159.17
195.252	-613.17
195.639	69.76
196.027	-127.79
196.414	15.05
196.801	-10.03
197.189	4.63
197.576	27.15
197.963	-48.28
198.351	39.26
198.738	6.52
199.125	-23.77
199.512	32.73
199.899	-98.42
200.286	1.1
200.673	57.46
201.06	31.51
201.447	57.57
201.833	3.9
202.22	-9.59
202.607	-21.5
202.994	38.09
203.38	54.86
203.767	37.83
204.154	25.99
204.54	25.65
204.927	22.39
205.313	24.04
205.699	5.32
206.086	21.88
206.472	29.07
206.858	24.04
207.245	-26.52
207.631	-2.71
208.017	65.81
208.403	-18.2
208.789	31
209.175	-35.45
209.561	-11.49
209.947	19
210.333	-22.99
210.719	10.33
211.105	40
211.491	1.27
211.876	22.12
212.262	16.28
212.648	22.83
213.034	-36.68
213.419	50.08
213.805	-38.15
214.19	12.49
214.576	-9.4
214.961	51.84
215.346	-12.37
215.732	8.93
216.117	30.49
216.502	-0.19
216.888	14.89
217.273	4.78
217.658	2.15
218.043	-18.71
218.428	14.84
218.813	10.53
219.198	-72.65
219.583	-51.25
219.968	14.25
220.353	-0.92
220.738	-3.62
221.122	0.73
221.507	-25.6
221.892	-17.86
222.276	-16.09
222.661	-14.44
223.046	-5.19
223.43	15.64
223.815	11.9
224.199	-3.48
224.583	2
224.968	-2.45
225.352	-2.05
225.736	6.5
226.121	-1.61
226.505	-1.25
226.889	9.85
227.273	1.14
227.657	5.57
228.041	6.55
228.425	2.01
228.809	3.42
229.193	4.84
229.577	2.34
229.961	4.52
230.344	4.13
230.728	4.51
231.112	4.51
231.495	3.87
231.879	4
232.263	3.97
232.646	4.12
233.03	6.11
233.413	3.87
233.797	1.87
234.18	5.37
234.563	3.76
234.946	4.22
235.33	3.64
235.713	4.94
236.096	4.61
236.479	5.95
236.862	3.4
237.245	2.86
237.628	4.3
238.011	5.81
238.394	3.75
238.777	6.03
239.16	5.18
239.543	4.85
239.925	3.15
240.308	2.95
240.691	3.36
241.073	3.46
241.456	3.78
241.838	3.7
242.221	3.77
242.603	4.36
242.986	4.23
243.368	4.39
243.75	4.11
244.133	4
244.515	4.01
244.897	3.67
245.279	4.3
245.661	4.63
246.043	4.19
246.425	4.21
246.807	3.6
247.189	3.3
247.571	4.33
247.953	3.88
248.335	3.86
248.717	4.1
249.098	3.87
249.48	3.87
249.862	3.91
250.243	4.26
250.625	4.18
251.006	4.66
251.388	4.48
251.769	4.16
252.151	4.2
252.532	3.81
252.913	4.29
253.295	4.56
253.676	3.54
254.057	3.89
254.438	3.76
254.819	3.58
255.2	4.34
255.581	5.51
255.962	4.65
256.343	4.25
256.724	4.72
257.105	3.87
257.486	4.3
257.867	3.53
258.247	4.17
258.628	4.18
259.009	4.3
259.389	3.34
259.77	4.18
260.15	4.83
260.531	4.24
260.911	3.67
261.292	3.74
261.672	3.82
262.052	3.65
262.432	3.62
262.813	3.55
263.193	4.69
263.573	4.38
263.953	3.42
264.333	3.94
264.713	4.19
265.093	4.08
265.473	3.86
265.853	3.83
266.233	4.18
266.612	4.24
266.992	4.07
267.372	4.07
267.752	4.4
268.131	3.54
268.511	3.7
268.89	4.2
269.27	3.37
269.649	3.75
270.029	3.88
270.408	3.43
270.787	3.9
271.167	3.99
271.546	4.6
271.925	4.06
272.304	3.62
272.683	3.67
273.062	4.05
273.441	3.76
273.82	3.91
274.199	3.56
274.578	4
274.957	3.75
275.336	3.88
275.715	4.32
276.093	3.51
276.472	3.66
276.851	3.85
277.229	3.35
277.608	3.68
277.986	3.63
278.365	4.31
278.743	3.96
279.122	3.51
279.5	3.09
279.878	3.1
280.257	4.04
280.635	3.76
281.013	3.25
281.391	3.47
281.769	4.32
282.147	3.85
282.525	3.72
282.903	3.21
283.281	4.28
283.659	4.15
284.037	3.9
284.415	3.58
284.792	3.69
285.17	3.37
285.548	4.08
285.925	3.69
286.303	4.06
286.68	3.71
287.058	4.13
287.435	3.7
287.813	3.94
288.19	3.46
288.567	3.79
288.945	3.69
289.322	4.05
289.699	3.77
290.076	3.83
290.453	3.87
290.83	4.01
291.207	3.73
291.584	4.19
291.961	3.94
292.338	3.77
292.715	3.77
293.092	4.29
293.469	3.98
293.845	4.44
294.222	4.22
294.599	4.13
294.975	3.39
295.352	4.08
295.728	4.08
296.105	4.32
296.481	4.16
296.858	4.23
297.234	3.93
297.61	4.31
297.986	4.58
298.363	4.2
298.739	4.2
299.115	4.37
299.491	4.17
299.867	4.2
300.243	4.16
300.619	3.91
300.995	4.61
301.371	5.01
301.746	4.61
302.122	3.77
302.498	4.26
302.874	4.63
303.249	4.41
303.625	4.29
304	4.49
304.376	4.7
304.751	4.67
305.127	4.55
305.502	4.67
305.878	4.69
306.253	4.45
306.628	4.56
307.003	4.41
307.378	4.47
307.754	4.85
308.129	4.83
308.504	5.24
308.879	5.07
309.254	5.27
309.629	5
310.003	4.45
310.378	5.45
310.753	5.32
311.128	5.04
311.502	4.89
311.877	5.06
312.252	5.22
312.626	5.38
313.001	5.39
313.375	5.32
313.75	5.34
314.124	5.53
314.498	5.32
314.873	5.2
315.247	5.46
315.621	5.43
315.995	5.43
316.369	5
316.743	5.62
317.117	5.63
317.491	5.54
317.865	5.16
318.239	6.1
318.613	5.51
318.987	5.39
319.361	5.84
319.734	5.9
320.108	5.86
320.482	6.32
320.855	5.75
321.229	5.9
321.602	6.41
321.976	5.42
322.349	6.59
322.723	5.91
323.096	5.96
323.469	5.97
323.843	5.91
324.216	6.44
324.589	6.13
324.962	5.84
325.335	6.3
325.708	6.27
326.081	6.31
326.454	6.6
326.827	6.5
327.2	6.31
327.573	6.96
327.945	5.81
328.318	6.35
328.691	6.73
329.063	6.06
329.436	6.28
329.809	7
330.181	7.22
330.553	6.83
330.926	7.27
331.298	6.89
331.671	7.03
332.043	6.81
332.415	7.2
332.787	7.42
333.159	6.74
333.532	6.74
333.904	7.17
334.276	6.95
334.648	7.14
335.02	7.17
335.391	6.99
335.763	7.25
336.135	7.81
336.507	7.22
336.879	7.55
337.25	7.44
337.622	7.57
337.993	7.56
338.365	7.19
338.736	7.78
339.108	7.53
339.479	7.05
339.851	7.88
340.222	7.61
340.593	8.03
340.964	7.42
341.336	7.68
341.707	7.91
342.078	7.4
342.449	7.58
342.82	7.82
343.191	8.07
343.562	8.04
343.933	7.87
344.303	8.03
344.674	8.07
345.045	7.95
345.416	8.45
345.786	8.18
346.157	8.26
346.527	8.23
346.898	8.04
347.268	8.16
347.639	8.21
348.009	8.22
348.38	8.43
348.75	8.28
349.12	8.35
349.49	8.47
349.861	8.56
350.231	8.58
350.601	8.73
350.971	8.1
351.341	8.69
351.711	8.55
352.081	8.36
352.45	8.4
352.82	8.35
353.19	8.58
353.56	8.47
353.929	8.94
354.299	8.97
354.669	9.18
355.038	9.39
355.408	8.8
355.777	9
356.147	8.75
356.516	8.77
356.885	9.12
357.254	9.11
357.624	9.23
357.993	8.91
358.362	9.4
358.731	9.37
359.1	9.36
359.469	9.55
359.838	9.69
360.207	9.28
360.576	9.68
360.945	9.7
361.314	9.37
361.682	9.28
362.051	9.61
362.42	9.76
362.788	9.73
363.157	9.5
363.525	9.72
363.894	9.42
364.262	9.79
364.631	10.01
364.999	9.81
365.367	9.76
365.735	9.86
366.104	9.86
366.472	10.09
366.84	10.27
367.208	10.02
367.576	10.24
367.944	10.35
368.312	10.18
368.68	10.65
369.048	10.37
369.416	10.2
369.783	10.22
370.151	10.71
370.519	10.69
370.886	10.54
371.254	10.73
371.621	11.2
371.989	10.74
372.356	10.51
372.724	10.58
373.091	10.79
373.458	10.6
373.826	10.83
374.193	11.08
374.56	10.92
374.927	10.67
375.294	11.27
375.661	11.41
376.028	11.17
376.395	11.01
376.762	11.21
377.129	10.65
377.496	11.16
377.863	11.49
378.229	11.71
378.596	11.84
378.963	11.29
379.329	11.6
379.696	11.37
380.062	11.72
380.429	11.32
380.795	11.84
381.161	11.77
381.528	11.55
381.894	11.75
382.26	11.6
382.626	11.64
382.993	12.05
383.359	12.1
383.725	11.8
384.091	12.1
384.457	12.03
384.823	12.31
385.188	12.21
385.554	12.37
385.92	12.16
386.286	12.19
386.651	12.33
387.017	12.53
387.383	12.36
387.748	12.53
388.114	12.53
388.479	12.29
388.845	12.47
389.21	12.91
389.575	13.09
389.94	12.9
390.306	12.77
390.671	13.01
391.036	12.77
391.401	13.04
391.766	13.05
392.131	13.15
392.496	13.09
392.861	13
393.226	12.86
393.591	13.15
393.956	13.3
394.32	13.31
394.685	13.33
395.05	13.22
395.414	13.53
395.779	13.7
396.143	13.33
396.508	13.46
396.872	13.57
397.236	14.09
397.601	13.79
397.965	13.56
398.329	13.87
398.694	13.74
399.058	13.89
399.422	13.73
399.786	13.78
400.15	14.16
400.514	14.04
400.878	13.92
401.242	14.06
401.605	14.13
401.969	14.1
402.333	14.07
402.697	14.31
403.06	14.35
403.424	14.49
403.787	14.46
404.151	14.51
404.514	14.62
404.878	14.3
405.241	14.77
405.604	14.58
405.968	14.41
406.331	14.61
406.694	14.61
407.057	14.86
407.42	14.64
407.783	14.81
408.146	14.94
408.509	14.88
408.872	14.86
409.235	15.22
409.598	15.08
409.961	15.07
410.323	15.13
410.686	15
411.049	15.26
411.411	15.33
411.774	15.14
412.136	15.07
412.499	15.27
412.861	15.13
413.223	15.41
413.586	15.49
413.948	15.55
414.31	15.57
414.672	15.7
415.035	15.86
415.397	15.78
415.759	15.63
416.121	15.83
416.483	15.9
416.845	15.87
417.206	15.69
417.568	15.79
417.93	15.78
418.292	15.6
418.653	15.63
419.015	15.73
419.377	15.69
419.738	15.98
420.1	15.97
420.461	15.87
420.822	15.96
421.184	15.96
421.545	15.92
421.906	15.94
422.267	15.9
422.629	15.86
422.99	15.92
423.351	15.92
423.712	16.22
424.073	16.08
424.434	16.38
424.795	16.13
425.155	16.12
425.516	16.14
425.877	16.21
426.238	16.28
426.598	16.42
426.959	16.57
427.32	16.46
427.68	16.63
428.041	16.86
428.401	16.84
428.761	16.96
429.122	17.05
429.482	17.02
429.842	17.21
430.202	17.4
430.563	17.32
430.923	17.41
431.283	17.53
431.643	17.51
432.003	17.44
432.363	17.58
432.722	17.52
433.082	17.27
433.442	17.64
433.802	17.63
434.161	17.42
434.521	17.47
434.881	17.54
435.24	17.75
435.6	17.62
435.959	17.73
436.319	17.78
436.678	18.03
437.037	17.84
437.396	17.88
437.756	17.94
438.115	17.94
438.474	17.98
438.833	17.95
439.192	18.2
439.551	18.15
439.91	18.15
440.269	18.14
440.628	18.21
440.987	17.96
441.345	18.21
441.704	18.21
442.063	18.16
442.421	18.19
442.78	18.22
443.138	18.26
443.497	18.42
443.855	18.52
444.214	18.57
444.572	18.75
444.93	18.64
445.288	18.75
445.647	18.65
446.005	18.76
446.363	18.88
446.721	18.67
447.079	18.6
447.437	18.73
447.795	18.59
448.153	18.52
448.51	18.64
448.868	18.66
449.226	18.82
449.584	18.92
449.941	19.11
450.299	19.01
450.656	19.17
451.014	19.46
451.371	19.58
451.729	19.52
452.086	19.6
452.443	19.65
452.801	19.67
453.158	19.84
453.515	19.67
453.872	19.69
454.229	19.46
454.586	19.62
454.943	19.94
455.3	19.81
455.657	19.83
456.014	19.86
456.371	19.97
456.727	20.09
457.084	20.24
457.441	20.16
457.797	20.14
458.154	20.35
458.51	20.32
458.867	20.23
459.223	20.2
459.58	20.4
459.936	20.29
460.292	20.33
460.648	20.17
461.005	20.08
461.361	20.09
461.717	19.98
462.073	20.22
462.429	20.26
462.785	20.6
463.141	20.59
463.496	20.53
463.852	20.86
464.208	20.83
464.564	20.9
464.919	21.17
465.275	21.15
465.631	21.29
465.986	21.17
466.342	21
466.697	21.22
467.052	21.46
467.408	21.54
467.763	21.38
468.118	21.24
468.473	21.49
468.829	21.37
469.184	21.44
469.539	21.45
469.894	21.78
470.249	21.77
470.603	21.83
470.958	21.82
471.313	21.73
471.668	21.87
472.023	21.81
472.377	21.78
472.732	22.09
473.086	21.87
473.441	22.08
473.795	22.29
474.15	22.18
474.504	22.16
474.859	21.93
475.213	22.33
475.567	22.24
475.921	22.25
476.275	22.36
476.63	22.44
476.984	22.5
477.338	22.53
477.692	22.39
478.045	22.62
478.399	22.62
478.753	22.47
479.107	22.38
479.461	22.64
479.814	22.75
480.168	22.58
480.521	22.76
480.875	22.85
481.228	22.91
481.582	22.79
481.935	22.92
482.289	22.75
482.642	22.89
482.995	22.77
483.348	22.81
483.701	22.86
484.055	22.59
484.408	22.45
484.761	22.07
485.114	21.91
485.466	21.86
485.819	21.96
486.172	22.06
486.525	22.23
486.878	22.35
487.23	22.48
487.583	22.75
487.936	22.7
488.288	22.67
488.641	22.56
488.993	22.43
489.345	22.52
489.698	22.63
490.05	22.59
490.402	22.79
490.754	22.87
491.107	23.13
491.459	23.29
491.811	23.55
492.163	23.36
492.515	23.33
492.866	23.06
493.218	22.95
493.57	23.09
493.922	23.2
494.274	23.54
494.625	23.72
494.977	23.97
495.328	24.08
495.68	24.3
496.031	24.62
496.383	24.58
496.734	24.61
497.086	24.69
497.437	24.56
497.788	24.7
498.139	24.55
498.49	24.41
498.842	24.55
499.193	24.43
499.544	24.66
499.894	24.6
500.245	24.78
500.596	24.76
500.947	24.87
501.298	24.77
501.648	25
501.999	25.14
502.35	25.23
502.7	25.43
503.051	25.45
503.401	25.37
503.752	25.18
504.102	25.54
504.452	25.39
504.803	25.35
505.153	25.53
505.503	25.56
505.853	25.7
506.203	25.73
506.553	25.66
506.903	25.65
507.253	25.68
507.603	25.93
507.953	25.93
508.303	25.9
508.652	25.85
509.002	25.93
509.352	25.86
509.701	25.81
510.051	25.91
510.4	25.81
510.75	25.81
511.099	25.81
511.449	25.89
511.798	26.1
512.147	26.11
512.496	26.14
512.846	26.16
513.195	26.25
513.544	26.46
513.893	26.3
514.242	26.25
514.591	26.3
514.939	26.43
515.288	26.61
515.637	26.54
515.986	26.68
516.334	26.85
516.683	26.7
517.032	26.87
517.38	27.06
517.729	26.93
518.077	26.83
518.426	27.05
518.774	26.86
519.122	26.92
519.47	26.63
519.819	26.62
520.167	26.49
520.515	26.57
520.863	26.62
521.211	26.78
521.559	26.83
521.907	27.19
522.255	27.14
522.602	27.35
522.95	27.42
523.298	27.6
523.645	27.48
523.993	27.76
524.341	27.81
524.688	27.77
525.036	27.65
525.383	27.79
525.73	27.64
526.078	27.76
526.425	27.63
526.772	27.47
527.119	27.31
527.466	27.43
527.814	27.4
528.161	27.41
528.508	27.62
528.854	27.47
529.201	27.46
529.548	27.22
529.895	26.9
530.242	27.02
530.588	27.07
530.935	27.06
531.282	27.05
531.628	27.24
531.975	27.44
532.321	27.71
532.667	27.98
533.014	28.19
533.36	28.15
533.706	28.09
534.052	28.12
534.399	27.88
534.745	27.8
535.091	27.78
535.437	27.79
535.783	27.85
536.129	28.05
536.474	28.49
536.82	28.53
537.166	28.59
537.512	28.66
537.857	28.68
538.203	28.48
538.549	28.55
538.894	28.72
539.239	28.76
539.585	29.01
539.93	29.22
540.276	29.06
540.621	29.42
540.966	29.48
541.311	29.36
541.656	29.28
542.001	29.19
542.346	28.9
542.691	28.53
543.036	28.58
543.381	28.59
543.726	28.77
544.071	28.74
544.415	28.93
544.76	29.07
545.105	29.28
545.449	29.3
545.794	29.48
546.138	29.61
546.483	29.93
546.827	29.78
547.171	30.05
547.516	29.83
547.86	29.89
548.204	29.97
548.548	29.88
548.892	30.01
549.236	30.15
549.58	30.29
549.924	30.44
550.268	30.77
550.612	30.56
550.956	30.83
551.3	30.87
551.643	30.9
551.987	31.05
552.33	31.08
552.674	31.13
553.017	31.06
553.361	31.19
553.704	31.22
554.048	31.04
554.391	30.94
554.734	30.91
555.077	31.22
555.42	31.18
555.764	31.2
556.107	31.42
556.45	31.44
556.793	31.59
557.135	31.54
557.478	31.74
557.821	31.76
558.164	31.92
558.507	31.9
558.849	31.87
559.192	31.88
559.534	31.91
559.877	31.72
560.219	31.77
560.562	32.15
560.904	32.22
561.246	32.12
561.589	32.23
561.931	32.31
562.273	32.19
562.615	32.33
562.957	32.18
563.299	32.31
563.641	32.32
563.983	32
564.325	32.32
564.667	32.45
565.008	32.62
565.35	32.51
565.692	32.72
566.033	32.66
566.375	32.73
566.716	32.49
567.058	32.49
567.399	32.52
567.741	32.54
568.082	32.52
568.423	32.57
568.764	32.34
569.105	32.65
569.447	32.51
569.788	32.68
570.129	32.93
570.47	33.07
570.811	33.27
571.151	32.98
571.492	33.17
571.833	33.21
572.174	33.41
572.514	33.25
572.855	33.29
573.195	33.22
573.536	33.06
573.876	33.14
574.217	33.07
574.557	33.18
574.898	33.44
575.238	33.34
575.578	33.48
575.918	33.51
576.258	33.67
576.598	33.59
576.938	33.74
577.278	33.42
577.618	33.73
577.958	33.66
578.298	33.87
578.638	33.68
578.977	33.92
579.317	33.82
579.657	33.91
579.996	34.1
580.336	34.06
580.675	34.22
581.014	34.49
581.354	34.26
581.693	34.78
582.032	34.39
582.372	34.51
582.711	34.55
583.05	34.7
583.389	34.49
583.728	34.51
584.067	34.73
584.406	34.69
584.745	34.87
585.083	35.1
585.422	35.26
585.761	35
586.1	35.34
586.438	35.14
586.777	35.12
587.115	35.05
587.454	34.8
587.792	35.27
588.13	35.15
588.469	35.22
588.807	35.44
589.145	35.09
589.483	35.12
589.821	35.47
590.159	35.58
590.497	35.38
590.835	35.43
591.173	35.72
591.511	35.51
591.849	35.6
592.187	35.22
592.524	35.7
592.862	35.61
593.2	35.76
593.537	35.49
593.875	35.63
594.212	35.64
594.55	35.81
594.887	36.27
595.224	36.03
595.561	35.9
595.899	35.98
596.236	36.12
596.573	35.73
596.91	36.22
597.247	35.97
597.584	36.03
597.921	35.99
598.258	36.02
598.594	35.92
598.931	35.76
599.268	35.79
599.604	35.93
599.941	36.06
600.277	36.05
600.614	36.12
600.95	36.22
601.287	36.27
601.623	36.56
601.959	36.77
602.296	37.26
602.632	36.47
602.968	36.67
603.304	36.78
603.64	37.07
603.976	36.94
604.312	36.48
604.648	36.85
604.984	37.05
605.319	36.58
605.655	36.88
605.991	36.79
606.326	36.79
606.662	36.41
606.998	36.76
607.333	36.91
607.668	37.07
608.004	37.11
608.339	36.94
608.674	36.93
609.01	37.53
609.345	37.43
609.68	37.49
610.015	37.82
610.35	37.49
610.685	37.28
611.02	37.08
611.355	37.47
611.689	37.3
612.024	37.5
612.359	37.55
612.694	37.71
613.028	37.34
613.363	37.81
613.697	37.68
614.032	37.87
614.366	38.23
614.7	38.22
615.035	38.51
615.369	38.04
615.703	38.29
616.037	38.36
616.371	38.54
616.705	38.14
617.039	38.61
617.373	38.3
617.707	38.22
618.041	38.43
618.375	38.36
618.709	38.69
619.042	38.76
619.376	38.6
619.71	38.16
620.043	38.47
620.377	39
620.71	38.34
621.043	39.15
621.377	38.21
621.71	39.29
622.043	38.84
622.376	38.98
622.709	39.08
623.043	38.76
623.376	39.08
623.709	39.41
624.041	38.82
624.374	38.95
624.707	39.19
625.04	39.1
625.373	39.39
625.705	39.57
626.038	39.28
626.37	39.39
626.703	39.43
627.035	39.41
627.368	39.52
627.7	39.36
628.032	39.22
628.365	39.7
628.697	39.5
629.029	39.25
629.361	39.54
629.693	39.61
630.025	39.6
630.357	39.88
630.689	39.77
631.021	39.55
631.353	40.1
631.684	40.05
632.016	39.73
632.348	39.79
632.679	40.14
633.011	40
633.342	39.81
633.674	39.78
634.005	40.26
634.336	40.29
634.668	40.04
634.999	40.33
635.33	40.26
635.661	40.3
635.992	40.01
636.323	40.22
636.654	39.78
636.985	40.02
637.316	40.38
637.647	40.79
637.977	40.37
638.308	41.01
638.639	40.95
638.969	40.71
639.3	40.7
639.63	41.08
639.961	40.73
640.291	40.59
640.622	41.38
640.952	40.99
641.282	41.05
641.612	41.31
641.943	40.71
642.273	40.92
642.603	41.02
642.933	41.11
643.263	41.64
643.592	41.29
643.922	41.25
644.252	41.11
644.582	41.24
644.911	41.19
645.241	41.09
645.571	41.05
645.9	41.44
646.23	41.73
646.559	41.64
646.888	41.26
647.218	41.55
647.547	41.91
647.876	41.89
648.205	41.65
648.534	42.09
648.863	41.43
649.192	41.43
649.521	42.04
649.85	42.54
650.179	42.06
650.508	41.83
650.837	42.07
651.165	42.13
651.494	42.27
651.822	42.17
652.151	41.74
652.479	41.76
652.808	42.19
653.136	42.02
653.465	41.74
653.793	42.23
654.121	41.63
654.449	41.85
654.777	41.86
655.105	41.88
655.433	42.4
655.761	42.48
656.089	42.54
656.417	42.7
656.745	42.45
657.073	42.74
657.4	42.36
657.728	42.82
658.056	42.25
658.383	42.69
658.711	42.28
659.038	42.54
659.365	42.74
659.693	42.83
660.02	42.49
660.347	42.45
660.674	42.67
661.001	42.38
661.329	42.98
661.656	42.32
661.982	42.51
662.309	42.71
662.636	43.65
662.963	42.74
663.29	43.57
663.616	42.76
663.943	42.91
664.27	43.29
664.596	42.38
664.923	42.58
665.249	42.72
665.576	42.77
665.902	43.4
666.228	43.97
666.554	43.72
666.881	43.04
667.207	43.49
667.533	43.11
667.859	43.41
668.185	43.54
668.511	44.2
668.837	43.91
669.162	43.65
669.488	42.64
669.814	43.33
670.139	43.2
670.465	43.31
670.791	43.37
671.116	42.86
671.442	43.15
671.767	43.76
672.092	43.57
672.418	43.94
