Data from 0007_chest_Reflection__3__289.txt Node

Date: Thu Dec 15 18:58:46 CST 2022
User: ToomeyLab
Spectrometer: FLMS14357
Trigger mode: 0
Integration Time (sec): 1.000000E-2
Scans to average: 100
Electric dark correction enabled: true
Nonlinearity correction enabled: false
Boxcar width: 0
XAxis mode: Wavelengths
Number of Pixels in Spectrum: 2048
>>>>>Begin Spectral Data<<<<<
189.047	-122.76
189.435	-122.76
189.823	-122.76
190.211	28.21
190.599	70.01
190.987	72.65
191.375	6.97
191.763	36.15
192.151	117.89
192.538	292.71
192.926	59.43
193.314	37.23
193.702	86.74
194.089	66.15
194.477	61.2
194.864	455.36
195.252	-385.58
195.639	50.79
196.027	629.24
196.414	57.72
196.801	-184.98
197.189	49.68
197.576	-44.03
197.963	39.04
198.351	-7.37
198.738	-51.86
199.125	-142.01
199.512	29.36
199.899	-72.45
200.286	13.17
200.673	39.51
201.06	-11.93
201.447	21.92
201.833	0.92
202.22	-6.34
202.607	11.31
202.994	38.69
203.38	-17.55
203.767	64.59
204.154	22.76
204.54	23.51
204.927	21.95
205.313	19.08
205.699	15.27
206.086	28.93
206.472	28.35
206.858	5.39
207.245	32.4
207.631	14.67
208.017	62.52
208.403	-26.01
208.789	23.13
209.175	-23.67
209.561	-91.48
209.947	31.91
210.333	-19.25
210.719	24.95
211.105	16.72
211.491	-21.49
211.876	-2.87
212.262	1.63
212.648	44.68
213.034	-14.98
213.419	-9.71
213.805	-28.83
214.19	-38.11
214.576	17.49
214.961	-8.37
215.346	-3.93
215.732	5.13
216.117	12.89
216.502	-5.13
216.888	20.56
217.273	23.33
217.658	22.09
218.043	-16.85
218.428	-5.37
218.813	-3.11
219.198	-40.96
219.583	-29.3
219.968	-2.77
220.353	-23.33
220.738	3.07
221.122	-7.8
221.507	-2.07
221.892	-32.57
222.276	-4.58
222.661	-12.81
223.046	-0.41
223.43	15.22
223.815	2.1
224.199	6.6
224.583	-5.93
224.968	0.06
225.352	-5.49
225.736	7.64
226.121	1.02
226.505	1.45
226.889	5.56
227.273	0.05
227.657	3.56
228.041	3.06
228.425	4.53
228.809	4.05
229.193	2.99
229.577	4.85
229.961	4.21
230.344	4.84
230.728	5.21
231.112	5.04
231.495	4.69
231.879	3.86
232.263	5.87
232.646	5.05
233.03	5.78
233.413	5.19
233.797	1.26
234.18	5.58
234.563	5.75
234.946	5.46
235.33	4.43
235.713	4.05
236.096	4.99
236.479	5.34
236.862	2.81
237.245	3
237.628	4.3
238.011	4.33
238.394	4.45
238.777	4.93
239.16	4.98
239.543	4.07
239.925	4.34
240.308	2.93
240.691	4.03
241.073	4.27
241.456	4.05
241.838	4.34
242.221	4.22
242.603	4.8
242.986	4.76
243.368	4.46
243.75	5.12
244.133	4.87
244.515	4.47
244.897	4.35
245.279	4.73
245.661	5.42
246.043	3.87
246.425	4.5
246.807	3.93
247.189	4.26
247.571	4.42
247.953	4.25
248.335	4.57
248.717	4.56
249.098	4.72
249.48	4.5
249.862	4.4
250.243	4.71
250.625	5.1
251.006	5.06
251.388	4.43
251.769	4
252.151	4.46
252.532	4.74
252.913	4.3
253.295	4.07
253.676	4.42
254.057	4.25
254.438	4.94
254.819	4.87
255.2	5.51
255.581	5.32
255.962	4.68
256.343	4.06
256.724	4.67
257.105	3.8
257.486	3.98
257.867	4.41
258.247	4.07
258.628	4.5
259.009	4.12
259.389	3.41
259.77	4.03
260.15	4.78
260.531	4.63
260.911	4.33
261.292	4.35
261.672	4.33
262.052	4.45
262.432	4.31
262.813	4.6
263.193	4.57
263.573	4.35
263.953	3.78
264.333	4.39
264.713	4.74
265.093	3.76
265.473	4.07
265.853	4.2
266.233	3.97
266.612	3.67
266.992	3.99
267.372	4.13
267.752	4.5
268.131	3.9
268.511	4.28
268.89	4.5
269.27	3.39
269.649	3.93
270.029	4.34
270.408	4.04
270.787	4.68
271.167	4.63
271.546	5.05
271.925	4.37
272.304	4.38
272.683	4.42
273.062	4.28
273.441	4.04
273.82	4.44
274.199	4.17
274.578	4.33
274.957	4.24
275.336	4.53
275.715	4.74
276.093	4.09
276.472	3.88
276.851	4.41
277.229	4.53
277.608	3.39
277.986	4.19
278.365	4.73
278.743	4.29
279.122	4.07
279.5	4.07
279.878	4.16
280.257	4.15
280.635	4.6
281.013	3.96
281.391	4
281.769	3.94
282.147	4.34
282.525	3.73
282.903	4.07
283.281	4.46
283.659	4.28
284.037	4.09
284.415	4.07
284.792	4.15
285.17	4.5
285.548	4.01
285.925	4.36
286.303	4.4
286.68	4.45
287.058	4.42
287.435	4.25
287.813	4.17
288.19	4.01
288.567	4.27
288.945	3.92
289.322	4.4
289.699	4.21
290.076	4.31
290.453	3.82
290.83	4.63
291.207	4.57
291.584	4.46
291.961	4.3
292.338	4.15
292.715	3.63
293.092	4.52
293.469	4.12
293.845	4.08
294.222	4.56
294.599	3.84
294.975	3.84
295.352	4.16
295.728	4.16
296.105	3.73
296.481	4.24
296.858	4.09
297.234	4.16
297.61	4.66
297.986	4.37
298.363	4.34
298.739	4.55
299.115	4.37
299.491	4.32
299.867	3.94
300.243	4.1
300.619	3.95
300.995	4.3
301.371	4.28
301.746	4.52
302.122	3.97
302.498	4.18
302.874	4.22
303.249	4.27
303.625	3.81
304	4.28
304.376	4.53
304.751	4.29
305.127	3.98
305.502	4.49
305.878	4.61
306.253	4.26
306.628	4.32
307.003	4.27
307.378	4.16
307.754	4.15
308.129	3.88
308.504	4.18
308.879	4.46
309.254	4.48
309.629	4.14
310.003	4.49
310.378	4.75
310.753	4.06
311.128	3.95
311.502	4.36
311.877	4.35
312.252	4.44
312.626	4.66
313.001	4.17
313.375	4.38
313.75	4.22
314.124	4.63
314.498	4.69
314.873	3.97
315.247	4.02
315.621	4.15
315.995	4.2
316.369	3.8
316.743	4.12
317.117	4.22
317.491	4.7
317.865	3.69
318.239	4.9
318.613	4.33
318.987	3.72
319.361	4.28
319.734	4.33
320.108	4.22
320.482	4.34
320.855	4.33
321.229	4.31
321.602	4.32
321.976	3.62
322.349	4.77
322.723	4.44
323.096	4.51
323.469	4.25
323.843	3.5
324.216	4.05
324.589	4.34
324.962	4.15
325.335	3.98
325.708	4.35
326.081	4.6
326.454	4.43
326.827	4.26
327.2	4.08
327.573	4.33
327.945	4.04
328.318	3.79
328.691	4.27
329.063	4.03
329.436	4.1
329.809	4.55
330.181	5.23
330.553	4.43
330.926	5.02
331.298	4.26
331.671	4.53
332.043	4.24
332.415	4.65
332.787	4.95
333.159	4.1
333.532	5
333.904	4.43
334.276	4.25
334.648	4.87
335.02	4.42
335.391	4.47
335.763	4.81
336.135	4.35
336.507	3.84
336.879	4.21
337.25	4.44
337.622	4.51
337.993	4.45
338.365	4.39
338.736	4.65
339.108	4.58
339.479	4.7
339.851	4.82
340.222	4.53
340.593	4.63
340.964	4.64
341.336	4.43
341.707	4.38
342.078	4.51
342.449	4.24
342.82	4.47
343.191	4.6
343.562	4.75
343.933	4.42
344.303	4.65
344.674	4.32
345.045	4.41
345.416	4.57
345.786	4.35
346.157	4.36
346.527	4.51
346.898	4.12
347.268	4.71
347.639	4.64
348.009	4.53
348.38	4.36
348.75	4.65
349.12	4.6
349.49	4.36
349.861	4.89
350.231	4.77
350.601	4.66
350.971	4.74
351.341	4.36
351.711	4.68
352.081	3.74
352.45	4.16
352.82	3.99
353.19	4.68
353.56	4.58
353.929	4.79
354.299	4.47
354.669	4.52
355.038	4.88
355.408	4.17
355.777	4.67
356.147	4.48
356.516	4.59
356.885	4.47
357.254	4.23
357.624	4.03
357.993	4.91
358.362	5.04
358.731	5.08
359.1	4.57
359.469	4.68
359.838	4.64
360.207	4.38
360.576	4.94
360.945	4.9
361.314	4.51
361.682	4.46
362.051	4.57
362.42	4.75
362.788	4.56
363.157	4.62
363.525	4.56
363.894	4.6
364.262	4.43
364.631	4.84
364.999	4.67
365.367	4.48
365.735	4.37
366.104	4.62
366.472	4.49
366.84	4.5
367.208	4.6
367.576	4.83
367.944	4.73
368.312	4.43
368.68	4.88
369.048	4.55
369.416	4.56
369.783	4.58
370.151	5.11
370.519	5.03
370.886	4.86
371.254	4.88
371.621	4.87
371.989	4.96
372.356	4.54
372.724	4.49
373.091	4.62
373.458	4.72
373.826	4.92
374.193	4.85
374.56	4.96
374.927	4.44
375.294	4.82
375.661	5.12
376.028	4.68
376.395	4.89
376.762	4.64
377.129	4.6
377.496	5.03
377.863	5.11
378.229	5.13
378.596	4.93
378.963	4.84
379.329	4.91
379.696	4.63
380.062	4.91
380.429	4.39
380.795	5.29
381.161	4.8
381.528	4.55
381.894	4.54
382.26	4.87
382.626	5.02
382.993	5.23
383.359	4.69
383.725	4.52
384.091	4.81
384.457	4.76
384.823	4.76
385.188	5.22
385.554	4.99
385.92	4.76
386.286	4.83
386.651	4.71
387.017	5.18
387.383	4.81
387.748	4.82
388.114	4.85
388.479	5.05
388.845	4.81
389.21	5.36
389.575	5.24
389.94	5.28
390.306	5.13
390.671	4.92
391.036	4.94
391.401	4.94
391.766	4.8
392.131	5.01
392.496	4.87
392.861	4.83
393.226	4.71
393.591	4.91
393.956	5.08
394.32	5.17
394.685	5.03
395.05	4.99
395.414	4.86
395.779	5.18
396.143	4.76
396.508	4.89
396.872	5.07
397.236	5.37
397.601	5.06
397.965	5.04
398.329	5.1
398.694	4.95
399.058	5.05
399.422	4.95
399.786	4.85
400.15	5.03
400.514	5.18
400.878	4.89
401.242	5.17
401.605	4.94
401.969	4.96
402.333	4.91
402.697	5.36
403.06	4.98
403.424	5.12
403.787	5.3
404.151	5.08
404.514	5.28
404.878	5.07
405.241	5.35
405.604	5.1
405.968	5.14
406.331	5.2
406.694	5.26
407.057	5.16
407.42	5.09
407.783	5.26
408.146	5.04
408.509	5.29
408.872	5.15
409.235	5.03
409.598	5.05
409.961	5.36
410.323	5.11
410.686	4.93
411.049	5
411.411	5.02
411.774	5.07
412.136	5.22
412.499	5.29
412.861	4.94
413.223	5.16
413.586	5.18
413.948	5.3
414.31	5.17
414.672	5.12
415.035	5.13
415.397	5.16
415.759	5.05
416.121	5.27
416.483	5.04
416.845	5.29
417.206	5.09
417.568	5.03
417.93	5.23
418.292	5.05
418.653	4.97
419.015	5.12
419.377	4.92
419.738	5.34
420.1	5.11
420.461	4.97
420.822	5.15
421.184	5.13
421.545	5.04
421.906	5.16
422.267	5.04
422.629	5.05
422.99	5.05
423.351	5.03
423.712	5.09
424.073	5.17
424.434	5.2
424.795	5.04
425.155	4.96
425.516	5.02
425.877	5.05
426.238	5.03
426.598	5.2
426.959	5.16
427.32	5.06
427.68	5.13
428.041	5.14
428.401	5.2
428.761	5.24
429.122	5.21
429.482	5.21
429.842	5.29
430.202	5.22
430.563	5.28
430.923	5.31
431.283	5.34
431.643	5.47
432.003	5.24
432.363	5.41
432.722	5.41
433.082	5.23
433.442	5.4
433.802	5.3
434.161	5.2
434.521	5.28
434.881	5.37
435.24	5.23
435.6	5.35
435.959	5.31
436.319	5.25
436.678	5.37
437.037	5.28
437.396	5.26
437.756	5.36
438.115	5.4
438.474	5.33
438.833	5.31
439.192	5.26
439.551	5.23
439.91	5.3
440.269	5.22
440.628	5.21
440.987	5.39
441.345	5.25
441.704	5.3
442.063	5.19
442.421	5.23
442.78	5.2
443.138	5.31
443.497	5.24
443.855	5.44
444.214	5.28
444.572	5.49
444.93	5.33
445.288	5.42
445.647	5.17
446.005	5.3
446.363	5.27
446.721	5.29
447.079	5.23
447.437	5.35
447.795	5.26
448.153	5.19
448.51	5.29
448.868	5.26
449.226	5.3
449.584	5.25
449.941	5.33
450.299	5.27
450.656	5.29
451.014	5.41
451.371	5.41
451.729	5.41
452.086	5.41
452.443	5.39
452.801	5.41
453.158	5.62
453.515	5.38
453.872	5.42
454.229	5.21
454.586	5.27
454.943	5.4
455.3	5.45
455.657	5.33
456.014	5.5
456.371	5.48
456.727	5.4
457.084	5.57
457.441	5.34
457.797	5.43
458.154	5.51
458.51	5.49
458.867	5.3
459.223	5.41
459.58	5.44
459.936	5.33
460.292	5.28
460.648	5.3
461.005	5.32
461.361	5.3
461.717	5.23
462.073	5.36
462.429	5.4
462.785	5.51
463.141	5.53
463.496	5.5
463.852	5.56
464.208	5.65
464.564	5.5
464.919	5.46
465.275	5.52
465.631	5.7
465.986	5.65
466.342	5.3
466.697	5.47
467.052	5.61
467.408	5.65
467.763	5.46
468.118	5.37
468.473	5.51
468.829	5.36
469.184	5.57
469.539	5.55
469.894	5.53
470.249	5.59
470.603	5.62
470.958	5.64
471.313	5.72
471.668	5.57
472.023	5.57
472.377	5.64
472.732	5.73
473.086	5.63
473.441	5.71
473.795	5.7
474.15	5.67
474.504	5.59
474.859	5.28
475.213	5.76
475.567	5.43
475.921	5.69
476.275	5.77
476.63	5.73
476.984	5.48
477.338	5.73
477.692	5.62
478.045	5.63
478.399	5.59
478.753	5.63
479.107	5.63
479.461	5.56
479.814	5.44
480.168	5.53
480.521	5.64
480.875	5.67
481.228	5.6
481.582	5.62
481.935	5.78
482.289	5.72
482.642	5.68
482.995	5.64
483.348	5.52
483.701	5.55
484.055	5.46
484.408	5.45
484.761	5.39
485.114	5.26
485.466	5.2
485.819	5.24
486.172	5.27
486.525	5.36
486.878	5.5
487.23	5.45
487.583	5.57
487.936	5.5
488.288	5.42
488.641	5.39
488.993	5.29
489.345	5.37
489.698	5.38
490.05	5.37
490.402	5.41
490.754	5.5
491.107	5.48
491.459	5.62
491.811	5.61
492.163	5.62
492.515	5.46
492.866	5.45
493.218	5.33
493.57	5.47
493.922	5.44
494.274	5.62
494.625	5.71
494.977	5.65
495.328	5.78
495.68	5.69
496.031	5.83
496.383	5.59
496.734	5.65
497.086	5.84
497.437	5.84
497.788	5.78
498.139	5.76
498.49	5.73
498.842	5.74
499.193	5.66
499.544	5.8
499.894	5.71
500.245	5.74
500.596	5.79
500.947	5.81
501.298	5.83
501.648	5.88
501.999	5.98
502.35	5.69
502.7	6.08
503.051	5.89
503.401	5.85
503.752	5.77
504.102	5.84
504.452	5.72
504.803	5.86
505.153	5.95
505.503	5.89
505.853	5.85
506.203	5.93
506.553	5.9
506.903	5.91
507.253	5.85
507.603	5.95
507.953	5.89
508.303	6.03
508.652	5.83
509.002	5.91
509.352	5.84
509.701	5.87
510.051	6.01
510.4	5.91
510.75	5.75
511.099	5.88
511.449	5.97
511.798	5.91
512.147	5.84
512.496	5.99
512.846	5.91
513.195	5.93
513.544	6.08
513.893	5.91
514.242	5.91
514.591	5.93
514.939	6.04
515.288	6.02
515.637	5.93
515.986	5.96
516.334	6.1
516.683	6.12
517.032	6.03
517.38	5.96
517.729	6
518.077	5.94
518.426	6
518.774	6
519.122	5.96
519.47	5.93
519.819	5.95
520.167	5.8
520.515	5.88
520.863	5.92
521.211	6.01
521.559	5.93
521.907	6.13
522.255	6.14
522.602	6.09
522.95	6.11
523.298	6.1
523.645	6.09
523.993	6.16
524.341	6.11
524.688	6.15
525.036	6.2
525.383	6.13
525.73	6.02
526.078	6.16
526.425	6.17
526.772	6.05
527.119	5.97
527.466	6.07
527.814	6.06
528.161	6.08
528.508	6.24
528.854	6.04
529.201	5.97
529.548	5.88
529.895	5.79
530.242	5.77
530.588	5.86
530.935	5.87
531.282	5.95
531.628	5.96
531.975	5.97
532.321	6.07
532.667	6.15
533.014	6.16
533.36	6.22
533.706	6.22
534.052	6.22
534.399	6.13
534.745	6.01
535.091	5.99
535.437	6.05
535.783	6.04
536.129	6.1
536.474	6.25
536.82	6.29
537.166	6.26
537.512	6.22
537.857	6.24
538.203	6.31
538.549	6.22
538.894	6.27
539.239	6.33
539.585	6.44
539.93	6.4
540.276	6.33
540.621	6.53
540.966	6.44
541.311	6.43
541.656	6.34
542.001	6.36
542.346	6.22
542.691	6.15
543.036	6.17
543.381	6.24
543.726	6.34
544.071	6.34
544.415	6.38
544.76	6.35
545.105	6.37
545.449	6.38
545.794	6.48
546.138	6.52
546.483	6.61
546.827	6.51
547.171	6.62
547.516	6.59
547.86	6.48
548.204	6.5
548.548	6.6
548.892	6.66
549.236	6.57
549.58	6.67
549.924	6.77
550.268	6.95
550.612	6.79
550.956	6.78
551.3	6.96
551.643	6.84
551.987	6.83
552.33	7.12
552.674	6.98
553.017	6.88
553.361	7
553.704	7.15
554.048	6.73
554.391	6.98
554.734	6.86
555.077	6.86
555.42	6.9
555.764	6.98
556.107	7.19
556.45	6.89
556.793	7.22
557.135	6.94
557.478	7.03
557.821	7.08
558.164	6.95
558.507	7.03
558.849	7
559.192	7.17
559.534	6.91
559.877	7.09
560.219	7.16
560.562	7.09
560.904	7.39
561.246	7.08
561.589	7.25
561.931	7.2
562.273	7.05
562.615	7.13
562.957	7.08
563.299	7.24
563.641	7.22
563.983	7.15
564.325	7.29
564.667	7.35
565.008	7.19
565.35	7.17
565.692	7.37
566.033	7.24
566.375	7.36
566.716	7.25
567.058	7.37
567.399	7.48
567.741	7.36
568.082	7.3
568.423	7.42
568.764	7.35
569.105	7.46
569.447	7.27
569.788	7.38
570.129	7.39
570.47	7.53
570.811	7.45
571.151	7.59
571.492	7.52
571.833	7.53
572.174	7.57
572.514	7.63
572.855	7.76
573.195	7.44
573.536	7.7
573.876	7.64
574.217	7.6
574.557	7.62
574.898	7.61
575.238	7.86
575.578	7.83
575.918	7.79
576.258	7.95
576.598	7.63
576.938	7.78
577.278	7.83
577.618	7.78
577.958	7.98
578.298	7.96
578.638	7.86
578.977	7.95
579.317	8.04
579.657	8.03
579.996	8.17
580.336	7.96
580.675	7.97
581.014	8.1
581.354	7.82
581.693	8.36
582.032	8.19
582.372	8.08
582.711	8.25
583.05	8.25
583.389	8.32
583.728	8.33
584.067	8.15
584.406	8.4
584.745	8.4
585.083	8.3
585.422	8.68
585.761	8.47
586.1	8.7
586.438	8.35
586.777	8.42
587.115	8.46
587.454	8.26
587.792	8.58
588.13	8.63
588.469	8.46
588.807	8.66
589.145	8.58
589.483	8.36
589.821	8.67
590.159	8.79
590.497	8.64
590.835	8.72
591.173	8.74
591.511	8.8
591.849	8.8
592.187	8.71
592.524	8.73
592.862	8.53
593.2	8.88
593.537	8.85
593.875	8.89
594.212	8.87
594.55	8.65
594.887	8.93
595.224	8.93
595.561	8.86
595.899	8.86
596.236	8.89
596.573	8.76
596.91	8.81
597.247	8.96
597.584	9.01
597.921	9.13
598.258	9.05
598.594	8.91
598.931	8.84
599.268	8.77
599.604	9.06
599.941	9.08
600.277	9.31
600.614	9.49
600.95	9.18
601.287	9.01
601.623	9.17
601.959	9.44
602.296	9.89
602.632	9.27
602.968	9.34
603.304	9.42
603.64	9.21
603.976	9.36
604.312	9.45
604.648	9.62
604.984	9.53
605.319	9.74
605.655	9.54
605.991	9.4
606.326	9.42
606.662	9.28
606.998	9.58
607.333	9.59
607.668	9.34
608.004	9.69
608.339	9.56
608.674	9.79
609.01	10.01
609.345	9.72
609.68	9.81
610.015	9.9
610.35	9.98
610.685	9.61
611.02	9.68
611.355	9.82
611.689	9.99
612.024	9.97
612.359	10.15
612.694	10.22
613.028	9.95
613.363	9.95
613.697	10.02
614.032	10.16
614.366	10.3
614.7	10.53
615.035	10.19
615.369	10.42
615.703	10.25
616.037	10.53
616.371	10.19
616.705	10.37
617.039	10.26
617.373	10.66
617.707	10.66
618.041	10.49
618.375	9.92
618.709	10.43
619.042	10.58
619.376	10.82
619.71	10.54
620.043	10.85
620.377	10.75
620.71	10.68
621.043	10.78
621.377	11.18
621.71	11.17
622.043	10.73
622.376	10.68
622.709	11.31
623.043	10.53
623.376	10.79
623.709	11.09
624.041	10.74
624.374	11.02
624.707	11.25
625.04	11.22
625.373	11.27
625.705	11.38
626.038	11.51
626.37	11.03
626.703	11.18
627.035	11.31
627.368	11.45
627.7	11.33
628.032	11.05
628.365	11.5
628.697	11.33
629.029	11.52
629.361	11.64
629.693	11.28
630.025	11.56
630.357	11.76
630.689	11.31
631.021	11.45
631.353	11.57
631.684	11.5
632.016	11.48
632.348	11.48
632.679	11.77
633.011	11.49
633.342	11.57
633.674	11.51
634.005	11.72
634.336	11.85
634.668	11.8
634.999	11.86
635.33	11.99
635.661	11.8
635.992	11.95
636.323	11.94
636.654	12.24
636.985	11.94
637.316	12.09
637.647	12.11
637.977	12.09
638.308	12.51
638.639	12.07
638.969	12.34
639.3	12.17
639.63	12.04
639.961	12.33
640.291	12.19
640.622	12.51
640.952	12.29
641.282	12.04
641.612	12.42
641.943	12.16
642.273	12.16
642.603	12.67
642.933	12.71
643.263	12.97
643.592	13.13
643.922	13.25
644.252	13.16
644.582	12.93
644.911	13.02
645.241	12.67
645.571	12.77
645.9	13.06
646.23	13.38
646.559	12.86
646.888	12.84
647.218	13.05
647.547	13.36
647.876	13.45
648.205	12.88
648.534	12.79
648.863	13.3
649.192	13.2
649.521	13.46
649.85	13.44
650.179	13.19
650.508	13.42
650.837	13.18
651.165	13.74
651.494	13.29
651.822	13.77
652.151	13.53
652.479	13.58
652.808	13.99
653.136	13.23
653.465	13.24
653.793	13.69
654.121	13.63
654.449	13.46
654.777	13.52
655.105	13.81
655.433	13.98
655.761	14.31
656.089	13.39
656.417	14.15
656.745	14.72
657.073	13.98
657.4	14.35
657.728	13.52
658.056	13.85
658.383	14.23
658.711	14.1
659.038	14.31
659.365	14.49
659.693	14.49
660.02	14.27
660.347	14.41
660.674	14.2
661.001	14.22
661.329	14.22
661.656	13.91
661.982	14.24
662.309	14.42
662.636	14.5
662.963	14.14
663.29	14.69
663.616	14.33
663.943	14.51
664.27	14.65
664.596	14.78
664.923	15.14
665.249	15.33
665.576	14.13
665.902	14.79
666.228	15.33
666.554	15.29
666.881	14.75
667.207	14.99
667.533	15.05
667.859	14.53
668.185	14.9
668.511	15.33
668.837	14.73
669.162	15.48
669.488	14.86
669.814	15.63
670.139	14.64
670.465	15.14
670.791	14.87
671.116	15.06
671.442	14.47
671.767	15.47
672.092	15.74
672.418	15.15
672.743	15.18
673.068	14.58
673.393	15.45
673.718	15.43
674.043	15.41
674.368	15.57
674.693	15.69
675.018	16.58
675.343	16.49
675.667	16.23
675.992	16.02
676.317	15.1
676.641	15.82
676.966	15.44
677.29	15.71
677.615	15.88
677.939	16.35
678.264	15.71
678.588	16.67
678.912	16.08
679.236	15.54
679.56	15.5
679.885	16.05
680.209	16.84
680.532	16.49
680.856	16.69
681.18	16.69
681.504	16.34
681.828	16.17
682.152	16.07
682.475	16.74
682.799	16.4
683.122	16.62
683.446	16.4
683.769	17.08
684.093	17.41
684.416	16.67
684.739	16.36
685.062	17.06
685.386	17.44
685.709	17.27
686.032	16.73
686.355	16.57
686.678	17.26
687.001	17.16
