Data from 0007_chest_Reflection__2__288.txt Node

Date: Thu Dec 15 18:58:28 CST 2022
User: ToomeyLab
Spectrometer: FLMS14357
Trigger mode: 0
Integration Time (sec): 1.000000E-2
Scans to average: 100
Electric dark correction enabled: true
Nonlinearity correction enabled: false
Boxcar width: 0
XAxis mode: Wavelengths
Number of Pixels in Spectrum: 2048
>>>>>Begin Spectral Data<<<<<
189.047	-83.08
189.435	-83.08
189.823	-83.08
190.211	131.19
190.599	146.62
190.987	169.37
191.375	-121.92
191.763	288.66
192.151	100.59
192.538	-83.16
192.926	253.18
193.314	71.3
193.702	-82.49
194.089	0.05
194.477	243.88
194.864	315.5
195.252	-92.21
195.639	39.98
196.027	710.83
196.414	72.71
196.801	64.47
197.189	113.26
197.576	74.51
197.963	-12.01
198.351	16.61
198.738	-66.92
199.125	-179.36
199.512	35.58
199.899	7.59
200.286	-25.51
200.673	16.38
201.06	-39.28
201.447	32.09
201.833	-44.32
202.22	-45.38
202.607	-29.08
202.994	-30.77
203.38	-18.33
203.767	-7.33
204.154	11.96
204.54	-19.9
204.927	-19.8
205.313	-20.04
205.699	13.91
206.086	51.88
206.472	15.95
206.858	-26.3
207.245	-31.31
207.631	-14.12
208.017	39.47
208.403	-29.11
208.789	-28.14
209.175	155.49
209.561	-96.14
209.947	-20.51
210.333	-12.49
210.719	1.56
211.105	1.26
211.491	17.22
211.876	-16.73
212.262	1.08
212.648	12.81
213.034	-18.8
213.419	-7.21
213.805	10.65
214.19	-36.74
214.576	1.61
214.961	-9.33
215.346	-36.22
215.732	-7.29
216.117	-11.38
216.502	-6.43
216.888	-7.36
217.273	-23.69
217.658	-39.46
218.043	-22.95
218.428	-51.75
218.813	26.45
219.198	-60.52
219.583	-14.89
219.968	-1.06
220.353	-14
220.738	-23.58
221.122	6.56
221.507	11.52
221.892	-23.7
222.276	-32.19
222.661	-26.57
223.046	-15.22
223.43	11.23
223.815	-2.97
224.199	-7.31
224.583	-2.52
224.968	3.34
225.352	-8.14
225.736	7.75
226.121	5.14
226.505	-6.68
226.889	2.05
227.273	-7.92
227.657	-0.2
228.041	3.28
228.425	0.56
228.809	1.93
229.193	2.71
229.577	0.97
229.961	1.56
230.344	2.75
230.728	3.47
231.112	3.3
231.495	1.62
231.879	2.87
232.263	2.77
232.646	1.8
233.03	3.78
233.413	3.62
233.797	-2.12
234.18	3.65
234.563	3.45
234.946	0.15
235.33	4.03
235.713	1.19
236.096	3.48
236.479	1.55
236.862	1.68
237.245	0.72
237.628	2.15
238.011	2.66
238.394	2.01
238.777	3.41
239.16	2.85
239.543	3.72
239.925	1.75
240.308	0.91
240.691	1.63
241.073	1.89
241.456	1.2
241.838	2.1
242.221	1.46
242.603	2.54
242.986	2.46
243.368	2.56
243.75	2.95
244.133	3.14
244.515	2.52
244.897	1.75
245.279	2.59
245.661	1.41
246.043	2.76
246.425	2.48
246.807	2.44
247.189	2.82
247.571	2.26
247.953	2.52
248.335	2.66
248.717	2.73
249.098	2.88
249.48	2.39
249.862	2.89
250.243	2.7
250.625	2.83
251.006	3.2
251.388	2.97
251.769	2.41
252.151	3.43
252.532	2.41
252.913	2.43
253.295	2.35
253.676	2.41
254.057	2.41
254.438	2.53
254.819	2.86
255.2	2.74
255.581	2.65
255.962	3.55
256.343	3.62
256.724	2.97
257.105	2.39
257.486	1.46
257.867	2.5
258.247	2.09
258.628	3.68
259.009	1.85
259.389	1.94
259.77	2.3
260.15	2.96
260.531	2.4
260.911	2.72
261.292	2.75
261.672	2.72
262.052	2.57
262.432	2.43
262.813	2.66
263.193	2.93
263.573	3.05
263.953	2.27
264.333	2.73
264.713	3.02
265.093	2.58
265.473	1.94
265.853	2.41
266.233	2.42
266.612	2.59
266.992	2.71
267.372	2.77
267.752	2.68
268.131	2.65
268.511	2.59
268.89	2.7
269.27	1.72
269.649	2.13
270.029	2.09
270.408	1.93
270.787	2.1
271.167	2.77
271.546	2.87
271.925	2.78
272.304	2.34
272.683	2.25
273.062	2.31
273.441	2.35
273.82	2.64
274.199	2.25
274.578	2.86
274.957	2.25
275.336	2.37
275.715	2.46
276.093	2.45
276.472	1.86
276.851	2.44
277.229	2.28
277.608	1.94
277.986	2.46
278.365	2.52
278.743	2.6
279.122	2.19
279.5	2.18
279.878	2.52
280.257	2.57
280.635	2.15
281.013	1.58
281.391	2.17
281.769	2.36
282.147	2.07
282.525	2.33
282.903	2.44
283.281	2.71
283.659	2.84
284.037	2.22
284.415	2.07
284.792	2.55
285.17	2.22
285.548	2.3
285.925	2.33
286.303	2.86
286.68	2.45
287.058	2.53
287.435	2.13
287.813	2.24
288.19	2.18
288.567	2.35
288.945	1.97
289.322	2.49
289.699	2.71
290.076	2.39
290.453	2.23
290.83	2.33
291.207	2.7
291.584	2.78
291.961	2.56
292.338	2.69
292.715	2.32
293.092	2.61
293.469	2.65
293.845	2.62
294.222	2.98
294.599	2.35
294.975	2.01
295.352	2.93
295.728	2.84
296.105	2.39
296.481	2.46
296.858	3.01
297.234	2.21
297.61	2.48
297.986	2.97
298.363	2.69
298.739	2.92
299.115	2.7
299.491	3.13
299.867	2.84
300.243	2.54
300.619	2.58
300.995	2.76
301.371	2.64
301.746	2.95
302.122	2.33
302.498	2.95
302.874	3.05
303.249	2.78
303.625	1.86
304	2.72
304.376	3.27
304.751	2.78
305.127	2.78
305.502	2.56
305.878	3.04
306.253	2.82
306.628	2.96
307.003	2.71
307.378	2.7
307.754	2.75
308.129	2.56
308.504	2.69
308.879	2.83
309.254	2.99
309.629	2.37
310.003	2.93
310.378	3.12
310.753	2.81
311.128	2.5
311.502	3.27
311.877	2.85
312.252	2.82
312.626	3.36
313.001	3.21
313.375	3.12
313.75	3.39
314.124	3.4
314.498	2.92
314.873	2.81
315.247	3
315.621	2.47
315.995	2.73
316.369	2.48
316.743	2.73
317.117	2.52
317.491	3.24
317.865	2.87
318.239	3.27
318.613	2.95
318.987	2.37
319.361	3.01
319.734	2.84
320.108	3.34
320.482	3.18
320.855	3.11
321.229	2.81
321.602	3.38
321.976	2.72
322.349	3.59
322.723	3.36
323.096	3.34
323.469	3.02
323.843	2.75
324.216	3.08
324.589	3.45
324.962	3.14
325.335	3.21
325.708	3.41
326.081	3.42
326.454	3.27
326.827	3.27
327.2	3.22
327.573	3.79
327.945	3.24
328.318	3.28
328.691	3.43
329.063	3.38
329.436	2.71
329.809	3.69
330.181	3.86
330.553	3.87
330.926	3.71
331.298	3.29
331.671	3.99
332.043	3.2
332.415	3.16
332.787	3.48
333.159	3.2
333.532	3.56
333.904	3.28
334.276	3.25
334.648	3.5
335.02	3.68
335.391	3.39
335.763	3.47
336.135	3.31
336.507	3.19
336.879	3.33
337.25	3.49
337.622	3.62
337.993	3.59
338.365	3.71
338.736	3.32
339.108	3.3
339.479	3.37
339.851	3.8
340.222	3.65
340.593	3.57
340.964	3.86
341.336	3.16
341.707	3.45
342.078	3.62
342.449	3.55
342.82	3.77
343.191	3.52
343.562	3.94
343.933	3.66
344.303	3.71
344.674	4.01
345.045	3.74
345.416	4.09
345.786	3.47
346.157	4.01
346.527	3.58
346.898	3.28
347.268	3.55
347.639	3.27
348.009	3.99
348.38	3.44
348.75	3.84
349.12	3.91
349.49	3.72
349.861	3.86
350.231	3.22
350.601	3.74
350.971	3.45
351.341	4.21
351.711	3.5
352.081	3.66
352.45	3.35
352.82	3.48
353.19	3.63
353.56	3.57
353.929	3.58
354.299	3.95
354.669	3.93
355.038	4
355.408	3.94
355.777	3.84
356.147	3.62
356.516	3.67
356.885	3.96
357.254	3.48
357.624	3.37
357.993	3.84
358.362	3.89
358.731	4.13
359.1	3.7
359.469	4.04
359.838	3.85
360.207	3.87
360.576	4.12
360.945	4.09
361.314	3.96
361.682	4.15
362.051	4.12
362.42	4.02
362.788	3.85
363.157	3.75
363.525	4.03
363.894	3.67
364.262	4.04
364.631	4.12
364.999	4.06
365.367	3.83
365.735	3.85
366.104	3.75
366.472	3.75
366.84	3.94
367.208	4.22
367.576	3.91
367.944	4.05
368.312	4.24
368.68	4.28
369.048	4.04
369.416	3.67
369.783	4.27
370.151	4.92
370.519	4.42
370.886	4.23
371.254	4.17
371.621	4.28
371.989	3.88
372.356	4.26
372.724	3.96
373.091	3.92
373.458	3.94
373.826	4.45
374.193	4.28
374.56	4.34
374.927	4.23
375.294	4.2
375.661	3.94
376.028	4.15
376.395	4.38
376.762	3.59
377.129	4.36
377.496	4.34
377.863	4.38
378.229	4.28
378.596	4.66
378.963	4.37
379.329	4.52
379.696	3.82
380.062	4.32
380.429	3.91
380.795	4.49
381.161	3.84
381.528	4.11
381.894	4.15
382.26	4.17
382.626	4.27
382.993	4.58
383.359	4.37
383.725	4.23
384.091	4.37
384.457	4.23
384.823	4.14
385.188	4.66
385.554	4.56
385.92	4.32
386.286	4.35
386.651	4.4
387.017	4.34
387.383	4.41
387.748	4.5
388.114	4.47
388.479	4.63
388.845	4.17
389.21	4.64
389.575	4.86
389.94	4.71
390.306	4.63
390.671	4.36
391.036	4.53
391.401	4.35
391.766	4.49
392.131	4.6
392.496	4.51
392.861	4.54
393.226	4.5
393.591	4.63
393.956	4.45
394.32	4.68
394.685	4.58
395.05	4.74
395.414	4.7
395.779	4.92
396.143	4.46
396.508	4.7
396.872	4.65
397.236	4.92
397.601	4.86
397.965	4.7
398.329	4.72
398.694	4.52
399.058	4.54
399.422	4.65
399.786	4.71
400.15	4.8
400.514	4.82
400.878	4.68
401.242	4.93
401.605	4.77
401.969	4.69
402.333	4.83
402.697	4.87
403.06	4.85
403.424	4.87
403.787	4.75
404.151	4.71
404.514	4.97
404.878	4.71
405.241	4.93
405.604	4.96
405.968	5.07
406.331	4.8
406.694	4.92
407.057	4.69
407.42	4.81
407.783	4.99
408.146	4.88
408.509	5.06
408.872	4.89
409.235	4.77
409.598	4.9
409.961	5.01
410.323	4.88
410.686	4.79
411.049	5.06
411.411	4.83
411.774	5.01
412.136	5.16
412.499	5.02
412.861	4.78
413.223	5.21
413.586	5.12
413.948	5.01
414.31	5.2
414.672	4.92
415.035	5.21
415.397	4.99
415.759	4.77
416.121	5.26
416.483	5.08
416.845	5.06
417.206	5.02
417.568	5.17
417.93	5.02
418.292	5.15
418.653	4.98
419.015	4.86
419.377	5.04
419.738	5.13
420.1	4.98
420.461	4.94
420.822	5.11
421.184	4.98
421.545	5.14
421.906	5.07
422.267	5.08
422.629	5
422.99	5.06
423.351	5.16
423.712	5.17
424.073	5.17
424.434	5.21
424.795	5.09
425.155	5.08
425.516	5.05
425.877	5.08
426.238	5.04
426.598	5.26
426.959	5.16
427.32	5.11
427.68	5.23
428.041	5.22
428.401	5.11
428.761	5.35
429.122	5.34
429.482	5.39
429.842	5.07
430.202	5.4
430.563	5.24
430.923	5.41
431.283	5.44
431.643	5.37
432.003	5.44
432.363	5.39
432.722	5.44
433.082	5.19
433.442	5.61
433.802	5.43
434.161	5.43
434.521	5.27
434.881	5.37
435.24	5.43
435.6	5.42
435.959	5.33
436.319	5.58
436.678	5.6
437.037	5.39
437.396	5.53
437.756	5.3
438.115	5.44
438.474	5.46
438.833	5.59
439.192	5.42
439.551	5.38
439.91	5.48
440.269	5.38
440.628	5.54
440.987	5.5
441.345	5.57
441.704	5.42
442.063	5.47
442.421	5.51
442.78	5.46
443.138	5.43
443.497	5.49
443.855	5.58
444.214	5.51
444.572	5.62
444.93	5.67
445.288	5.57
445.647	5.58
446.005	5.58
446.363	5.56
446.721	5.51
447.079	5.51
447.437	5.57
447.795	5.62
448.153	5.48
448.51	5.55
448.868	5.52
449.226	5.65
449.584	5.53
449.941	5.66
450.299	5.57
450.656	5.67
451.014	5.85
451.371	5.78
451.729	5.61
452.086	5.76
452.443	5.93
452.801	5.81
453.158	5.86
453.515	5.69
453.872	5.83
454.229	5.69
454.586	5.72
454.943	5.87
455.3	5.94
455.657	5.76
456.014	5.9
456.371	5.8
456.727	6.03
457.084	6.06
457.441	5.84
457.797	5.78
458.154	5.84
458.51	5.93
458.867	5.98
459.223	5.81
459.58	5.96
459.936	5.93
460.292	5.8
460.648	5.74
461.005	5.97
461.361	5.86
461.717	5.84
462.073	5.89
462.429	5.98
462.785	6.04
463.141	5.84
463.496	6.02
463.852	6.03
464.208	6.03
464.564	5.86
464.919	5.9
465.275	6.09
465.631	6.21
465.986	6.07
466.342	6.08
466.697	6.09
467.052	6.36
467.408	6.2
467.763	5.99
468.118	5.91
468.473	6.14
468.829	6.17
469.184	6.19
469.539	6.1
469.894	6.33
470.249	6.2
470.603	6.24
470.958	6.46
471.313	6.14
471.668	6.21
472.023	6.14
472.377	6.2
472.732	6.38
473.086	6.26
473.441	6.13
473.795	6.41
474.15	6.26
474.504	6.34
474.859	6.1
475.213	6.35
475.567	6.23
475.921	6.44
476.275	6.39
476.63	6.38
476.984	6.3
477.338	6.43
477.692	6.35
478.045	6.44
478.399	6.57
478.753	6.32
479.107	6.35
479.461	6.43
479.814	6.4
480.168	6.4
480.521	6.42
480.875	6.45
481.228	6.33
481.582	6.42
481.935	6.57
482.289	6.49
482.642	6.55
482.995	6.39
483.348	6.41
483.701	6.41
484.055	6.39
484.408	6.33
484.761	6.21
485.114	6.19
485.466	6.18
485.819	6.19
486.172	6.2
486.525	6.21
486.878	6.31
487.23	6.3
487.583	6.39
487.936	6.33
488.288	6.34
488.641	6.4
488.993	6.29
489.345	6.27
489.698	6.39
490.05	6.4
490.402	6.42
490.754	6.46
491.107	6.49
491.459	6.61
491.811	6.58
492.163	6.54
492.515	6.53
492.866	6.43
493.218	6.47
493.57	6.54
493.922	6.49
494.274	6.58
494.625	6.71
494.977	6.79
495.328	6.69
495.68	6.76
496.031	6.71
496.383	6.68
496.734	6.87
497.086	6.96
497.437	6.98
497.788	6.97
498.139	6.92
498.49	6.87
498.842	6.96
499.193	6.76
499.544	7
499.894	6.89
500.245	7.08
500.596	7.07
500.947	7.04
501.298	7.02
501.648	7.02
501.999	7.16
502.35	6.85
502.7	7.17
503.051	7.06
503.401	7.22
503.752	7.13
504.102	7.11
504.452	7.06
504.803	7.08
505.153	7.27
505.503	7.09
505.853	7.22
506.203	7.25
506.553	7.24
506.903	7.21
507.253	7.26
507.603	7.26
507.953	7.33
508.303	7.39
508.652	7.17
509.002	7.3
509.352	7.35
509.701	7.19
510.051	7.39
510.4	7.43
510.75	7.22
511.099	7.23
511.449	7.29
511.798	7.31
512.147	7.32
512.496	7.34
512.846	7.3
513.195	7.39
513.544	7.4
513.893	7.34
514.242	7.41
514.591	7.38
514.939	7.41
515.288	7.48
515.637	7.49
515.986	7.58
516.334	7.65
516.683	7.53
517.032	7.48
517.38	7.53
517.729	7.6
518.077	7.62
518.426	7.58
518.774	7.64
519.122	7.57
519.47	7.58
519.819	7.64
520.167	7.52
520.515	7.61
520.863	7.55
521.211	7.59
521.559	7.58
521.907	7.58
522.255	7.76
522.602	7.66
522.95	7.82
523.298	7.87
523.645	7.86
523.993	7.82
524.341	7.94
524.688	7.93
525.036	7.94
525.383	7.91
525.73	7.81
526.078	8
526.425	7.85
526.772	7.86
527.119	7.82
527.466	7.83
527.814	7.84
528.161	7.88
528.508	7.96
528.854	7.84
529.201	7.79
529.548	7.68
529.895	7.7
530.242	7.71
530.588	7.72
530.935	7.76
531.282	7.72
531.628	7.83
531.975	7.86
532.321	7.91
532.667	8.1
533.014	8.15
533.36	8.14
533.706	8.02
534.052	8.12
534.399	8.08
534.745	8.08
535.091	8.02
535.437	8.02
535.783	8.08
536.129	8.16
536.474	8.2
536.82	8.29
537.166	8.19
537.512	8.37
537.857	8.41
538.203	8.37
538.549	8.23
538.894	8.34
539.239	8.35
539.585	8.48
539.93	8.49
540.276	8.53
540.621	8.65
540.966	8.53
541.311	8.66
541.656	8.52
542.001	8.46
542.346	8.5
542.691	8.36
543.036	8.37
543.381	8.39
543.726	8.48
544.071	8.44
544.415	8.51
544.76	8.49
545.105	8.58
545.449	8.64
545.794	8.6
546.138	8.73
546.483	8.87
546.827	8.76
547.171	8.85
547.516	8.85
547.86	8.86
548.204	8.89
548.548	8.87
548.892	8.95
549.236	8.94
549.58	8.96
549.924	9.15
550.268	9.2
550.612	9.23
550.956	9.29
551.3	9.53
551.643	9.19
551.987	9.48
552.33	9.42
552.674	9.36
553.017	9.13
553.361	9.39
553.704	9.53
554.048	9.37
554.391	9.52
554.734	9.27
555.077	9.26
555.42	9.37
555.764	9.39
556.107	9.72
556.45	9.5
556.793	9.5
557.135	9.58
557.478	9.69
557.821	9.63
558.164	9.59
558.507	9.62
558.849	9.66
559.192	9.69
559.534	9.71
559.877	9.59
560.219	9.68
560.562	9.9
560.904	10.03
561.246	9.74
561.589	10.01
561.931	9.87
562.273	9.81
562.615	9.86
562.957	9.96
563.299	10
563.641	9.96
563.983	9.98
564.325	10.05
564.667	10.08
565.008	10.13
565.35	9.88
565.692	10.28
566.033	10.05
566.375	10.28
566.716	10.02
567.058	10.08
567.399	10.09
567.741	10.32
568.082	10.26
568.423	10.1
568.764	10.19
569.105	10.21
569.447	10.23
569.788	10.3
570.129	10.33
570.47	10.34
570.811	10.13
571.151	10.3
571.492	10.47
571.833	10.29
572.174	10.53
572.514	10.57
572.855	10.73
573.195	10.36
573.536	10.58
573.876	10.5
574.217	10.47
574.557	10.63
574.898	10.57
575.238	10.72
575.578	10.68
575.918	10.74
576.258	11.03
576.598	10.77
576.938	10.78
577.278	10.96
577.618	10.71
577.958	10.83
578.298	11.04
578.638	10.92
578.977	10.96
579.317	10.99
579.657	11.1
579.996	11.21
580.336	11.14
580.675	11.02
581.014	11.27
581.354	10.88
581.693	11.09
582.032	11.64
582.372	11.18
582.711	11.4
583.05	11.36
583.389	11.42
583.728	11.49
584.067	11.45
584.406	11.52
584.745	11.43
585.083	11.53
585.422	11.79
585.761	11.55
586.1	11.83
586.438	11.8
586.777	11.61
587.115	11.63
587.454	11.38
587.792	11.74
588.13	11.83
588.469	11.6
588.807	11.84
589.145	11.75
589.483	11.63
589.821	11.96
590.159	12.03
590.497	12.03
590.835	11.81
591.173	12.11
591.511	12.15
591.849	12.18
592.187	12.1
592.524	12.16
592.862	12
593.2	12
593.537	12.18
593.875	12.52
594.212	12.19
594.55	12.29
594.887	12.12
595.224	12.47
595.561	12.28
595.899	12.22
596.236	12.47
596.573	12.18
596.91	12.27
597.247	12.59
597.584	12.64
597.921	12.37
598.258	12.66
598.594	12.4
598.931	12.46
599.268	12.29
599.604	12.49
599.941	12.72
600.277	12.58
600.614	12.57
600.95	12.78
601.287	12.58
601.623	12.6
601.959	13.16
602.296	13.03
602.632	12.67
602.968	13.04
603.304	13.2
603.64	12.88
603.976	13.02
604.312	12.78
604.648	13.2
604.984	12.82
605.319	13.12
605.655	13.12
605.991	13.04
606.326	13.23
606.662	12.94
606.998	13.08
607.333	12.97
607.668	13.26
608.004	13.14
608.339	13
608.674	13.43
609.01	13.58
609.345	13.64
609.68	13.48
610.015	13.44
610.35	13.54
610.685	13.26
611.02	13.37
611.355	13.8
611.689	13.43
612.024	13.49
612.359	13.68
612.694	13.86
613.028	13.36
613.363	13.73
613.697	13.63
614.032	13.92
614.366	13.8
614.7	13.88
615.035	13.72
615.369	14.15
615.703	13.71
616.037	14.01
616.371	14.16
616.705	14.21
617.039	14.12
617.373	14.58
617.707	14.05
618.041	13.71
618.375	13.51
618.709	14.26
619.042	14.42
619.376	14.15
619.71	13.89
620.043	14.42
620.377	14.48
620.71	14.22
621.043	14.58
621.377	14.23
621.71	14.98
622.043	14.49
622.376	14.57
622.709	14.73
623.043	14.65
623.376	14.46
623.709	14.89
624.041	14.56
624.374	14.84
624.707	14.83
625.04	14.54
625.373	14.86
625.705	15.04
626.038	14.87
626.37	14.65
626.703	14.86
627.035	14.88
627.368	15.45
627.7	14.94
628.032	15.06
628.365	15.36
628.697	15.02
629.029	15.14
629.361	15.11
629.693	15.17
630.025	15.25
630.357	15.35
630.689	14.85
631.021	15.62
631.353	15.45
631.684	15.38
632.016	15.12
632.348	14.88
632.679	15.58
633.011	15.42
633.342	15.3
633.674	15.2
634.005	15.48
634.336	15.66
634.668	15.29
634.999	15.55
635.33	15.69
635.661	15.68
635.992	15.45
636.323	15.89
636.654	15.85
636.985	15.84
637.316	15.74
637.647	16.16
637.977	15.81
638.308	15.88
638.639	15.8
638.969	16.03
639.3	16.09
639.63	16.18
639.961	16.32
640.291	15.98
640.622	16.55
640.952	16.49
641.282	15.8
641.612	15.93
641.943	15.84
642.273	16.03
642.603	16.47
642.933	16.44
643.263	16.14
643.592	16.4
643.922	16.5
644.252	16.26
644.582	16.25
644.911	16.41
645.241	16.23
645.571	16.35
645.9	17.06
646.23	17.15
646.559	16.31
646.888	17.06
647.218	16.55
647.547	16.98
647.876	17.03
648.205	16.18
648.534	16.7
648.863	17.13
649.192	17.04
649.521	17.06
649.85	17.23
650.179	17.62
650.508	17
650.837	17.18
651.165	16.85
651.494	17.75
651.822	17.26
652.151	16.75
652.479	17.04
652.808	17.13
653.136	17.16
653.465	17.02
653.793	17.38
654.121	17.52
654.449	16.92
654.777	16.88
655.105	16.83
655.433	17.57
655.761	17.63
656.089	17.22
656.417	18.17
656.745	18.02
657.073	17.51
657.4	17.76
657.728	17.29
658.056	17.59
658.383	17.5
658.711	17.81
659.038	18.13
659.365	18.06
659.693	18.06
660.02	17.89
660.347	17.54
660.674	17.7
661.001	18.2
661.329	17.96
661.656	17.72
661.982	17.99
662.309	17.84
662.636	17.97
662.963	18.29
663.29	18.15
663.616	17.99
663.943	18.15
664.27	18.09
664.596	17.78
664.923	18.18
665.249	18.02
665.576	18.1
665.902	18.12
666.228	18.56
666.554	18.68
666.881	17.76
667.207	18.15
667.533	18.58
667.859	18.22
668.185	18.53
668.511	18.99
668.837	18.58
669.162	18.5
669.488	18.18
669.814	18.87
670.139	18.46
670.465	19.04
670.791	18.25
671.116	18.28
671.442	18.43
671.767	18.57
672.092	19.08
672.418	18.9
672.743	18.53
673.068	18.46
673.393	18.9
673.718	19.05
674.043	18.87
674.368	19.01
674.693	19.07
675.018	19.23
675.343	19.56
675.667	19.23
675.992	19.61
676.317	18.94
676.641	19.63
676.966	18.82
677.29	18.69
677.615	19.11
677.939	19.26
678.264	19.07
678.588	19.43
678.912	19.32
679.236	19.02
679.56	19.01
679.885	19.85
680.209	19.57
680.532	20.27
680.856	19.53
681.18	20.16
681.504	19.47
681.828	19.75
682.152	19.85
682.475	19.74
682.799	19.32
683.122	19.83
