Data from 0007_chest_Reflection__0__286.txt Node

Date: Thu Dec 15 18:57:52 CST 2022
User: ToomeyLab
Spectrometer: FLMS14357
Trigger mode: 0
Integration Time (sec): 1.000000E-2
Scans to average: 100
Electric dark correction enabled: true
Nonlinearity correction enabled: false
Boxcar width: 0
XAxis mode: Wavelengths
Number of Pixels in Spectrum: 2048
>>>>>Begin Spectral Data<<<<<
189.047	-18.35
189.435	-18.35
189.823	-18.35
190.211	-47.99
190.599	9.77
190.987	132.55
191.375	13.98
191.763	84.36
192.151	30.87
192.538	907.99
192.926	-23.9
193.314	115.23
193.702	170.32
194.089	111.56
194.477	1.82
194.864	413.15
195.252	-506.35
195.639	80.03
196.027	-109.15
196.414	7.95
196.801	-74.9
197.189	-3.42
197.576	-21.25
197.963	110.4
198.351	3.07
198.738	-83.66
199.125	-129.27
199.512	-10.57
199.899	-84.73
200.286	-27.25
200.673	58.09
201.06	-0.33
201.447	-14.25
201.833	4.22
202.22	0.03
202.607	-16.02
202.994	5.78
203.38	22.13
203.767	32.34
204.154	17.62
204.54	-0.09
204.927	-1.31
205.313	20.88
205.699	33.11
206.086	43.96
206.472	-0.19
206.858	-27.96
207.245	-12.07
207.631	-17.11
208.017	16.92
208.403	-140.07
208.789	-6.63
209.175	22.84
209.561	-84.49
209.947	-62.52
210.333	-37.78
210.719	-8.92
211.105	10.07
211.491	-44.92
211.876	-17.64
212.262	2.57
212.648	-19.68
213.034	-53.96
213.419	25.09
213.805	30.82
214.19	-20.19
214.576	-7.3
214.961	9.04
215.346	-30.58
215.732	-27.02
216.117	7.44
216.502	-31
216.888	-8.18
217.273	17.27
217.658	-39.44
218.043	-64.88
218.428	-38.36
218.813	0.43
219.198	-51.83
219.583	-13.98
219.968	2.66
220.353	-28.24
220.738	-17.04
221.122	-9.37
221.507	-12.46
221.892	-39.66
222.276	-27.54
222.661	-41.43
223.046	-12.01
223.43	16.97
223.815	-5.38
224.199	-1.69
224.583	-15.36
224.968	-11.59
225.352	-15.69
225.736	2.56
226.121	-2.52
226.505	-1
226.889	1.28
227.273	-2.27
227.657	-0.7
228.041	-0.16
228.425	-1.5
228.809	-1.24
229.193	3.57
229.577	3.85
229.961	1.99
230.344	2.7
230.728	4.01
231.112	3.31
231.495	2.71
231.879	1.92
232.263	2.99
232.646	1.56
233.03	3.99
233.413	2.31
233.797	1.86
234.18	0.11
234.563	1.08
234.946	1.67
235.33	1.7
235.713	5.59
236.096	2.23
236.479	3.31
236.862	1.06
237.245	1.44
237.628	1.54
238.011	3.17
238.394	1.09
238.777	2.81
239.16	1.96
239.543	1.94
239.925	2.62
240.308	2.53
240.691	1.35
241.073	1.93
241.456	2.69
241.838	3.03
242.221	2.67
242.603	2.86
242.986	2.5
243.368	2.59
243.75	2.79
244.133	2.69
244.515	2.66
244.897	2.31
245.279	2.16
245.661	3.25
246.043	2.18
246.425	2.36
246.807	3.14
247.189	2.23
247.571	2.28
247.953	2.36
248.335	2.74
248.717	2.73
249.098	2.76
249.48	2.73
249.862	2.73
250.243	2.73
250.625	2.94
251.006	3.76
251.388	2.71
251.769	2.05
252.151	2.18
252.532	2.37
252.913	2.53
253.295	2.6
253.676	2.57
254.057	2.44
254.438	2.85
254.819	2.57
255.2	2.83
255.581	3.1
255.962	2.98
256.343	2.63
256.724	2.44
257.105	1.51
257.486	1.8
257.867	2.13
258.247	2.46
258.628	2.48
259.009	2.49
259.389	1.77
259.77	2.47
260.15	3.07
260.531	2.63
260.911	2.5
261.292	2.66
261.672	2.59
262.052	2.6
262.432	2.52
262.813	2.36
263.193	2.24
263.573	2.51
263.953	1.86
264.333	2.12
264.713	2.53
265.093	2.69
265.473	2.26
265.853	2.78
266.233	2.6
266.612	1.56
266.992	2.13
267.372	2.82
267.752	2.59
268.131	2.48
268.511	2.34
268.89	2.65
269.27	1.67
269.649	2.19
270.029	2.3
270.408	1.93
270.787	2.6
271.167	2.34
271.546	2.69
271.925	2.4
272.304	2.37
272.683	2.29
273.062	2.34
273.441	2.08
273.82	2.16
274.199	2.37
274.578	2.42
274.957	2.05
275.336	2.84
275.715	2.71
276.093	1.92
276.472	1.92
276.851	2.54
277.229	2.46
277.608	1.86
277.986	2.54
278.365	3.09
278.743	2.56
279.122	2.02
279.5	2.5
279.878	1.92
280.257	2.36
280.635	2.1
281.013	2.33
281.391	2.34
281.769	2.88
282.147	2.2
282.525	1.97
282.903	2.04
283.281	2.38
283.659	2.47
284.037	1.88
284.415	2.6
284.792	2.37
285.17	2.11
285.548	2.18
285.925	2.18
286.303	2.53
286.68	2.2
287.058	2.27
287.435	2.24
287.813	2.52
288.19	2.14
288.567	2.24
288.945	2.11
289.322	2.59
289.699	2.32
290.076	1.71
290.453	2.04
290.83	2.6
291.207	2.28
291.584	2.53
291.961	1.99
292.338	2.15
292.715	2.02
293.092	2.61
293.469	2.07
293.845	2.25
294.222	2.13
294.599	2.08
294.975	1.59
295.352	2.72
295.728	2.26
296.105	2.15
296.481	2.22
296.858	2.23
297.234	1.67
297.61	2.09
297.986	2.47
298.363	2.21
298.739	2.44
299.115	2.31
299.491	2.64
299.867	2.19
300.243	2.08
300.619	1.89
300.995	2.34
301.371	2.23
301.746	2.53
302.122	1.86
302.498	2.13
302.874	2.42
303.249	2.16
303.625	1.88
304	2.66
304.376	2.71
304.751	1.85
305.127	1.81
305.502	2.1
305.878	2.44
306.253	1.95
306.628	2.3
307.003	2.06
307.378	1.87
307.754	2.27
308.129	1.84
308.504	2.2
308.879	2.24
309.254	2.13
309.629	2.14
310.003	1.94
310.378	2.42
310.753	2.49
311.128	1.84
311.502	2.02
311.877	2.26
312.252	2.05
312.626	2.83
313.001	2.47
313.375	2.52
313.75	2.31
314.124	2.41
314.498	2.2
314.873	1.99
315.247	2.27
315.621	1.66
315.995	2.12
316.369	1.93
316.743	2.15
317.117	2.33
317.491	2.34
317.865	1.82
318.239	2.55
318.613	2.2
318.987	1.91
319.361	2.23
319.734	2.27
320.108	2.15
320.482	2.7
320.855	1.91
321.229	2.15
321.602	2.26
321.976	1.75
322.349	2.76
322.723	2.08
323.096	2.06
323.469	1.86
323.843	2.28
324.216	2.12
324.589	2.27
324.962	2
325.335	2.06
325.708	2.15
326.081	2.22
326.454	2.16
326.827	1.9
327.2	2.15
327.573	2.44
327.945	2.16
328.318	2.51
328.691	2.12
329.063	2.02
329.436	1.92
329.809	2.56
330.181	2.69
330.553	2.61
330.926	2.22
331.298	1.84
331.671	2.47
332.043	1.87
332.415	2.43
332.787	2.78
333.159	2.01
333.532	2
333.904	2.45
334.276	2.16
334.648	1.96
335.02	2.1
335.391	2.12
335.763	2.42
336.135	2.25
336.507	1.84
336.879	2.39
337.25	2.24
337.622	2.29
337.993	2.46
338.365	2.2
338.736	2
339.108	2.5
339.479	2.03
339.851	2.19
340.222	3.22
340.593	1.91
340.964	2.07
341.336	1.99
341.707	2.19
342.078	2.11
342.449	2.26
342.82	2.65
343.191	2.25
343.562	2.29
343.933	2.28
344.303	2.22
344.674	1.96
345.045	2.76
345.416	2.77
345.786	2.16
346.157	2.47
346.527	2.22
346.898	2.19
347.268	2.31
347.639	2
348.009	2.47
348.38	2.14
348.75	2.5
349.12	2.21
349.49	2.59
349.861	2.68
350.231	2.01
350.601	2.32
350.971	2.28
351.341	2.72
351.711	2.24
352.081	2.16
352.45	2.15
352.82	1.91
353.19	2.13
353.56	2.15
353.929	2.33
354.299	2.36
354.669	2.48
355.038	2.44
355.408	2.4
355.777	2.47
356.147	2.38
356.516	2.24
356.885	2.63
357.254	1.96
357.624	2.22
357.993	2.44
358.362	2.8
358.731	2.55
359.1	2.35
359.469	2.47
359.838	2.47
360.207	2.35
360.576	2.71
360.945	2.48
361.314	2.39
361.682	2.24
362.051	2.4
362.42	2.21
362.788	2.44
363.157	2.32
363.525	2.57
363.894	2.36
364.262	2.33
364.631	2.83
364.999	2.55
365.367	2.3
365.735	2.1
366.104	2.33
366.472	2.16
366.84	2.27
367.208	2.61
367.576	2.29
367.944	2.63
368.312	2.19
368.68	2.88
369.048	2.4
369.416	2.2
369.783	2.55
370.151	2.79
370.519	2.79
370.886	2.48
371.254	2.66
371.621	2.41
371.989	2.86
372.356	2.38
372.724	2.33
373.091	2.2
373.458	2.43
373.826	2.78
374.193	2.63
374.56	2.41
374.927	2.37
375.294	2.79
375.661	2.68
376.028	2.35
376.395	2.85
376.762	2.44
377.129	2.48
377.496	2.62
377.863	2.56
378.229	2.87
378.596	2.66
378.963	2.72
379.329	2.4
379.696	2.46
380.062	2.49
380.429	2.49
380.795	2.83
381.161	2.23
381.528	2.13
381.894	2.57
382.26	2.73
382.626	2.61
382.993	2.79
383.359	2.47
383.725	2.45
384.091	2.5
384.457	2.44
384.823	2.58
385.188	2.72
385.554	2.61
385.92	2.47
386.286	2.55
386.651	2.61
387.017	2.7
387.383	2.62
387.748	2.63
388.114	2.72
388.479	2.4
388.845	2.62
389.21	2.9
389.575	3.03
389.94	2.9
390.306	2.83
390.671	2.82
391.036	2.67
391.401	2.7
391.766	2.63
392.131	2.77
392.496	2.6
392.861	2.59
393.226	2.63
393.591	2.64
393.956	2.72
394.32	2.91
394.685	2.66
395.05	2.55
395.414	2.62
395.779	2.91
396.143	2.66
396.508	2.62
396.872	2.63
397.236	3.06
397.601	2.79
397.965	2.79
398.329	2.82
398.694	2.62
399.058	2.57
399.422	2.82
399.786	2.65
400.15	2.51
400.514	2.9
400.878	2.85
401.242	2.94
401.605	2.73
401.969	2.79
402.333	2.56
402.697	2.89
403.06	2.7
403.424	2.7
403.787	2.67
404.151	2.77
404.514	2.94
404.878	2.69
405.241	2.83
405.604	2.51
405.968	2.67
406.331	2.7
406.694	2.74
407.057	2.56
407.42	2.64
407.783	2.94
408.146	2.76
408.509	2.8
408.872	2.86
409.235	2.75
409.598	2.69
409.961	2.82
410.323	2.66
410.686	2.6
411.049	2.95
411.411	2.79
411.774	2.77
412.136	2.86
412.499	2.98
412.861	2.5
413.223	2.68
413.586	2.97
413.948	2.92
414.31	3.17
414.672	2.66
415.035	2.99
415.397	2.6
415.759	2.62
416.121	2.99
416.483	2.8
416.845	2.72
417.206	2.81
417.568	2.79
417.93	2.94
418.292	2.63
418.653	2.74
419.015	2.77
419.377	2.75
419.738	2.9
420.1	2.83
420.461	2.73
420.822	2.81
421.184	2.73
421.545	2.81
421.906	2.79
422.267	2.71
422.629	2.76
422.99	2.77
423.351	2.77
423.712	2.81
424.073	2.8
424.434	2.95
424.795	2.75
425.155	2.65
425.516	2.65
425.877	2.86
426.238	2.83
426.598	2.8
426.959	2.84
427.32	2.75
427.68	2.97
428.041	2.93
428.401	2.74
428.761	2.91
429.122	2.84
429.482	2.9
429.842	3
430.202	3.03
430.563	2.74
430.923	2.87
431.283	2.85
431.643	2.99
432.003	2.91
432.363	3.01
432.722	3.03
433.082	2.99
433.442	2.98
433.802	2.78
434.161	2.88
434.521	2.79
434.881	2.84
435.24	2.96
435.6	2.96
435.959	3.02
436.319	2.94
436.678	2.91
437.037	2.94
437.396	2.93
437.756	2.85
438.115	3.01
438.474	3.02
438.833	2.87
439.192	2.81
439.551	2.81
439.91	2.93
440.269	2.88
440.628	2.85
440.987	2.97
441.345	3.02
441.704	2.96
442.063	2.86
442.421	2.96
442.78	2.92
443.138	2.86
443.497	2.8
443.855	3.02
444.214	2.78
444.572	2.98
444.93	2.89
445.288	2.96
445.647	2.78
446.005	2.87
446.363	2.92
446.721	2.91
447.079	2.87
447.437	2.9
447.795	2.94
448.153	2.94
448.51	2.91
448.868	2.88
449.226	2.84
449.584	2.81
449.941	2.91
450.299	2.92
450.656	2.88
451.014	2.98
451.371	3.02
451.729	2.93
452.086	2.97
452.443	2.95
452.801	2.94
453.158	3.2
453.515	2.97
453.872	2.85
454.229	2.87
454.586	2.89
454.943	3.02
455.3	2.99
455.657	2.98
456.014	2.98
456.371	2.93
456.727	3.03
457.084	3.05
457.441	2.97
457.797	2.97
458.154	2.91
458.51	2.92
458.867	2.83
459.223	2.91
459.58	2.93
459.936	2.94
460.292	2.94
460.648	2.89
461.005	2.9
461.361	2.94
461.717	2.92
462.073	3.11
462.429	3.11
462.785	3.18
463.141	2.99
463.496	3.03
463.852	3.11
464.208	3.03
464.564	2.9
464.919	2.99
465.275	3.08
465.631	3.15
465.986	3.09
466.342	2.97
466.697	3.01
467.052	3.22
467.408	3.2
467.763	2.96
468.118	3.03
468.473	3.06
468.829	2.98
469.184	3.07
469.539	2.89
469.894	3.06
470.249	3.08
470.603	3.14
470.958	3.22
471.313	3.15
471.668	3.15
472.023	3.19
472.377	3.1
472.732	3.13
473.086	2.91
473.441	2.98
473.795	3.28
474.15	3
474.504	3.05
474.859	2.9
475.213	3.17
475.567	3.01
475.921	3.24
476.275	3.23
476.63	3.04
476.984	2.95
477.338	3.13
477.692	3.09
478.045	3.18
478.399	3.17
478.753	3.01
479.107	3.14
479.461	3.1
479.814	3.13
480.168	3.11
480.521	3.18
480.875	3.17
481.228	3.08
481.582	3.05
481.935	3.23
482.289	3.08
482.642	3.25
482.995	3.1
483.348	3.03
483.701	3.11
484.055	3.06
484.408	3.08
484.761	2.93
485.114	2.87
485.466	2.91
485.819	2.9
486.172	2.94
486.525	2.97
486.878	3.06
487.23	3
487.583	3.05
487.936	3
488.288	3.01
488.641	2.97
488.993	2.96
489.345	2.95
489.698	2.94
490.05	3.03
490.402	3.01
490.754	3.05
491.107	2.96
491.459	3.09
491.811	3.11
492.163	3.1
492.515	2.98
492.866	2.92
493.218	2.99
493.57	3.04
493.922	3.04
494.274	3.14
494.625	3.2
494.977	3.17
495.328	3.17
495.68	3.14
496.031	3.22
496.383	3.07
496.734	3.17
497.086	3.17
497.437	3.23
497.788	3.27
498.139	3.23
498.49	3.18
498.842	3.16
499.193	3.12
499.544	3.14
499.894	3.2
500.245	3.29
500.596	3.12
500.947	3.2
501.298	3.12
501.648	3.25
501.999	3.34
502.35	3.18
502.7	3.32
503.051	3.14
503.401	3.32
503.752	3.12
504.102	3.23
504.452	3.25
504.803	3.11
505.153	3.21
505.503	3.22
505.853	3.29
506.203	3.31
506.553	3.12
506.903	3.21
507.253	3.24
507.603	3.3
507.953	3.24
508.303	3.38
508.652	3.14
509.002	3.34
509.352	3.29
509.701	3.14
510.051	3.24
510.4	3.32
510.75	3.21
511.099	3.09
511.449	3.24
511.798	3.24
512.147	3.25
512.496	3.29
512.846	3.3
513.195	3.26
513.544	3.31
513.893	3.35
514.242	3.23
514.591	3.19
514.939	3.47
515.288	3.33
515.637	3.31
515.986	3.29
516.334	3.42
516.683	3.36
517.032	3.29
517.38	3.29
517.729	3.33
518.077	3.31
518.426	3.33
518.774	3.24
519.122	3.39
519.47	3.24
519.819	3.28
520.167	3.19
520.515	3.3
520.863	3.25
521.211	3.24
521.559	3.22
521.907	3.28
522.255	3.27
522.602	3.36
522.95	3.39
523.298	3.33
523.645	3.41
523.993	3.45
524.341	3.36
524.688	3.22
525.036	3.28
525.383	3.4
525.73	3.19
526.078	3.47
526.425	3.33
526.772	3.32
527.119	3.3
527.466	3.34
527.814	3.3
528.161	3.39
528.508	3.5
528.854	3.28
529.201	3.25
529.548	3.28
529.895	3.19
530.242	3.14
530.588	3.18
530.935	3.22
531.282	3.23
531.628	3.27
531.975	3.29
532.321	3.34
532.667	3.32
533.014	3.43
533.36	3.32
533.706	3.39
534.052	3.38
534.399	3.31
534.745	3.36
535.091	3.26
535.437	3.32
535.783	3.37
536.129	3.36
536.474	3.46
536.82	3.47
537.166	3.39
537.512	3.42
537.857	3.4
538.203	3.43
538.549	3.32
538.894	3.41
539.239	3.34
539.585	3.49
539.93	3.58
540.276	3.55
540.621	3.48
540.966	3.48
541.311	3.52
541.656	3.55
542.001	3.47
542.346	3.45
542.691	3.34
543.036	3.4
543.381	3.42
543.726	3.5
544.071	3.43
544.415	3.52
544.76	3.49
545.105	3.47
545.449	3.48
545.794	3.52
546.138	3.59
546.483	3.56
546.827	3.47
547.171	3.66
547.516	3.6
547.86	3.5
548.204	3.55
548.548	3.56
548.892	3.61
549.236	3.65
549.58	3.61
549.924	3.64
550.268	3.83
550.612	3.62
550.956	3.91
551.3	3.89
551.643	3.71
551.987	3.96
552.33	3.78
552.674	3.65
553.017	3.78
553.361	3.88
553.704	3.84
554.048	3.7
554.391	3.95
554.734	3.69
555.077	3.74
555.42	3.74
555.764	3.89
556.107	3.88
556.45	3.82
556.793	3.93
557.135	3.78
557.478	3.69
557.821	3.93
558.164	3.95
558.507	3.87
558.849	3.94
559.192	3.85
559.534	3.83
559.877	3.76
560.219	3.87
560.562	3.85
560.904	4.01
561.246	3.73
561.589	4.07
561.931	3.96
562.273	3.89
562.615	3.9
562.957	3.83
563.299	4.03
563.641	4.17
563.983	3.74
564.325	3.92
564.667	3.95
565.008	3.91
565.35	3.72
565.692	4
566.033	4.1
566.375	4.09
566.716	4.04
567.058	3.98
567.399	4.14
567.741	3.97
568.082	4.03
568.423	3.98
568.764	4.03
569.105	4
569.447	4.06
569.788	4.13
570.129	3.99
570.47	4.01
570.811	4.05
571.151	4.1
571.492	4.24
571.833	4.11
572.174	4.16
572.514	4.16
572.855	4.3
573.195	4.14
573.536	4.25
573.876	4.16
574.217	4.05
574.557	4.19
574.898	4.17
575.238	4.28
575.578	4.16
575.918	4.26
576.258	4.39
576.598	4.13
576.938	4.18
577.278	4.19
577.618	4.08
577.958	4.25
578.298	4.22
578.638	4.29
578.977	4.42
579.317	4.18
579.657	4.44
579.996	4.34
580.336	4.46
580.675	4.35
581.014	4.5
581.354	4.27
581.693	4.28
582.032	4.46
582.372	4.41
582.711	4.63
583.05	4.27
583.389	4.33
583.728	4.51
584.067	4.46
584.406	4.8
584.745	4.35
585.083	4.77
585.422	4.63
585.761	4.54
586.1	4.45
586.438	4.59
586.777	4.53
587.115	4.59
587.454	4.33
587.792	4.53
588.13	4.49
588.469	4.71
588.807	4.87
589.145	4.66
589.483	4.41
589.821	4.84
590.159	4.68
590.497	4.72
590.835	4.82
591.173	4.76
591.511	4.73
591.849	4.78
592.187	4.75
592.524	4.95
592.862	4.73
593.2	4.75
593.537	4.72
593.875	4.76
594.212	4.96
594.55	4.93
594.887	4.86
595.224	4.85
595.561	4.68
595.899	4.85
596.236	4.9
596.573	4.78
596.91	4.77
597.247	5.12
597.584	4.94
597.921	4.96
598.258	4.96
598.594	4.72
598.931	4.67
599.268	4.79
599.604	5.11
599.941	4.95
600.277	5.12
600.614	4.8
600.95	4.95
601.287	4.78
601.623	4.9
601.959	5.35
602.296	5.13
602.632	5.14
602.968	5.1
603.304	5.25
603.64	4.96
603.976	4.94
604.312	4.94
604.648	5.14
604.984	5.16
605.319	5.16
605.655	5.2
605.991	5.26
606.326	5.16
606.662	4.98
606.998	5.3
607.333	5.14
607.668	5.16
608.004	5.21
608.339	5.11
608.674	5.4
609.01	5.57
609.345	5.24
609.68	5.33
610.015	5.58
610.35	5.31
610.685	5.09
611.02	5.2
611.355	5.22
611.689	5.39
612.024	5.5
612.359	5.49
612.694	5.5
613.028	5.39
613.363	5.61
613.697	5.69
614.032	5.51
614.366	5.62
614.7	5.6
615.035	5.45
615.369	5.59
615.703	5.9
616.037	5.4
616.371	5.44
616.705	5.54
617.039	5.83
617.373	5.71
617.707	5.72
618.041	5.31
618.375	5.25
618.709	5.68
619.042	5.69
619.376	5.67
619.71	5.39
620.043	5.82
620.377	5.93
620.71	5.74
621.043	6.21
621.377	5.94
621.71	6.29
622.043	5.98
622.376	5.77
622.709	6.6
623.043	5.75
623.376	6.1
623.709	6.11
624.041	5.66
624.374	6.11
624.707	5.69
625.04	6.07
625.373	6.29
625.705	6.17
626.038	6.01
626.37	5.87
626.703	6.12
627.035	6.15
627.368	6.32
627.7	6.33
628.032	6.12
628.365	6.35
628.697	6.42
629.029	6.09
629.361	6.45
629.693	6.29
630.025	6.48
630.357	6.45
630.689	6.45
631.021	6.36
631.353	6.54
631.684	6.16
632.016	5.73
632.348	6.13
632.679	6.45
633.011	6.6
633.342	6.58
633.674	5.92
634.005	6.27
634.336	6.66
634.668	6.43
634.999	6.5
635.33	6.6
635.661	6.35
635.992	6.52
636.323	6.54
636.654	6.52
636.985	6.66
637.316	6.61
637.647	6.88
637.977	6.53
638.308	6.78
638.639	6.88
638.969	6.76
639.3	6.58
639.63	6.73
639.961	6.86
640.291	6.64
640.622	7.04
640.952	7.41
641.282	6.79
641.612	7.08
641.943	6.37
642.273	6.89
642.603	6.87
642.933	7.31
643.263	7.38
643.592	7.25
643.922	7.39
644.252	6.84
644.582	7.18
644.911	6.89
645.241	7.12
645.571	6.96
645.9	7.06
646.23	7.42
646.559	7
646.888	7.64
647.218	7.19
647.547	7.21
647.876	7.09
648.205	7.03
648.534	7.35
648.863	6.98
649.192	7.21
649.521	7.22
649.85	7.26
650.179	7.25
650.508	7.18
650.837	7.7
651.165	7.32
651.494	7.37
651.822	7.72
652.151	7.27
652.479	7.8
652.808	7.5
653.136	7.17
653.465	7.49
653.793	7.72
654.121	7.11
654.449	7.44
654.777	7.26
655.105	7.49
655.433	7.83
655.761	7.26
656.089	7.72
656.417	7.95
656.745	7.51
657.073	7.53
657.4	7.79
657.728	6.96
658.056	7.65
658.383	7.5
658.711	8.08
659.038	8.17
659.365	8.31
659.693	7.93
660.02	7.54
660.347	7.92
660.674	7.76
661.001	7.63
661.329	7.81
661.656	7.61
661.982	7.55
662.309	7.83
662.636	8.14
662.963	7.75
663.29	8.28
663.616	7.45
663.943	7.68
664.27	7.71
664.596	7.88
664.923	8.33
665.249	8.09
665.576	7.98
665.902	7.42
666.228	7.78
666.554	8.79
666.881	7.67
667.207	8.59
667.533	8.51
667.859	7.88
668.185	8.74
668.511	8.88
668.837	7.81
669.162	8.52
669.488	8.13
669.814	8.32
670.139	8.14
670.465	8.78
670.791	7.81
671.116	8.36
671.442	8.12
671.767	8.41
672.092	8.2
672.418	8.37
672.743	8.09
673.068	8.15
673.393	8.77
673.718	8.29
674.043	8.27
674.368	8.92
674.693	8.77
675.018	8.71
675.343	9.66
675.667	9.09
675.992	9.13
676.317	8.29
676.641	9.01
676.966	8.93
677.29	8.63
677.615	8.71
677.939	9.13
678.264	8.67
678.588	9.37
678.912	8.7
679.236	9.04
679.56	8.2
679.885	8.76
680.209	9.07
680.532	9.14
680.856	9.61
681.18	10.04
681.504	8.87
681.828	8.5
682.152	8.93
682.475	9.34
682.799	9.47
683.122	9.25
683.446	8.84
683.769	9.92
684.093	9.41
684.416	9.12
684.739	9.22
685.062	9.01
685.386	9.75
685.709	9.61
686.032	9.12
686.355	9.47
686.678	9.69
687.001	8.89
687.324	8.97
687.646	9.4
687.969	10.08
688.292	9.31
688.614	9.86
688.937	10.08
689.26	10.1
689.582	9.66
689.904	9.86
690.227	9.64
690.549	9.84
690.871	9.56
691.194	9.41
691.516	9.77
691.838	9.93
