Data from 21-6_crown_Reflection__1__101.txt Node

Date: Thu Dec 15 17:15:47 CST 2022
User: ToomeyLab
Spectrometer: FLMS14357
Trigger mode: 0
Integration Time (sec): 1.000000E-2
Scans to average: 100
Electric dark correction enabled: true
Nonlinearity correction enabled: false
Boxcar width: 0
XAxis mode: Wavelengths
Number of Pixels in Spectrum: 2048
>>>>>Begin Spectral Data<<<<<
189.047	-54.82
189.435	-54.82
189.823	-54.82
190.211	-80.91
190.599	51
190.987	83.47
191.375	-100
191.763	-234.16
192.151	-111.23
192.538	90.58
192.926	230.52
193.314	6647.83
193.702	-153.07
194.089	261.45
194.477	33.41
194.864	129.84
195.252	187.43
195.639	132.31
196.027	531.58
196.414	-2.99
196.801	-32.71
197.189	-1675.16
197.576	-11.46
197.963	11.38
198.351	-20.14
198.738	-33.97
199.125	-28.71
199.512	17.35
199.899	-44.52
200.286	-10.1
200.673	20.73
201.06	4.7
201.447	-68.84
201.833	42.4
202.22	-12.33
202.607	100.57
202.994	-32.51
203.38	-13.66
203.767	-8.03
204.154	5.78
204.54	-21.31
204.927	-24.64
205.313	28.14
205.699	18.25
206.086	25.06
206.472	21.56
206.858	-8.65
207.245	-23.83
207.631	-1.66
208.017	46.08
208.403	-72.01
208.789	-4.51
209.175	13.95
209.561	-51.86
209.947	-11.09
210.333	1.14
210.719	27.14
211.105	30.35
211.491	0.08
211.876	20.73
212.262	-0.38
212.648	-2.51
213.034	-23.45
213.419	-6.6
213.805	-48.7
214.19	2.96
214.576	5.35
214.961	21.58
215.346	-33.18
215.732	3.92
216.117	-17.17
216.502	-27.91
216.888	-0.35
217.273	2.91
217.658	6.88
218.043	-7.36
218.428	-8.41
218.813	11.37
219.198	-18.39
219.583	13.47
219.968	14.38
220.353	-17.88
220.738	5.61
221.122	17.83
221.507	-12.52
221.892	-30.52
222.276	-24.98
222.661	-7.53
223.046	-18.01
223.43	10.26
223.815	-1.14
224.199	-10.21
224.583	-6.58
224.968	-8.38
225.352	-3.88
225.736	5.65
226.121	0.54
226.505	2.23
226.889	1.64
227.273	-6.35
227.657	0.63
228.041	1.66
228.425	-3.38
228.809	-0.56
229.193	1.51
229.577	0.99
229.961	1.23
230.344	1.39
230.728	1.89
231.112	2.25
231.495	-0.14
231.879	1
232.263	1.22
232.646	-0.22
233.03	2.6
233.413	2.18
233.797	0.48
234.18	2.86
234.563	1.76
234.946	0.23
235.33	0.67
235.713	0.35
236.096	3.7
236.479	1.88
236.862	0.2
237.245	0.01
237.628	1.81
238.011	0.27
238.394	0.6
238.777	1.5
239.16	2.08
239.543	0.91
239.925	0.55
240.308	1.01
240.691	0.61
241.073	1.19
241.456	0.64
241.838	0.61
242.221	0.49
242.603	1.15
242.986	1.58
243.368	1.11
243.75	1.55
244.133	1.6
244.515	1.04
244.897	0.86
245.279	1.01
245.661	1.26
246.043	1.11
246.425	2.16
246.807	1.24
247.189	1.28
247.571	1.19
247.953	1.11
248.335	1.35
248.717	1.4
249.098	1.31
249.48	1.26
249.862	1.29
250.243	1.46
250.625	1.27
251.006	1.64
251.388	0.97
251.769	0.34
252.151	1.33
252.532	0.67
252.913	1.35
253.295	1.18
253.676	1.6
254.057	1.21
254.438	0.88
254.819	0.84
255.2	1.98
255.581	1.57
255.962	1.39
256.343	2.23
256.724	1.41
257.105	2.06
257.486	0.53
257.867	0.78
258.247	0.63
258.628	2.01
259.009	0.69
259.389	0.27
259.77	0.54
260.15	2.35
260.531	1.39
260.911	1.17
261.292	1.46
261.672	1.34
262.052	1.26
262.432	1.16
262.813	1.18
263.193	1.51
263.573	1.06
263.953	0.42
264.333	1.56
264.713	2.05
265.093	1.17
265.473	0.52
265.853	0.92
266.233	1.06
266.612	0.31
266.992	1.53
267.372	1.12
267.752	1.42
268.131	1.04
268.511	1.27
268.89	1.84
269.27	0.8
269.649	1.08
270.029	1.33
270.408	1.06
270.787	1.15
271.167	1.23
271.546	1.82
271.925	1.33
272.304	1.48
272.683	0.85
273.062	1.16
273.441	1.04
273.82	1.44
274.199	1.34
274.578	1.42
274.957	1.25
275.336	1.48
275.715	1.47
276.093	0.68
276.472	0.67
276.851	1.37
277.229	1.02
277.608	0.66
277.986	0.97
278.365	1.58
278.743	1.6
279.122	0.89
279.5	0.84
279.878	0.98
280.257	1.64
280.635	1.24
281.013	1.02
281.391	0.75
281.769	1.25
282.147	1.53
282.525	1.22
282.903	0.93
283.281	1.33
283.659	1.78
284.037	1.05
284.415	0.98
284.792	1.25
285.17	0.93
285.548	0.87
285.925	0.83
286.303	1.8
286.68	1.09
287.058	1.37
287.435	1.2
287.813	1.13
288.19	1.05
288.567	1.05
288.945	1.17
289.322	1.03
289.699	1.65
290.076	1.29
290.453	0.82
290.83	1.32
291.207	1.1
291.584	1.4
291.961	1.04
292.338	1.14
292.715	1.2
293.092	1.69
293.469	1.05
293.845	1.17
294.222	1.9
294.599	1.25
294.975	0.72
295.352	1.23
295.728	1.48
296.105	1.02
296.481	1.52
296.858	1.13
297.234	1.03
297.61	1.35
297.986	1.54
298.363	1.58
298.739	1.84
299.115	1.39
299.491	1.71
299.867	1.48
300.243	1.2
300.619	1.09
300.995	1.09
301.371	1.75
301.746	1.52
302.122	0.91
302.498	1.08
302.874	1.84
303.249	1.31
303.625	1.16
304	1.77
304.376	2.05
304.751	1.7
305.127	1.36
305.502	1.34
305.878	1.54
306.253	1.28
306.628	1.56
307.003	1.21
307.378	1.27
307.754	1.4
308.129	0.98
308.504	1.78
308.879	1.42
309.254	1.81
309.629	1.68
310.003	0.99
310.378	1.34
310.753	1.29
311.128	1.12
311.502	1.77
311.877	1.3
312.252	1.42
312.626	1.76
313.001	1.95
313.375	1.51
313.75	1.65
314.124	1.6
314.498	2.07
314.873	1.26
315.247	1.12
315.621	1.23
315.995	1.53
316.369	1.46
316.743	0.92
317.117	1.24
317.491	1.83
317.865	1.1
318.239	2.19
318.613	1.25
318.987	1.19
319.361	1.38
319.734	1.2
320.108	0.85
320.482	2.14
320.855	1.66
321.229	1.28
321.602	1.26
321.976	0.8
322.349	1.7
322.723	1.5
323.096	1.67
323.469	1.1
323.843	1.36
324.216	1.43
324.589	1.68
324.962	1.2
325.335	1.25
325.708	2.05
326.081	1.32
326.454	1.97
326.827	1.66
327.2	1.48
327.573	2.16
327.945	1.57
328.318	1.01
328.691	1.54
329.063	1.7
329.436	1.26
329.809	1.57
330.181	2.31
330.553	1.67
330.926	2.06
331.298	1.78
331.671	1.92
332.043	1.42
332.415	1.53
332.787	1.7
333.159	1.38
333.532	1.79
333.904	1.9
334.276	1.95
334.648	1.9
335.02	1.5
335.391	1.4
335.763	1.74
336.135	1.57
336.507	1.57
336.879	1.87
337.25	1.67
337.622	1.74
337.993	1.72
338.365	1.25
338.736	1.94
339.108	1.57
339.479	1.68
339.851	2.15
340.222	2.19
340.593	1.56
340.964	1.81
341.336	1.68
341.707	1.37
342.078	1.64
342.449	1.58
342.82	1.85
343.191	1.65
343.562	1.84
343.933	1.45
344.303	1.67
344.674	1.61
345.045	1.74
345.416	2.08
345.786	1.73
346.157	1.81
346.527	1.8
346.898	1.41
347.268	1.89
347.639	1.55
348.009	1.73
348.38	1.54
348.75	1.68
349.12	1.58
349.49	1.72
349.861	1.73
350.231	1.64
350.601	1.29
350.971	1.62
351.341	1.67
351.711	1.71
352.081	1.34
352.45	1.11
352.82	1.16
353.19	1.42
353.56	1.63
353.929	1.29
354.299	1.77
354.669	1.85
355.038	2.01
355.408	1.61
355.777	1.72
356.147	1.65
356.516	1.71
356.885	1.83
357.254	1.37
357.624	1
357.993	1.68
358.362	1.69
358.731	1.91
359.1	1.71
359.469	1.93
359.838	1.71
360.207	1.62
360.576	1.6
360.945	1.68
361.314	1.56
361.682	1.47
362.051	1.67
362.42	1.41
362.788	1.8
363.157	1.66
363.525	1.71
363.894	1.55
364.262	1.85
364.631	1.72
364.999	1.52
365.367	1.56
365.735	1.59
366.104	1.36
366.472	1.77
366.84	1.71
367.208	2.05
367.576	1.69
367.944	1.8
368.312	1.5
368.68	1.93
369.048	1.6
369.416	1.49
369.783	1.62
370.151	1.92
370.519	2.07
370.886	1.68
371.254	1.97
371.621	2.06
371.989	2.13
372.356	1.61
372.724	1.68
373.091	1.34
373.458	1.45
373.826	1.79
374.193	1.83
374.56	1.99
374.927	1.47
375.294	2
375.661	1.76
376.028	1.48
376.395	1.78
376.762	1.64
377.129	1.74
377.496	1.77
377.863	1.56
378.229	1.88
378.596	1.8
378.963	1.78
379.329	1.69
379.696	1.54
380.062	1.76
380.429	1.55
380.795	1.93
381.161	1.72
381.528	1.54
381.894	1.73
382.26	1.79
382.626	1.72
382.993	1.89
383.359	1.86
383.725	1.43
384.091	1.86
384.457	1.39
384.823	1.96
385.188	1.86
385.554	1.8
385.92	1.48
386.286	1.62
386.651	1.6
387.017	1.95
387.383	1.9
387.748	1.89
388.114	1.47
388.479	1.59
388.845	1.44
389.21	1.92
389.575	1.94
389.94	2.14
390.306	1.89
390.671	1.82
391.036	1.68
391.401	1.84
391.766	1.64
392.131	1.89
392.496	1.61
392.861	1.75
393.226	1.75
393.591	1.93
393.956	1.72
394.32	1.9
394.685	1.74
395.05	1.83
395.414	1.83
395.779	1.98
396.143	1.63
396.508	1.88
396.872	1.8
397.236	2.17
397.601	1.91
397.965	1.93
398.329	1.8
398.694	1.51
399.058	1.92
399.422	1.83
399.786	1.68
400.15	1.9
400.514	1.81
400.878	1.79
401.242	1.8
401.605	1.77
401.969	1.76
402.333	1.61
402.697	1.79
403.06	1.84
403.424	1.79
403.787	1.63
404.151	1.88
404.514	1.67
404.878	1.72
405.241	1.81
405.604	1.8
405.968	1.73
406.331	1.94
406.694	1.88
407.057	1.67
407.42	1.68
407.783	2
408.146	1.57
408.509	1.89
408.872	1.82
409.235	1.97
409.598	1.71
409.961	1.92
410.323	1.63
410.686	1.81
411.049	1.82
411.411	1.95
411.774	1.93
412.136	1.97
412.499	1.94
412.861	1.6
413.223	1.84
413.586	1.77
413.948	1.94
414.31	1.93
414.672	1.67
415.035	1.96
415.397	1.7
415.759	1.53
416.121	1.96
416.483	1.81
416.845	1.91
417.206	1.85
417.568	1.8
417.93	1.88
418.292	1.63
418.653	1.73
419.015	1.81
419.377	1.64
419.738	1.87
420.1	1.82
420.461	1.74
420.822	1.9
421.184	1.88
421.545	1.9
421.906	1.97
422.267	1.77
422.629	1.76
422.99	1.84
423.351	1.83
423.712	1.88
424.073	1.85
424.434	1.94
424.795	1.87
425.155	1.71
425.516	1.83
425.877	1.78
426.238	1.84
426.598	1.89
426.959	1.83
427.32	1.78
427.68	1.87
428.041	1.9
428.401	1.79
428.761	1.88
429.122	1.88
429.482	1.85
429.842	1.84
430.202	1.96
430.563	1.78
430.923	1.87
431.283	2.05
431.643	2.05
432.003	1.75
432.363	2.08
432.722	1.86
433.082	1.88
433.442	1.92
433.802	1.77
434.161	1.85
434.521	1.76
434.881	1.93
435.24	1.84
435.6	1.87
435.959	2.03
436.319	2.05
436.678	2.05
437.037	1.98
437.396	1.92
437.756	1.88
438.115	1.83
438.474	2
438.833	1.85
439.192	1.8
439.551	1.77
439.91	1.99
440.269	1.87
440.628	1.95
440.987	1.95
441.345	1.75
441.704	1.73
442.063	1.84
442.421	1.87
442.78	1.91
443.138	1.94
443.497	1.8
443.855	2.01
444.214	1.81
444.572	2
444.93	1.86
445.288	1.92
445.647	1.8
446.005	1.91
446.363	1.9
446.721	1.9
447.079	1.79
447.437	2.01
447.795	1.95
448.153	1.89
448.51	1.94
448.868	1.86
449.226	2.01
449.584	1.86
449.941	1.95
450.299	1.82
450.656	1.9
451.014	1.97
451.371	1.85
451.729	2
452.086	1.89
452.443	1.92
452.801	1.83
453.158	2.05
453.515	2.02
453.872	1.84
454.229	1.78
454.586	1.82
454.943	1.93
455.3	1.93
455.657	1.9
456.014	1.99
456.371	1.95
456.727	1.99
457.084	2.1
457.441	1.97
457.797	2.01
458.154	1.93
458.51	1.72
458.867	1.95
459.223	1.95
459.58	1.96
459.936	1.91
460.292	1.93
460.648	1.92
461.005	1.87
461.361	1.92
461.717	1.92
462.073	2.04
462.429	1.97
462.785	2.04
463.141	1.93
463.496	1.96
463.852	2.01
464.208	2.14
464.564	1.88
464.919	2.04
465.275	2.05
465.631	2.24
465.986	2.07
466.342	1.98
466.697	2.06
467.052	2.12
467.408	2.03
467.763	1.86
468.118	1.91
468.473	2.03
468.829	2
469.184	2.06
469.539	1.98
469.894	2.08
470.249	2.09
470.603	2.13
470.958	2.14
471.313	1.99
471.668	1.99
472.023	2.03
472.377	1.76
472.732	2.14
473.086	1.98
473.441	1.97
473.795	2.28
474.15	2.04
474.504	1.97
474.859	1.8
475.213	1.91
475.567	1.85
475.921	2.09
476.275	2.01
476.63	2.02
476.984	1.93
477.338	2.16
477.692	1.99
478.045	2.01
478.399	2.09
478.753	1.96
479.107	2.13
479.461	1.98
479.814	2.05
480.168	2
480.521	2.21
480.875	2.02
481.228	2.01
481.582	1.98
481.935	2.15
482.289	2.12
482.642	2.11
482.995	1.98
483.348	1.99
483.701	2.11
484.055	1.97
484.408	1.99
484.761	1.94
485.114	1.86
485.466	1.87
485.819	1.88
486.172	1.91
486.525	1.96
486.878	2
487.23	1.95
487.583	1.99
487.936	1.97
488.288	1.99
488.641	1.94
488.993	1.95
489.345	1.98
489.698	1.94
490.05	1.96
490.402	1.97
490.754	1.94
491.107	1.92
491.459	2.05
491.811	1.97
492.163	2.01
492.515	2.01
492.866	1.94
493.218	1.94
493.57	1.96
493.922	2
494.274	2.13
494.625	2.09
494.977	2.07
495.328	2.15
495.68	2.03
496.031	2.1
496.383	2.02
496.734	2.06
497.086	2.16
497.437	2.22
497.788	2.16
498.139	2.06
498.49	2.08
498.842	2.17
499.193	2.01
499.544	2.11
499.894	2.07
500.245	2.19
500.596	2.16
500.947	2.02
501.298	2.09
501.648	2.07
501.999	2.2
502.35	2.06
502.7	2.23
503.051	2.18
503.401	2.26
503.752	2.1
504.102	2.08
504.452	2.02
504.803	2.03
505.153	2.22
505.503	2.1
505.853	2.14
506.203	2.06
506.553	2.1
506.903	2.25
507.253	2.08
507.603	2.14
507.953	2.1
508.303	2.2
508.652	2.01
509.002	2.24
509.352	2.21
509.701	2.05
510.051	2.17
510.4	2.22
510.75	2.12
511.099	2
511.449	2.15
511.798	2.06
512.147	2.09
512.496	2.14
512.846	2.22
513.195	2.13
513.544	2.26
513.893	2.09
514.242	2.1
514.591	2.04
514.939	2.12
515.288	2.18
515.637	2.18
515.986	2.27
516.334	2.19
516.683	2.17
517.032	2.17
517.38	2.1
517.729	2.16
518.077	2.1
518.426	2.23
518.774	2.15
519.122	2.16
519.47	2.14
519.819	2.24
520.167	2.12
520.515	2.22
520.863	2.12
521.211	2.08
521.559	2.11
521.907	2.24
522.255	2.12
522.602	2.26
522.95	2.31
523.298	2.18
523.645	2.24
523.993	2.26
524.341	2.17
524.688	2.17
525.036	2.18
525.383	2.2
525.73	2.06
526.078	2.12
526.425	2.2
526.772	2.09
527.119	2.17
527.466	2.11
527.814	2.16
528.161	2.19
528.508	2.19
528.854	2.2
529.201	2.12
529.548	2.13
529.895	2.08
530.242	2.06
530.588	2.06
530.935	2.07
531.282	2.1
531.628	2.15
531.975	2.14
532.321	2.18
532.667	2.22
533.014	2.25
533.36	2.11
533.706	2.16
534.052	2.18
534.399	2.19
534.745	2.1
535.091	2.1
535.437	2.15
535.783	2.16
536.129	2.22
536.474	2.25
536.82	2.23
537.166	2.15
537.512	2.14
537.857	2.22
538.203	2.15
538.549	2.09
538.894	2.21
539.239	2.29
539.585	2.27
539.93	2.31
540.276	2.22
540.621	2.28
540.966	2.18
541.311	2.21
541.656	2.17
542.001	2.16
542.346	2.12
542.691	2.1
543.036	2.14
543.381	2.15
543.726	2.27
544.071	2.18
544.415	2.24
544.76	2.22
545.105	2.19
545.449	2.24
545.794	2.22
546.138	2.22
546.483	2.27
546.827	2.3
547.171	2.33
547.516	2.28
547.86	2.27
548.204	2.28
548.548	2.23
548.892	2.24
549.236	2.31
549.58	2.3
549.924	2.34
550.268	2.35
550.612	2.37
550.956	2.31
551.3	2.46
551.643	2.34
551.987	2.45
552.33	2.48
552.674	2.28
553.017	2.44
553.361	2.42
553.704	2.56
554.048	2.34
554.391	2.44
554.734	2.22
555.077	2.38
555.42	2.44
555.764	2.38
556.107	2.5
556.45	2.52
556.793	2.6
557.135	2.23
557.478	2.45
557.821	2.31
558.164	2.49
558.507	2.3
558.849	2.46
559.192	2.39
559.534	2.38
559.877	2.35
560.219	2.37
560.562	2.46
560.904	2.54
561.246	2.43
561.589	2.43
561.931	2.42
562.273	2.38
562.615	2.39
562.957	2.4
563.299	2.39
563.641	2.39
563.983	2.38
564.325	2.33
564.667	2.43
565.008	2.42
565.35	2.28
565.692	2.38
566.033	2.13
566.375	2.37
566.716	2.26
567.058	2.45
567.399	2.45
567.741	2.42
568.082	2.46
568.423	2.44
568.764	2.39
569.105	2.42
569.447	2.45
569.788	2.34
570.129	2.41
570.47	2.45
570.811	2.32
571.151	2.35
571.492	2.38
571.833	2.31
572.174	2.66
572.514	2.5
572.855	2.47
573.195	2.43
573.536	2.47
573.876	2.46
574.217	2.44
574.557	2.44
574.898	2.42
575.238	2.59
575.578	2.52
575.918	2.49
576.258	2.59
576.598	2.28
576.938	2.45
577.278	2.47
577.618	2.47
577.958	2.52
578.298	2.37
578.638	2.29
578.977	2.52
579.317	2.53
579.657	2.54
579.996	2.58
580.336	2.59
580.675	2.39
581.014	2.38
581.354	2.26
581.693	2.88
582.032	2.66
582.372	2.54
582.711	2.61
583.05	2.48
583.389	2.61
583.728	2.49
584.067	2.55
584.406	2.65
584.745	2.43
585.083	2.39
585.422	2.76
585.761	2.48
586.1	2.71
586.438	2.4
586.777	2.44
587.115	2.54
587.454	2.43
587.792	2.6
588.13	2.64
588.469	2.51
588.807	2.69
589.145	2.67
589.483	2.36
589.821	2.64
590.159	2.47
590.497	2.47
590.835	2.65
591.173	2.81
591.511	2.85
591.849	2.59
592.187	2.39
592.524	2.76
592.862	2.39
593.2	2.68
593.537	2.5
593.875	2.61
594.212	2.68
594.55	2.41
594.887	2.83
595.224	2.59
595.561	2.77
595.899	2.62
596.236	2.66
596.573	2.44
596.91	2.6
597.247	2.85
597.584	2.53
597.921	2.57
598.258	2.6
598.594	2.57
598.931	2.43
599.268	2.38
599.604	2.58
599.941	2.58
600.277	2.52
600.614	2.6
600.95	2.39
601.287	2.32
601.623	2.28
601.959	2.85
602.296	2.71
602.632	2.49
602.968	2.41
603.304	2.56
603.64	2.57
603.976	2.34
604.312	2.59
604.648	2.63
604.984	2.7
605.319	2.66
605.655	2.7
605.991	2.46
606.326	2.54
606.662	2.48
606.998	2.7
607.333	2.5
607.668	2.63
608.004	2.73
608.339	2.46
608.674	2.61
609.01	2.84
609.345	2.77
609.68	2.7
610.015	2.73
610.35	2.82
610.685	2.53
611.02	2.63
611.355	2.78
611.689	2.54
612.024	2.77
612.359	2.72
612.694	2.85
613.028	2.61
613.363	2.57
613.697	2.67
614.032	2.71
614.366	2.87
614.7	2.86
615.035	2.57
615.369	2.92
615.703	2.85
616.037	2.75
616.371	2.64
616.705	2.67
617.039	2.75
617.373	2.73
617.707	2.8
618.041	2.63
618.375	2.23
618.709	2.62
619.042	2.6
619.376	2.82
619.71	2.62
620.043	2.98
620.377	2.6
620.71	2.89
621.043	2.86
621.377	2.92
621.71	2.99
622.043	2.88
622.376	2.98
622.709	3.09
623.043	2.81
623.376	2.8
623.709	2.99
624.041	2.37
624.374	2.86
624.707	3.11
625.04	2.58
625.373	2.87
625.705	2.82
626.038	3.09
626.37	2.79
626.703	2.89
627.035	2.64
627.368	3.06
627.7	3.01
628.032	2.8
628.365	2.91
628.697	3
629.029	2.9
629.361	3.03
629.693	2.88
630.025	2.84
630.357	3.09
630.689	2.72
631.021	3
631.353	3.01
631.684	2.68
632.016	2.61
632.348	2.77
632.679	3.11
633.011	3
633.342	2.75
633.674	2.84
634.005	2.93
634.336	3.02
634.668	3.14
634.999	2.83
635.33	2.71
635.661	2.67
635.992	2.81
636.323	2.98
636.654	2.76
636.985	2.8
637.316	2.76
637.647	2.71
637.977	2.82
638.308	2.97
638.639	2.77
638.969	2.63
639.3	2.94
639.63	2.72
639.961	2.99
640.291	2.75
640.622	3.17
640.952	3.18
641.282	2.52
641.612	2.73
641.943	2.48
642.273	2.8
642.603	3
642.933	2.99
643.263	3.02
643.592	3.23
643.922	3.49
644.252	2.83
644.582	2.84
644.911	2.93
645.241	2.7
645.571	3.03
645.9	3.2
646.23	2.88
646.559	2.74
646.888	2.84
647.218	2.85
647.547	3.12
647.876	2.97
648.205	2.58
648.534	3.12
648.863	2.58
649.192	2.92
649.521	2.94
649.85	3
650.179	3.52
650.508	2.66
650.837	3.25
651.165	3.08
651.494	3.14
651.822	2.95
652.151	2.75
652.479	3.23
652.808	3.19
653.136	3.19
653.465	2.78
653.793	3.12
654.121	2.99
654.449	2.75
654.777	2.81
655.105	2.6
655.433	3.37
655.761	3.15
656.089	2.64
656.417	3.33
656.745	3.17
657.073	2.94
657.4	2.93
657.728	2.31
658.056	2.85
658.383	2.85
658.711	3.09
659.038	3.25
659.365	3.14
659.693	2.82
660.02	2.9
660.347	2.93
660.674	2.86
661.001	2.95
661.329	3.1
661.656	2.71
661.982	2.86
662.309	3.23
662.636	3.07
662.963	3.17
663.29	3.13
663.616	3.14
663.943	3.36
664.27	2.95
664.596	2.58
664.923	3.1
665.249	3.64
665.576	2.75
665.902	2.59
666.228	3.08
666.554	3.71
666.881	2.87
667.207	2.98
667.533	3.14
667.859	3.03
668.185	3.07
668.511	3.74
668.837	3.23
669.162	3.14
669.488	2.7
669.814	3
670.139	2.7
670.465	3.76
670.791	2.69
671.116	2.88
671.442	2.92
671.767	3.15
672.092	3.07
672.418	2.79
672.743	2.91
673.068	3.1
673.393	3.22
673.718	2.22
674.043	2.36
674.368	3.23
674.693	2.77
675.018	3.23
675.343	3.87
675.667	3.36
675.992	3.8
676.317	2.15
676.641	3.61
676.966	3.17
677.29	2.6
677.615	2.94
677.939	3.45
678.264	3.27
678.588	3.03
678.912	3.21
679.236	2.82
679.56	3.05
679.885	3.04
680.209	3.01
680.532	3.66
680.856	3.15
681.18	3.72
681.504	2.9
681.828	3.15
682.152	2.96
682.475	3.03
682.799	3.15
683.122	3.03
683.446	2.37
683.769	3.18
684.093	3.2
684.416	2.75
684.739	2.99
685.062	3.09
685.386	3.44
685.709	3.2
686.032	3.11
686.355	3.44
686.678	3.37
687.001	2.94
687.324	2.99
687.646	3.2
687.969	3.15
688.292	2.89
688.614	3.97
688.937	3.35
689.26	3.41
689.582	3.34
689.904	3.2
690.227	3.44
690.549	3.59
690.871	3.23
691.194	2.9
691.516	2.85
691.838	3.52
692.16	3.1
692.482	3.22
692.804	3.34
