Data from 21-6_forehead_Reflection__3__108.txt Node

Date: Thu Dec 15 17:17:34 CST 2022
User: ToomeyLab
Spectrometer: FLMS14357
Trigger mode: 0
Integration Time (sec): 1.000000E-2
Scans to average: 100
Electric dark correction enabled: true
Nonlinearity correction enabled: false
Boxcar width: 0
XAxis mode: Wavelengths
Number of Pixels in Spectrum: 2048
>>>>>Begin Spectral Data<<<<<
189.047	74.03
189.435	74.03
189.823	74.03
190.211	7.47
190.599	25.72
190.987	-124.76
191.375	-92.54
191.763	-862.42
192.151	139.15
192.538	32.73
192.926	94.98
193.314	2628.26
193.702	-236.73
194.089	-81.6
194.477	136.1
194.864	135.15
195.252	69.76
195.639	274.68
196.027	317.33
196.414	87.95
196.801	98.29
197.189	-2611.49
197.576	199.38
197.963	172.76
198.351	-1.96
198.738	-81.82
199.125	-75.81
199.512	15.38
199.899	-65.31
200.286	-61.81
200.673	31.15
201.06	-1.15
201.447	64.12
201.833	36.48
202.22	44.89
202.607	377.35
202.994	-7.32
203.38	13.7
203.767	14.21
204.154	14.42
204.54	12.92
204.927	29.92
205.313	52.07
205.699	40.69
206.086	-12.15
206.472	14.83
206.858	-20.08
207.245	-13.1
207.631	-70.02
208.017	39.11
208.403	-0.62
208.789	13.87
209.175	-2.19
209.561	-10.83
209.947	38.75
210.333	6.97
210.719	19.9
211.105	32.52
211.491	-0.84
211.876	-5.16
212.262	19.75
212.648	4.59
213.034	-6.87
213.419	31.6
213.805	5.84
214.19	-26.89
214.576	-26.39
214.961	3.33
215.346	-61.4
215.732	3.97
216.117	-16.52
216.502	-27.59
216.888	-10.39
217.273	3.29
217.658	-31.95
218.043	-13.03
218.428	-5.9
218.813	28
219.198	-19.65
219.583	-9.26
219.968	6.11
220.353	-18.38
220.738	-4.65
221.122	-5.2
221.507	-2.25
221.892	-33.32
222.276	-14.69
222.661	2.72
223.046	7.96
223.43	11.61
223.815	-4.13
224.199	-5.76
224.583	-1.72
224.968	2.7
225.352	4.61
225.736	11.83
226.121	-1.79
226.505	-7.62
226.889	-0.26
227.273	-7.46
227.657	5.72
228.041	-0.62
228.425	1.61
228.809	2.81
229.193	2.55
229.577	2
229.961	0.74
230.344	2.63
230.728	3.22
231.112	3.34
231.495	1.43
231.879	1.54
232.263	3.59
232.646	1.65
233.03	3.28
233.413	2.99
233.797	-0.65
234.18	4.6
234.563	3.15
234.946	3.88
235.33	2.48
235.713	1.18
236.096	4.4
236.479	2.72
236.862	2.74
237.245	1.97
237.628	2.46
238.011	2.8
238.394	1.88
238.777	2.16
239.16	2.56
239.543	4.83
239.925	3.26
240.308	1.57
240.691	2.65
241.073	2.48
241.456	2.76
241.838	1.96
242.221	2.72
242.603	2.9
242.986	2.7
243.368	2.86
243.75	3.38
244.133	3.01
244.515	3.05
244.897	2.68
245.279	2.68
245.661	2.01
246.043	2
246.425	3.24
246.807	2.96
247.189	2.97
247.571	2.81
247.953	2.7
248.335	2.96
248.717	3.12
249.098	3.13
249.48	3.13
249.862	2.95
250.243	2.93
250.625	3.28
251.006	3.13
251.388	3.15
251.769	2.54
252.151	3.05
252.532	1.99
252.913	3.21
253.295	3.06
253.676	3.11
254.057	3.05
254.438	2.85
254.819	2.64
255.2	3.54
255.581	3.83
255.962	3.21
256.343	3.45
256.724	2.75
257.105	2.81
257.486	1.98
257.867	2.19
258.247	2.56
258.628	3.27
259.009	2.3
259.389	2.09
259.77	2.52
260.15	3.52
260.531	3.29
260.911	2.84
261.292	2.88
261.672	2.93
262.052	2.76
262.432	2.68
262.813	2.99
263.193	2.95
263.573	2.67
263.953	2.32
264.333	3.13
264.713	3.08
265.093	3.16
265.473	2.93
265.853	3.06
266.233	2.7
266.612	2.57
266.992	2.64
267.372	3.32
267.752	3.38
268.131	2.95
268.511	2.54
268.89	3.38
269.27	1.85
269.649	1.82
270.029	2.83
270.408	1.95
270.787	2.84
271.167	3.52
271.546	3.76
271.925	2.71
272.304	2.5
272.683	2.42
273.062	2.73
273.441	2.59
273.82	2.67
274.199	2.64
274.578	2.73
274.957	2.33
275.336	2.75
275.715	3.13
276.093	2.35
276.472	2.06
276.851	2.69
277.229	2.64
277.608	1.92
277.986	2.79
278.365	3.2
278.743	2.66
279.122	2.64
279.5	2.34
279.878	2.45
280.257	2.48
280.635	2.48
281.013	2.43
281.391	2.47
281.769	3.33
282.147	3.04
282.525	2.72
282.903	2.72
283.281	3.12
283.659	2.49
284.037	2.52
284.415	2.77
284.792	3.06
285.17	2.24
285.548	2.77
285.925	2.43
286.303	3
286.68	2.8
287.058	2.8
287.435	2.5
287.813	2.6
288.19	2.43
288.567	2.62
288.945	2.96
289.322	3.18
289.699	2.9
290.076	2.4
290.453	2.51
290.83	3.2
291.207	2.45
291.584	3.19
291.961	3.05
292.338	2.71
292.715	2.72
293.092	2.93
293.469	2.62
293.845	2.76
294.222	3.38
294.599	2.63
294.975	2.12
295.352	3.48
295.728	3.32
296.105	2.6
296.481	3.44
296.858	3.39
297.234	2.59
297.61	3.06
297.986	3.85
298.363	3.42
298.739	3.19
299.115	3.08
299.491	3.19
299.867	3.1
300.243	3.21
300.619	3.25
300.995	3.06
301.371	3.02
301.746	3.33
302.122	2.95
302.498	3.04
302.874	3.84
303.249	3.19
303.625	3.46
304	3.54
304.376	3.37
304.751	3.68
305.127	3.49
305.502	3.9
305.878	3.8
306.253	3.58
306.628	3.38
307.003	4
307.378	4.05
307.754	3.83
308.129	3.6
308.504	4.09
308.879	3.71
309.254	4.06
309.629	4.19
310.003	3.63
310.378	4.11
310.753	3.99
311.128	4.11
311.502	4.13
311.877	3.93
312.252	4.05
312.626	4.58
313.001	3.96
313.375	4.36
313.75	4.58
314.124	4.51
314.498	4.42
314.873	4
315.247	4.42
315.621	4.19
315.995	4.21
316.369	4.44
316.743	4.46
317.117	4.54
317.491	4.45
317.865	4.19
318.239	5.09
318.613	4.6
318.987	4.48
319.361	4.58
319.734	4.72
320.108	4.94
320.482	4.91
320.855	4.72
321.229	5.05
321.602	4.96
321.976	4.46
322.349	5.76
322.723	4.67
323.096	5.23
323.469	4.96
323.843	4.49
324.216	4.94
324.589	5.55
324.962	4.8
325.335	4.84
325.708	5.5
326.081	5.41
326.454	5.23
326.827	5.46
327.2	4.84
327.573	5.79
327.945	5.18
328.318	5.14
328.691	5.35
329.063	5.2
329.436	5.17
329.809	5.69
330.181	6.31
330.553	5.72
330.926	5.74
331.298	5.47
331.671	5.95
332.043	5.47
332.415	6.04
332.787	5.84
333.159	5.92
333.532	5.87
333.904	5.79
334.276	6.09
334.648	5.66
335.02	5.65
335.391	5.93
335.763	5.66
336.135	6.48
336.507	6.14
336.879	6.2
337.25	6.39
337.622	6.44
337.993	5.8
338.365	6.06
338.736	6.45
339.108	6.39
339.479	6.35
339.851	6.11
340.222	6.47
340.593	6.26
340.964	5.98
341.336	6.45
341.707	6.23
342.078	6.2
342.449	6.09
342.82	6.69
343.191	6.25
343.562	6.5
343.933	6.2
344.303	6.43
344.674	6.79
345.045	7.05
345.416	6.5
345.786	6.5
346.157	6.87
346.527	6.43
346.898	6.47
347.268	6.69
347.639	6.47
348.009	6.54
348.38	6.49
348.75	6.91
349.12	6.67
349.49	6.92
349.861	6.79
350.231	6.45
350.601	6.72
350.971	6.63
351.341	6.77
351.711	6.74
352.081	6.56
352.45	6.63
352.82	6.75
353.19	6.81
353.56	6.74
353.929	7.16
354.299	7.06
354.669	7.07
355.038	7.21
355.408	6.97
355.777	7.27
356.147	6.73
356.516	6.77
356.885	7.26
357.254	6.88
357.624	6.7
357.993	7.4
358.362	7.25
358.731	7.49
359.1	7.14
359.469	7.46
359.838	7.24
360.207	7.27
360.576	7.33
360.945	7.52
361.314	7.46
361.682	7.08
362.051	7.14
362.42	7.32
362.788	7.47
363.157	7.24
363.525	7.47
363.894	7.35
364.262	7.58
364.631	7.63
364.999	7.83
365.367	7.69
365.735	7.37
366.104	7.49
366.472	7.49
366.84	7.87
367.208	7.72
367.576	7.6
367.944	7.51
368.312	7.96
368.68	7.87
369.048	7.78
369.416	7.64
369.783	7.74
370.151	7.93
370.519	8.3
370.886	7.97
371.254	8.07
371.621	7.9
371.989	8.35
372.356	8.08
372.724	8.06
373.091	8.11
373.458	8.05
373.826	8.19
374.193	8
374.56	8.44
374.927	8.12
375.294	8.13
375.661	8.4
376.028	8.28
376.395	8.38
376.762	8.03
377.129	8.09
377.496	7.92
377.863	8.49
378.229	8.59
378.596	8.27
378.963	8.26
379.329	8.19
379.696	8.22
380.062	8.43
380.429	8.13
380.795	8.67
381.161	8.04
381.528	8.24
381.894	8.24
382.26	8.54
382.626	8.46
382.993	8.75
383.359	8.41
383.725	8.22
384.091	8.55
384.457	8.42
384.823	8.45
385.188	8.52
385.554	8.53
385.92	8.45
386.286	8.51
386.651	8.62
387.017	8.73
387.383	8.49
387.748	8.8
388.114	8.71
388.479	8.44
388.845	8.48
389.21	9.09
389.575	9.02
389.94	8.7
390.306	8.91
390.671	8.62
391.036	8.26
391.401	8.78
391.766	8.51
392.131	8.71
392.496	8.43
392.861	8.4
393.226	8.16
393.591	8.52
393.956	8.58
394.32	8.58
394.685	8.36
395.05	8.48
395.414	8.39
395.779	8.6
396.143	8.32
396.508	8.4
396.872	8.34
397.236	8.77
397.601	8.63
397.965	8.42
398.329	8.53
398.694	8.44
399.058	8.42
399.422	8.27
399.786	8.35
400.15	8.25
400.514	8.36
400.878	8.03
401.242	8.55
401.605	8.38
401.969	8.49
402.333	8.21
402.697	8.62
403.06	8.26
403.424	8.22
403.787	8.14
404.151	8.21
404.514	8.17
404.878	8.1
405.241	8.07
405.604	7.84
405.968	8.07
406.331	8.2
406.694	8.07
407.057	7.84
407.42	7.94
407.783	7.96
408.146	7.98
408.509	8.03
408.872	7.94
409.235	8.07
409.598	7.95
409.961	7.91
410.323	7.88
410.686	7.82
411.049	7.88
411.411	7.78
411.774	7.93
412.136	7.89
412.499	7.88
412.861	7.71
413.223	7.81
413.586	8.05
413.948	8.22
414.31	7.99
414.672	7.82
415.035	7.99
415.397	7.87
415.759	7.7
416.121	8.07
416.483	8.14
416.845	7.95
417.206	7.92
417.568	7.95
417.93	8.05
418.292	7.86
418.653	7.87
419.015	8.1
419.377	7.96
419.738	8.05
420.1	8.08
420.461	8.08
420.822	8.12
421.184	8.2
421.545	8.26
421.906	8.17
422.267	8.23
422.629	8.31
422.99	8.36
423.351	8.45
423.712	8.52
424.073	8.66
424.434	8.66
424.795	8.7
425.155	8.65
425.516	8.77
425.877	8.82
426.238	8.88
426.598	9
426.959	9.1
427.32	9.1
427.68	9.17
428.041	9.46
428.401	9.4
428.761	9.63
429.122	9.75
429.482	9.62
429.842	9.73
430.202	9.86
430.563	9.88
430.923	9.98
431.283	10.13
431.643	10.31
432.003	10.22
432.363	10.36
432.722	10.34
433.082	10.3
433.442	10.49
433.802	10.62
434.161	10.58
434.521	10.65
434.881	10.69
435.24	10.74
435.6	10.91
435.959	10.73
436.319	11.09
436.678	11.27
437.037	11.13
437.396	11.19
437.756	11.23
438.115	11.28
438.474	11.38
438.833	11.32
439.192	11.49
439.551	11.48
439.91	11.58
440.269	11.78
440.628	11.55
440.987	11.66
441.345	11.73
441.704	11.81
442.063	11.81
442.421	11.88
442.78	12.09
443.138	12.14
443.497	12.07
443.855	12.24
444.214	12.17
444.572	12.35
444.93	12.48
445.288	12.5
445.647	12.5
446.005	12.54
446.363	12.71
446.721	12.57
447.079	12.66
447.437	12.74
447.795	12.71
448.153	12.8
448.51	12.84
448.868	12.87
449.226	12.85
449.584	13
449.941	13.04
450.299	13.22
450.656	13.27
451.014	13.32
451.371	13.49
451.729	13.62
452.086	13.56
452.443	13.74
452.801	13.71
453.158	13.98
453.515	13.82
453.872	13.9
454.229	13.82
454.586	14.02
454.943	14.05
455.3	14.06
455.657	14.21
456.014	14.2
456.371	14.38
456.727	14.48
457.084	14.53
457.441	14.58
457.797	14.6
458.154	14.72
458.51	14.43
458.867	14.69
459.223	14.75
459.58	14.76
459.936	14.71
460.292	14.74
460.648	14.82
461.005	14.86
461.361	14.79
461.717	14.82
462.073	14.95
462.429	15.14
462.785	15.29
463.141	15.26
463.496	15.41
463.852	15.55
464.208	15.44
464.564	15.69
464.919	15.67
465.275	15.76
465.631	16.17
465.986	15.92
466.342	15.77
466.697	15.9
467.052	16.19
467.408	16.2
467.763	16.05
468.118	15.99
468.473	16.4
468.829	16.41
469.184	16.37
469.539	16.26
469.894	16.65
470.249	16.62
470.603	16.65
470.958	16.8
471.313	16.79
471.668	17.03
472.023	16.84
472.377	16.8
472.732	17.01
473.086	17.03
473.441	16.99
473.795	17.13
474.15	17.17
474.504	17.28
474.859	17.03
475.213	17.32
475.567	17.25
475.921	17.23
476.275	17.64
476.63	17.59
476.984	17.47
477.338	17.53
477.692	17.63
478.045	17.64
478.399	17.7
478.753	17.69
479.107	17.87
479.461	17.74
479.814	17.97
480.168	17.83
480.521	17.98
480.875	18
481.228	17.93
481.582	18.01
481.935	18.16
482.289	18.12
482.642	18.22
482.995	18
483.348	18.03
483.701	17.95
484.055	17.92
484.408	17.75
484.761	17.64
485.114	17.41
485.466	17.58
485.819	17.58
486.172	17.55
486.525	17.61
486.878	17.83
487.23	17.93
487.583	18.05
487.936	18.13
488.288	18.1
488.641	18.08
488.993	17.96
489.345	17.97
489.698	18.06
490.05	18.12
490.402	18.26
490.754	18.33
491.107	18.45
491.459	18.6
491.811	18.76
492.163	18.66
492.515	18.74
492.866	18.56
493.218	18.54
493.57	18.73
493.922	18.69
494.274	18.9
494.625	19
494.977	19.14
495.328	19.39
495.68	19.6
496.031	19.52
496.383	19.8
496.734	19.74
497.086	19.97
497.437	19.92
497.788	19.85
498.139	19.8
498.49	19.76
498.842	19.83
499.193	19.63
499.544	19.89
499.894	19.75
500.245	20.06
500.596	20.17
500.947	20.13
501.298	20.19
501.648	20.1
501.999	20.37
502.35	20.33
502.7	20.47
503.051	20.5
503.401	20.48
503.752	20.44
504.102	20.46
504.452	20.62
504.803	20.65
505.153	20.68
505.503	20.61
505.853	20.77
506.203	20.59
506.553	20.68
506.903	20.75
507.253	20.82
507.603	20.89
507.953	20.88
508.303	21.06
508.652	20.83
509.002	21.08
509.352	20.89
509.701	20.83
510.051	20.97
510.4	20.86
510.75	20.76
511.099	20.92
511.449	20.97
511.798	20.89
512.147	20.96
512.496	21.18
512.846	21
513.195	20.94
513.544	21.11
513.893	20.98
514.242	21
514.591	21.01
514.939	21.31
515.288	21.11
515.637	21.22
515.986	21.12
516.334	21.23
516.683	21.4
517.032	21.33
517.38	21.39
517.729	21.35
518.077	21.32
518.426	21.44
518.774	21.23
519.122	21.12
519.47	21.15
519.819	21.08
520.167	21
520.515	21.02
520.863	20.99
521.211	21
521.559	21.04
521.907	21.23
522.255	21.27
522.602	21.38
522.95	21.42
523.298	21.44
523.645	21.41
523.993	21.54
524.341	21.46
524.688	21.55
525.036	21.45
525.383	21.56
525.73	21.54
526.078	21.61
526.425	21.36
526.772	21.28
527.119	21.3
527.466	21.26
527.814	21.24
528.161	21.23
528.508	21.22
528.854	21.17
529.201	21.02
529.548	20.94
529.895	20.75
530.242	20.86
530.588	20.86
530.935	20.84
531.282	20.84
531.628	20.86
531.975	20.96
532.321	21.24
532.667	21.38
533.014	21.33
533.36	21.51
533.706	21.59
534.052	21.51
534.399	21.46
534.745	21.18
535.091	21.24
535.437	21.24
535.783	21.34
536.129	21.39
536.474	21.53
536.82	21.71
537.166	21.61
537.512	21.78
537.857	21.68
538.203	21.74
538.549	21.77
538.894	21.76
539.239	21.81
539.585	21.96
539.93	22.04
540.276	22.26
540.621	22.22
540.966	22.21
541.311	22.3
541.656	22.06
542.001	22.02
542.346	21.81
542.691	21.66
543.036	21.69
543.381	21.73
543.726	21.68
544.071	21.66
544.415	21.84
544.76	21.92
545.105	22.09
545.449	22.15
545.794	22.32
546.138	22.32
546.483	22.52
546.827	22.47
547.171	22.65
547.516	22.7
547.86	22.72
548.204	22.61
548.548	22.73
548.892	22.75
549.236	22.72
549.58	22.97
549.924	23.07
550.268	23.06
550.612	23.2
550.956	23.36
551.3	23.41
551.643	23.49
551.987	23.75
552.33	23.9
552.674	23.65
553.017	23.71
553.361	23.69
553.704	23.8
554.048	23.53
554.391	23.64
554.734	23.59
555.077	23.67
555.42	23.65
555.764	23.69
556.107	23.84
556.45	23.94
556.793	24.02
557.135	24.02
557.478	24
557.821	24.09
558.164	24.21
558.507	24.22
558.849	24.1
559.192	24.15
559.534	24.26
559.877	24.41
560.219	24.35
560.562	24.24
560.904	24.54
561.246	24.64
561.589	24.84
561.931	24.65
562.273	24.36
562.615	24.44
562.957	24.28
563.299	24.65
563.641	24.74
563.983	24.57
564.325	24.83
564.667	24.63
565.008	24.74
565.35	24.69
565.692	24.73
566.033	24.67
566.375	24.82
566.716	24.59
567.058	24.72
567.399	24.78
567.741	24.64
568.082	24.79
568.423	24.78
568.764	24.81
569.105	24.94
569.447	24.9
569.788	24.92
570.129	24.86
570.47	24.92
570.811	25.08
571.151	25.11
571.492	25.12
571.833	25.21
572.174	25.13
572.514	25.28
572.855	25.5
573.195	25.05
573.536	25.39
573.876	25.46
574.217	25.37
574.557	25.39
574.898	25.49
575.238	25.52
575.578	25.79
575.918	25.77
576.258	25.76
576.598	25.7
576.938	25.7
577.278	25.65
577.618	25.91
577.958	25.88
578.298	25.82
578.638	26.05
578.977	26.27
579.317	26.3
579.657	26.15
579.996	26.47
580.336	26.42
580.675	26.41
581.014	26.58
581.354	26.53
581.693	26.63
582.032	26.97
582.372	26.61
582.711	26.81
583.05	26.94
583.389	27.08
583.728	27.21
584.067	26.97
584.406	27.04
584.745	27.1
585.083	27.36
585.422	27.15
585.761	27.19
586.1	27.29
586.438	27.22
586.777	27.19
587.115	27.67
587.454	27.17
587.792	27.59
588.13	27.58
588.469	27.67
588.807	27.57
589.145	27.82
589.483	27.76
589.821	27.82
590.159	27.97
590.497	28.07
590.835	28.28
591.173	27.86
591.511	28.1
591.849	28.04
592.187	27.89
592.524	28
592.862	28.21
593.2	28.46
593.537	28.41
593.875	28.28
594.212	28.36
594.55	28.38
594.887	28.54
595.224	28.79
595.561	28.24
595.899	28.71
596.236	28.54
596.573	28.68
596.91	28.86
597.247	28.93
597.584	28.63
597.921	28.74
598.258	28.88
598.594	28.66
598.931	28.65
599.268	28.72
599.604	28.77
599.941	28.95
600.277	28.96
600.614	29.26
600.95	29.38
601.287	29.21
601.623	29.45
601.959	29.6
602.296	29.54
602.632	29.65
602.968	29.78
603.304	29.74
603.64	29.65
603.976	29.75
604.312	29.62
604.648	29.62
604.984	29.87
605.319	29.84
605.655	29.51
605.991	29.55
606.326	29.58
606.662	29.54
606.998	29.64
607.333	29.71
607.668	29.86
608.004	29.79
608.339	30.09
608.674	30.14
609.01	30.45
609.345	29.98
609.68	30.46
610.015	30.69
610.35	30.67
610.685	30.19
611.02	30.34
611.355	30.39
611.689	30.52
612.024	30.44
612.359	30.71
612.694	30.53
613.028	30.74
613.363	30.6
613.697	30.54
614.032	30.75
614.366	30.81
614.7	31.09
615.035	30.81
615.369	31.39
615.703	31.18
616.037	30.95
616.371	31.04
616.705	31.29
617.039	31.27
617.373	31.12
617.707	31.51
618.041	31.34
618.375	31.2
618.709	31.13
619.042	31.43
619.376	31.57
619.71	31.72
620.043	31.86
620.377	31.48
620.71	32
621.043	31.98
621.377	31.71
621.71	32.1
622.043	31.98
622.376	32.22
622.709	32.25
623.043	31.75
623.376	31.82
623.709	32.6
624.041	32.16
624.374	32.26
624.707	32.35
625.04	32.27
625.373	32.44
625.705	32.24
626.038	32.57
626.37	32.24
626.703	32.66
627.035	32.45
627.368	32.52
627.7	32.3
628.032	32.66
628.365	32.54
628.697	32.61
629.029	32.61
629.361	32.74
629.693	32.71
630.025	32.91
630.357	32.99
630.689	32.84
631.021	33.04
631.353	33.19
631.684	33.06
632.016	33
632.348	32.88
632.679	33.28
633.011	33.12
633.342	33.33
633.674	33.26
634.005	33.43
634.336	33.16
634.668	33.07
634.999	33.48
635.33	33.4
635.661	33.58
635.992	33.47
636.323	33.25
636.654	33.96
636.985	33.81
637.316	33.56
637.647	33.99
637.977	34.33
638.308	34.04
638.639	34.01
638.969	33.92
639.3	34.44
639.63	34.4
639.961	33.8
640.291	33.95
640.622	34.18
640.952	34.57
641.282	34.25
641.612	34.5
641.943	34.03
642.273	34.26
642.603	34.79
642.933	35.01
643.263	34.61
643.592	34.67
643.922	35.15
644.252	35.24
644.582	35
644.911	35.14
645.241	34.96
645.571	35.29
645.9	35.56
646.23	35.33
646.559	35.47
646.888	35.15
647.218	35.63
647.547	35.47
647.876	35.35
648.205	35.36
648.534	35.82
648.863	35.54
649.192	35.05
649.521	35.58
649.85	35.83
650.179	35.52
650.508	35.85
650.837	35.61
651.165	35.68
651.494	36.08
651.822	36.3
652.151	35.73
652.479	35.98
652.808	36.19
653.136	35.53
653.465	36.38
653.793	36.34
654.121	36.11
654.449	35.76
654.777	36.17
655.105	36.53
655.433	36.27
655.761	36.41
656.089	36.66
656.417	37.13
656.745	36.82
657.073	36.89
657.4	36.75
657.728	37.12
658.056	36.49
658.383	37.24
658.711	36.92
659.038	36.92
659.365	37.35
659.693	36.38
660.02	37.2
660.347	37.23
660.674	37.2
661.001	36.98
661.329	37.11
661.656	37.01
661.982	36.95
662.309	37.2
662.636	37.55
662.963	37.53
663.29	37.5
663.616	37.46
663.943	37.42
664.27	37.3
664.596	37.86
664.923	38.47
665.249	37.91
665.576	38.18
665.902	37.44
666.228	37.64
666.554	38.59
666.881	38.26
667.207	37.91
667.533	38.28
667.859	38.59
668.185	37.97
668.511	38.65
668.837	38.5
669.162	38.41
669.488	37.91
669.814	38.57
670.139	38.38
670.465	39.53
670.791	38.13
671.116	38.29
671.442	38.58
671.767	39.29
672.092	38.81
672.418	38.94
672.743	39.04
673.068	38.57
673.393	39.53
673.718	38.49
674.043	38.55
674.368	38.98
674.693	39.18
675.018	39.18
675.343	38.83
675.667	39.24
675.992	39.91
