Data from 21-6_chest_Reflection__4__99.txt Node

Date: Thu Dec 15 17:13:55 CST 2022
User: ToomeyLab
Spectrometer: FLMS14357
Trigger mode: 0
Integration Time (sec): 1.000000E-2
Scans to average: 100
Electric dark correction enabled: true
Nonlinearity correction enabled: false
Boxcar width: 0
XAxis mode: Wavelengths
Number of Pixels in Spectrum: 2048
>>>>>Begin Spectral Data<<<<<
189.047	-161.3
189.435	-161.3
189.823	-161.3
190.211	45.42
190.599	42.08
190.987	55.36
191.375	-44.44
191.763	-1624.53
192.151	-29.64
192.538	113.02
192.926	195.35
193.314	5876.09
193.702	477.52
194.089	207.35
194.477	23.66
194.864	95.52
195.252	-991.92
195.639	220.47
196.027	309.17
196.414	156.25
196.801	-249.07
197.189	-1843.17
197.576	-58.19
197.963	16.93
198.351	25.59
198.738	39.79
199.125	-63.62
199.512	38.44
199.899	-61.48
200.286	21.41
200.673	46.63
201.06	-17.19
201.447	-18.72
201.833	-14.26
202.22	72.79
202.607	6.7
202.994	36.65
203.38	37.45
203.767	16.55
204.154	24.77
204.54	27.67
204.927	11.14
205.313	33.5
205.699	32.98
206.086	34.89
206.472	48.99
206.858	18.71
207.245	5.11
207.631	15.21
208.017	24.88
208.403	-15.99
208.789	13.83
209.175	-13.4
209.561	-37.25
209.947	12.18
210.333	-10.17
210.719	40.83
211.105	28.25
211.491	10.68
211.876	-15.66
212.262	12.05
212.648	-1.06
213.034	5.7
213.419	5.85
213.805	-28.32
214.19	-2.18
214.576	9.45
214.961	29.36
215.346	8.57
215.732	-3.74
216.117	1.58
216.502	-9.44
216.888	2.78
217.273	-10.35
217.658	61.06
218.043	-11.06
218.428	-17.47
218.813	19.23
219.198	-10.36
219.583	15.33
219.968	4.05
220.353	-18.14
220.738	-3.38
221.122	15.09
221.507	4.1
221.892	-23.84
222.276	-12.72
222.661	-11.64
223.046	-1.58
223.43	5.46
223.815	-9.39
224.199	7.41
224.583	0.64
224.968	-7.61
225.352	-6.54
225.736	14.91
226.121	-6.14
226.505	-1.87
226.889	1.3
227.273	-1.35
227.657	6.83
228.041	2.14
228.425	0.98
228.809	6.76
229.193	5.34
229.577	4.38
229.961	3.27
230.344	5.37
230.728	5.05
231.112	5.32
231.495	2.7
231.879	4.46
232.263	4.44
232.646	3.45
233.03	5.09
233.413	3.89
233.797	3.05
234.18	4.19
234.563	6.62
234.946	2.76
235.33	3.6
235.713	5.51
236.096	4.7
236.479	5.33
236.862	3
237.245	4.98
237.628	4.39
238.011	4.2
238.394	4.11
238.777	3.44
239.16	5.83
239.543	5.51
239.925	4.52
240.308	4.58
240.691	4.14
241.073	4.53
241.456	3.85
241.838	5
242.221	4.82
242.603	4.25
242.986	4.49
243.368	4.63
243.75	4.99
244.133	5.15
244.515	4.7
244.897	4.36
245.279	3.58
245.661	4.19
246.043	4.99
246.425	4.52
246.807	4.19
247.189	4.31
247.571	4.25
247.953	4.17
248.335	4.66
248.717	4.56
249.098	4.43
249.48	4.39
249.862	4.15
250.243	4.41
250.625	4.26
251.006	4.83
251.388	4.58
251.769	4.13
252.151	4.86
252.532	3.47
252.913	4.4
253.295	4.1
253.676	4.57
254.057	4.58
254.438	4.67
254.819	4.01
255.2	4.78
255.581	5.07
255.962	5.13
256.343	4.9
256.724	4.62
257.105	4.28
257.486	3.65
257.867	4.03
258.247	4.76
258.628	4.6
259.009	4.3
259.389	3.58
259.77	3.54
260.15	4.66
260.531	4.26
260.911	4.03
261.292	4.27
261.672	4.11
262.052	4.07
262.432	3.93
262.813	4.2
263.193	4.29
263.573	3.93
263.953	3.42
264.333	4.67
264.713	4.5
265.093	3.43
265.473	3.84
265.853	4.27
266.233	4.31
266.612	3.32
266.992	4.3
267.372	4.88
267.752	4.7
268.131	3.54
268.511	3.81
268.89	4.99
269.27	3.74
269.649	3.41
270.029	4.05
270.408	3.71
270.787	3.5
271.167	4.15
271.546	4.73
271.925	4.4
272.304	4.06
272.683	3.99
273.062	3.79
273.441	3.87
273.82	4.01
274.199	3.48
274.578	4.1
274.957	4.11
275.336	4.34
275.715	4.31
276.093	3.7
276.472	3.78
276.851	4.13
277.229	3.95
277.608	3.41
277.986	3.76
278.365	4.52
278.743	4.06
279.122	3.92
279.5	3.95
279.878	3.72
280.257	3.45
280.635	4.3
281.013	3.5
281.391	3.75
281.769	4.29
282.147	3.88
282.525	3.81
282.903	3.24
283.281	4.13
283.659	4.03
284.037	3.67
284.415	4.01
284.792	3.81
285.17	3.19
285.548	3.62
285.925	3.56
286.303	4.44
286.68	3.99
287.058	3.96
287.435	3.7
287.813	3.76
288.19	3.73
288.567	3.91
288.945	3.6
289.322	3.91
289.699	3.9
290.076	3.83
290.453	3.82
290.83	4.23
291.207	4.1
291.584	4.08
291.961	3.8
292.338	3.47
292.715	3.22
293.092	4.31
293.469	3.94
293.845	4.01
294.222	4.21
294.599	3.49
294.975	3.02
295.352	4.71
295.728	3.85
296.105	3.86
296.481	3.99
296.858	3.93
297.234	3.54
297.61	3.89
297.986	4.22
298.363	4.1
298.739	4.4
299.115	4.07
299.491	4.23
299.867	3.99
300.243	4.19
300.619	3.45
300.995	3.94
301.371	3.91
301.746	4.23
302.122	3.89
302.498	4.16
302.874	4.16
303.249	3.95
303.625	4.14
304	4.54
304.376	4.76
304.751	4.2
305.127	3.79
305.502	4.04
305.878	4.01
306.253	3.78
306.628	4.07
307.003	3.96
307.378	3.97
307.754	4.26
308.129	3.88
308.504	4.09
308.879	3.67
309.254	4.1
309.629	3.72
310.003	3.65
310.378	4.13
310.753	4.09
311.128	4.14
311.502	4.09
311.877	3.83
312.252	4.45
312.626	4.26
313.001	4.02
313.375	4.27
313.75	4.22
314.124	4.3
314.498	4.14
314.873	4.06
315.247	3.92
315.621	4.26
315.995	4.33
316.369	3.35
316.743	3.92
317.117	4.04
317.491	4.18
317.865	4.05
318.239	5
318.613	3.87
318.987	3.33
319.361	4.21
319.734	3.93
320.108	4.3
320.482	4.23
320.855	3.89
321.229	4.12
321.602	4.31
321.976	3.87
322.349	4.9
322.723	4.21
323.096	4.06
323.469	3.73
323.843	3.5
324.216	4.2
324.589	4.26
324.962	3.95
325.335	3.97
325.708	3.93
326.081	4.47
326.454	4.41
326.827	4.26
327.2	3.72
327.573	4.07
327.945	3.98
328.318	4.21
328.691	3.91
329.063	3.59
329.436	4.18
329.809	4.18
330.181	4.9
330.553	4.46
330.926	4.69
331.298	4.35
331.671	4.6
332.043	4.19
332.415	4.16
332.787	4.37
333.159	4.18
333.532	4.12
333.904	4.52
334.276	3.99
334.648	4.24
335.02	4
335.391	3.96
335.763	4.18
336.135	4.36
336.507	3.72
336.879	3.9
337.25	4.18
337.622	4.48
337.993	4.35
338.365	4.28
338.736	4.57
339.108	4.27
339.479	3.93
339.851	4.15
340.222	4.65
340.593	3.87
340.964	4.45
341.336	4.33
341.707	4.14
342.078	4.01
342.449	4.26
342.82	4.29
343.191	4.37
343.562	4.22
343.933	4.34
344.303	4.26
344.674	4.15
345.045	4.25
345.416	4.65
345.786	4.26
346.157	4.17
346.527	4.23
346.898	4.11
347.268	4.28
347.639	3.86
348.009	4.24
348.38	3.68
348.75	4.3
349.12	4.08
349.49	4.17
349.861	4.36
350.231	4.12
350.601	4.14
350.971	4.28
351.341	4.23
351.711	4.45
352.081	4.21
352.45	3.45
352.82	3.76
353.19	4.29
353.56	4.07
353.929	4.18
354.299	4.26
354.669	4
355.038	4.36
355.408	4.25
355.777	4.35
356.147	4.05
356.516	4.24
356.885	4.21
357.254	4.24
357.624	4.04
357.993	4.17
358.362	4.29
358.731	4.56
359.1	4.33
359.469	4.01
359.838	4.19
360.207	4.59
360.576	4.74
360.945	4.16
361.314	4.27
361.682	3.99
362.051	4.38
362.42	4.33
362.788	4.3
363.157	4.08
363.525	4.25
363.894	4.16
364.262	4.28
364.631	4.47
364.999	4.11
365.367	3.92
365.735	3.99
366.104	4.27
366.472	4.17
366.84	4.32
367.208	4.67
367.576	4.24
367.944	4.47
368.312	4.07
368.68	4.49
369.048	4.24
369.416	3.99
369.783	4.3
370.151	4.53
370.519	4.92
370.886	4.03
371.254	4.36
371.621	4.32
371.989	4.38
372.356	4.28
372.724	4.36
373.091	4.3
373.458	4.25
373.826	4.62
374.193	4.48
374.56	4.31
374.927	3.96
375.294	4.3
375.661	4.3
376.028	4.34
376.395	4.43
376.762	3.83
377.129	4.55
377.496	4.35
377.863	4.64
378.229	4.64
378.596	4.38
378.963	4.09
379.329	4.41
379.696	4.45
380.062	4.47
380.429	4.33
380.795	4.65
381.161	3.94
381.528	4.04
381.894	4.38
382.26	4.27
382.626	4.42
382.993	4.58
383.359	4.29
383.725	4.27
384.091	4.43
384.457	4.28
384.823	4.54
385.188	4.37
385.554	4.58
385.92	4.34
386.286	4.45
386.651	4.12
387.017	4.7
387.383	4.26
387.748	4.65
388.114	4.71
388.479	4.25
388.845	4.3
389.21	4.71
389.575	4.65
389.94	4.68
390.306	4.43
390.671	4.69
391.036	4.46
391.401	4.59
391.766	4.61
392.131	4.7
392.496	4.5
392.861	4.13
393.226	4.32
393.591	4.57
393.956	4.39
394.32	4.73
394.685	4.16
395.05	4.37
395.414	4.33
395.779	4.79
396.143	4.31
396.508	4.42
396.872	4.44
397.236	4.74
397.601	4.65
397.965	4.61
398.329	4.32
398.694	4.49
399.058	4.37
399.422	4.33
399.786	4.3
400.15	4.32
400.514	4.6
400.878	4.43
401.242	4.62
401.605	4.58
401.969	4.56
402.333	4.45
402.697	4.71
403.06	4.59
403.424	4.61
403.787	4.57
404.151	4.59
404.514	4.55
404.878	4.56
405.241	4.46
405.604	4.51
405.968	4.47
406.331	4.78
406.694	4.47
407.057	4.43
407.42	4.48
407.783	4.6
408.146	4.31
408.509	4.53
408.872	4.64
409.235	4.72
409.598	4.63
409.961	4.75
410.323	4.48
410.686	4.6
411.049	4.76
411.411	4.5
411.774	4.53
412.136	4.7
412.499	4.82
412.861	4.41
413.223	4.63
413.586	4.69
413.948	4.61
414.31	4.9
414.672	4.55
415.035	4.82
415.397	4.61
415.759	4.33
416.121	4.68
416.483	4.81
416.845	4.65
417.206	4.6
417.568	4.55
417.93	4.68
418.292	4.4
418.653	4.47
419.015	4.53
419.377	4.52
419.738	4.62
420.1	4.68
420.461	4.51
420.822	4.58
421.184	4.58
421.545	4.62
421.906	4.58
422.267	4.46
422.629	4.58
422.99	4.47
423.351	4.58
423.712	4.58
424.073	4.62
424.434	4.68
424.795	4.61
425.155	4.58
425.516	4.45
425.877	4.54
426.238	4.52
426.598	4.74
426.959	4.64
427.32	4.59
427.68	4.73
428.041	4.73
428.401	4.53
428.761	4.68
429.122	4.79
429.482	4.71
429.842	4.87
430.202	4.79
430.563	4.81
430.923	4.83
431.283	4.74
431.643	4.9
432.003	4.84
432.363	4.92
432.722	4.82
433.082	4.73
433.442	4.8
433.802	4.81
434.161	4.69
434.521	4.85
434.881	4.73
435.24	4.68
435.6	4.86
435.959	4.77
436.319	4.83
436.678	4.84
437.037	4.77
437.396	4.85
437.756	4.64
438.115	4.72
438.474	4.89
438.833	4.87
439.192	4.77
439.551	4.67
439.91	4.96
440.269	4.81
440.628	4.85
440.987	4.85
441.345	4.86
441.704	4.71
442.063	4.83
442.421	4.79
442.78	4.74
443.138	4.76
443.497	4.82
443.855	4.87
444.214	4.69
444.572	5.02
444.93	4.85
445.288	4.77
445.647	4.78
446.005	4.76
446.363	4.81
446.721	4.82
447.079	4.82
447.437	4.78
447.795	4.82
448.153	4.79
448.51	4.86
448.868	4.81
449.226	4.87
449.584	4.83
449.941	4.86
450.299	4.83
450.656	4.88
451.014	5.11
451.371	5.04
451.729	5.02
452.086	4.99
452.443	4.84
452.801	5
453.158	5.23
453.515	4.83
453.872	4.94
454.229	4.92
454.586	4.88
454.943	4.9
455.3	4.96
455.657	4.86
456.014	4.96
456.371	5.17
456.727	5.1
457.084	5.06
457.441	5.03
457.797	5.03
458.154	4.93
458.51	4.95
458.867	5.01
459.223	4.99
459.58	5.06
459.936	5.07
460.292	5.09
460.648	4.93
461.005	4.96
461.361	4.91
461.717	4.92
462.073	4.98
462.429	5.1
462.785	5.11
463.141	5.07
463.496	5
463.852	5.12
464.208	5.11
464.564	5
464.919	5.01
465.275	5.12
465.631	5.21
465.986	5.05
466.342	4.97
466.697	5.12
467.052	5.27
467.408	5.3
467.763	5.04
468.118	5.13
468.473	5.16
468.829	5.05
469.184	5.15
469.539	5.15
469.894	5.22
470.249	5.08
470.603	5.22
470.958	5.26
471.313	5.39
471.668	5.26
472.023	5.3
472.377	5.07
472.732	5.36
473.086	5.21
473.441	5.17
473.795	5.28
474.15	5.35
474.504	5.4
474.859	4.9
475.213	5.29
475.567	5.12
475.921	5.45
476.275	5.29
476.63	5.37
476.984	5.17
477.338	5.4
477.692	5.35
478.045	5.34
478.399	5.35
478.753	5.03
479.107	5.32
479.461	5.26
479.814	5.25
480.168	5.23
480.521	5.39
480.875	5.35
481.228	5.27
481.582	5.32
481.935	5.39
482.289	5.31
482.642	5.33
482.995	5.23
483.348	5.24
483.701	5.23
484.055	5.17
484.408	5.19
484.761	5.09
485.114	5
485.466	5.02
485.819	5
486.172	5.05
486.525	5.08
486.878	5.19
487.23	5.21
487.583	5.21
487.936	5.23
488.288	5.23
488.641	5.13
488.993	5.13
489.345	5.14
489.698	5.12
490.05	5.16
490.402	5.21
490.754	5.26
491.107	5.28
491.459	5.41
491.811	5.35
492.163	5.32
492.515	5.27
492.866	5.2
493.218	5.24
493.57	5.29
493.922	5.31
494.274	5.36
494.625	5.46
494.977	5.43
495.328	5.51
495.68	5.38
496.031	5.43
496.383	5.42
496.734	5.5
497.086	5.59
497.437	5.63
497.788	5.51
498.139	5.45
498.49	5.52
498.842	5.65
499.193	5.54
499.544	5.52
499.894	5.55
500.245	5.71
500.596	5.7
500.947	5.58
501.298	5.57
501.648	5.58
501.999	5.71
502.35	5.56
502.7	5.84
503.051	5.61
503.401	5.64
503.752	5.58
504.102	5.64
504.452	5.63
504.803	5.67
505.153	5.73
505.503	5.67
505.853	5.79
506.203	5.74
506.553	5.63
506.903	5.83
507.253	5.72
507.603	5.74
507.953	5.73
508.303	5.85
508.652	5.67
509.002	5.83
509.352	5.77
509.701	5.73
510.051	5.94
510.4	5.88
510.75	5.77
511.099	5.69
511.449	5.89
511.798	5.7
512.147	5.74
512.496	5.89
512.846	5.8
513.195	5.81
513.544	5.93
513.893	5.89
514.242	5.91
514.591	5.8
514.939	5.94
515.288	5.98
515.637	6.04
515.986	5.93
516.334	5.99
516.683	6.12
517.032	6.01
517.38	5.95
517.729	6
518.077	5.94
518.426	6.11
518.774	6.01
519.122	6.04
519.47	5.98
519.819	5.99
520.167	5.94
520.515	5.95
520.863	6.03
521.211	5.97
521.559	5.96
521.907	6.05
522.255	6.11
522.602	6.14
522.95	6.25
523.298	6.34
523.645	6.13
523.993	6.14
524.341	6.3
524.688	6.3
525.036	6.23
525.383	6.14
525.73	6.08
526.078	6.36
526.425	6.25
526.772	6.14
527.119	6.14
527.466	6.22
527.814	6.18
528.161	6.31
528.508	6.25
528.854	6.2
529.201	6.17
529.548	6.12
529.895	6.05
530.242	6.07
530.588	6.09
530.935	6.09
531.282	6.15
531.628	6.25
531.975	6.24
532.321	6.29
532.667	6.4
533.014	6.42
533.36	6.36
533.706	6.41
534.052	6.42
534.399	6.37
534.745	6.33
535.091	6.3
535.437	6.35
535.783	6.44
536.129	6.43
536.474	6.44
536.82	6.68
537.166	6.49
537.512	6.49
537.857	6.6
538.203	6.53
538.549	6.48
538.894	6.6
539.239	6.6
539.585	6.82
539.93	6.73
540.276	6.69
540.621	6.95
540.966	6.73
541.311	6.88
541.656	6.7
542.001	6.78
542.346	6.69
542.691	6.65
543.036	6.67
543.381	6.63
543.726	6.73
544.071	6.67
544.415	6.79
544.76	6.76
545.105	6.85
545.449	6.93
545.794	6.93
546.138	6.98
546.483	7.04
546.827	6.92
547.171	7.1
547.516	7.1
547.86	7.06
548.204	7.08
548.548	7.11
548.892	7.14
549.236	7.18
549.58	7.26
549.924	7.3
550.268	7.36
550.612	7.33
550.956	7.48
551.3	7.55
551.643	7.3
551.987	7.45
552.33	7.54
552.674	7.43
553.017	7.53
553.361	7.61
553.704	7.41
554.048	7.56
554.391	7.65
554.734	7.28
555.077	7.49
555.42	7.53
555.764	7.61
556.107	7.72
556.45	7.78
556.793	7.75
557.135	7.77
557.478	7.82
557.821	7.7
558.164	7.8
558.507	7.68
558.849	7.93
559.192	7.77
559.534	7.74
559.877	7.78
560.219	7.91
560.562	8
560.904	8.14
561.246	7.92
561.589	8.24
561.931	8
562.273	8.04
562.615	7.97
562.957	7.99
563.299	8.07
563.641	8.11
563.983	7.89
564.325	8.05
564.667	8.08
565.008	8.06
565.35	8.13
565.692	8.3
566.033	8.23
566.375	8.27
566.716	8.1
567.058	8.25
567.399	8.35
567.741	8.4
568.082	8.32
568.423	8.27
568.764	8.41
569.105	8.4
569.447	8.51
569.788	8.44
570.129	8.49
570.47	8.56
570.811	8.7
571.151	8.71
571.492	8.6
571.833	8.65
572.174	8.71
572.514	8.77
572.855	8.66
573.195	8.71
573.536	8.83
573.876	8.74
574.217	8.78
574.557	8.8
574.898	8.79
575.238	8.86
575.578	8.98
575.918	8.88
576.258	9.27
576.598	8.95
576.938	8.97
577.278	9.05
577.618	9.07
577.958	9.16
578.298	9.19
578.638	9.09
578.977	9.26
579.317	9.19
579.657	9.2
579.996	9.45
580.336	9.29
580.675	9.25
581.014	9.55
581.354	9.34
581.693	9.36
582.032	9.88
582.372	9.67
582.711	9.67
583.05	9.36
583.389	9.52
583.728	9.71
584.067	9.42
584.406	9.71
584.745	9.61
585.083	9.57
585.422	9.89
585.761	9.83
586.1	9.99
586.438	9.64
586.777	9.89
587.115	10.04
587.454	9.83
587.792	9.9
588.13	9.85
588.469	10.24
588.807	10.23
589.145	10.25
589.483	9.85
589.821	10.21
590.159	10.3
590.497	10.33
590.835	10.28
591.173	10.47
591.511	10.32
591.849	10.33
592.187	10.34
592.524	10.57
592.862	10.63
593.2	10.45
593.537	10.55
593.875	10.39
594.212	10.72
594.55	10.65
594.887	10.67
595.224	10.61
595.561	10.59
595.899	10.71
596.236	10.86
596.573	10.63
596.91	10.83
597.247	10.88
597.584	10.91
597.921	10.87
598.258	10.93
598.594	10.76
598.931	10.73
599.268	10.65
599.604	11.06
599.941	10.94
600.277	11.02
600.614	11.09
600.95	11.19
601.287	11.13
601.623	11.04
601.959	11.68
602.296	11.54
602.632	11.21
602.968	11.21
603.304	11.36
603.64	11.42
603.976	11.31
604.312	11.47
604.648	11.55
604.984	11.59
605.319	11.54
605.655	11.44
605.991	11.65
606.326	11.4
606.662	11.5
606.998	11.72
607.333	11.51
607.668	11.64
608.004	11.92
608.339	11.77
608.674	11.92
609.01	12.3
609.345	11.95
609.68	11.72
610.015	12.05
610.35	12.16
610.685	11.73
611.02	11.93
611.355	11.96
611.689	12.02
612.024	12.19
612.359	12.28
612.694	12.29
613.028	12.26
613.363	12.31
613.697	12.45
614.032	12.68
614.366	12.38
614.7	12.6
615.035	12.71
615.369	12.83
615.703	12.75
616.037	12.72
616.371	12.48
616.705	12.97
617.039	12.94
617.373	13.08
617.707	13.05
618.041	12.66
618.375	12.3
618.709	12.89
619.042	12.92
619.376	13.05
619.71	13.05
620.043	13.08
620.377	13.08
620.71	13.35
621.043	13.34
621.377	13.12
621.71	13.52
622.043	13.46
622.376	13.08
622.709	13.82
623.043	13.49
623.376	13.4
623.709	13.75
624.041	13.38
624.374	13.56
624.707	13.54
625.04	13.48
625.373	13.83
625.705	13.61
626.038	13.92
626.37	13.61
626.703	13.43
627.035	14.06
627.368	14.38
627.7	14.25
628.032	13.6
628.365	14.35
628.697	14.17
629.029	13.96
629.361	14
629.693	14.15
630.025	14.14
630.357	14.27
630.689	14.54
631.021	14.44
631.353	14.49
631.684	14.46
632.016	13.93
632.348	14
632.679	14.7
633.011	14.41
633.342	14.42
633.674	14.02
634.005	14.82
634.336	14.48
634.668	14.85
634.999	14.54
635.33	14.95
635.661	14.68
635.992	14.67
636.323	14.9
636.654	14.86
636.985	14.68
637.316	14.93
637.647	14.9
637.977	15.09
638.308	15.18
638.639	15.1
638.969	14.86
639.3	15.62
639.63	15.09
639.961	15.3
640.291	15.1
640.622	15.28
640.952	15.69
641.282	15.2
641.612	15.65
641.943	15.39
642.273	15.68
642.603	15.88
642.933	15.74
643.263	16.03
643.592	16.19
643.922	16.05
644.252	15.8
644.582	16.4
644.911	15.78
645.241	15.95
645.571	16.34
645.9	16.18
646.23	16.12
646.559	15.67
646.888	16.23
647.218	15.86
647.547	16.07
647.876	16.14
648.205	16.31
648.534	15.98
648.863	16.19
649.192	16.66
649.521	16.56
649.85	16.6
650.179	16.56
650.508	16.62
650.837	16.62
651.165	16.8
651.494	16.62
651.822	16.8
652.151	16.25
652.479	16.78
652.808	16.8
653.136	16.45
653.465	16.99
653.793	16.9
654.121	16.77
654.449	17.17
654.777	16.56
655.105	16.73
655.433	17.21
655.761	16.72
656.089	17.33
656.417	17.6
656.745	17.39
657.073	17.43
657.4	17.4
657.728	17.03
658.056	17.24
658.383	17.46
658.711	17.65
659.038	17.67
659.365	17.49
659.693	17.13
660.02	17.66
660.347	17.34
660.674	17.36
661.001	17.6
661.329	17.56
661.656	17.56
661.982	17.31
662.309	17.77
662.636	17.73
662.963	18.11
663.29	18.19
663.616	17.5
663.943	18
664.27	17.76
664.596	17.57
664.923	18.45
665.249	17.87
665.576	18.09
665.902	17.68
666.228	18.21
666.554	18.29
666.881	17.9
667.207	18.62
667.533	18.2
667.859	18.17
668.185	18.68
668.511	19.03
668.837	18.29
669.162	18.68
669.488	18.15
669.814	18.47
670.139	18.35
670.465	19.18
670.791	18.19
671.116	18.72
671.442	18.18
671.767	19.11
672.092	18.96
672.418	19.18
672.743	18.81
673.068	18.76
673.393	18.57
673.718	18.83
674.043	18.82
674.368	19.15
674.693	19.37
675.018	19.34
675.343	19.87
675.667	19.51
675.992	19.37
676.317	18.92
676.641	19.93
676.966	19.66
677.29	19.37
677.615	19.65
677.939	19.46
678.264	19.07
678.588	20.13
678.912	19.84
679.236	19.56
679.56	20.3
679.885	20.21
680.209	19.95
680.532	20.46
680.856	19.91
681.18	20.6
681.504	19.62
681.828	19.65
682.152	20
682.475	20.21
682.799	19.99
683.122	20.02
683.446	19.51
683.769	20.28
684.093	20.54
684.416	20.53
684.739	19.75
685.062	20.75
685.386	20.86
685.709	20.6
686.032	20.82
