Data from 21-6_crown_Reflection__4__104.txt Node

Date: Thu Dec 15 17:16:28 CST 2022
User: ToomeyLab
Spectrometer: FLMS14357
Trigger mode: 0
Integration Time (sec): 1.000000E-2
Scans to average: 100
Electric dark correction enabled: true
Nonlinearity correction enabled: false
Boxcar width: 0
XAxis mode: Wavelengths
Number of Pixels in Spectrum: 2048
>>>>>Begin Spectral Data<<<<<
189.047	-166.78
189.435	-166.78
189.823	-166.78
190.211	105.3
190.599	34.49
190.987	-135.37
191.375	27.51
191.763	289.44
192.151	53.99
192.538	74.39
192.926	133.15
193.314	3260.87
193.702	-39.8
194.089	-217.06
194.477	67.55
194.864	-25.95
195.252	267.07
195.639	391.08
196.027	410.53
196.414	84.93
196.801	-363.24
197.189	-2259.63
197.576	184.81
197.963	5.51
198.351	-30.84
198.738	-46.34
199.125	-62.48
199.512	12.96
199.899	-104.61
200.286	-5.21
200.673	32.29
201.06	-41.05
201.447	14.58
201.833	0.67
202.22	-24.43
202.607	67.81
202.994	-38.75
203.38	21.51
203.767	26.47
204.154	39.29
204.54	14
204.927	-12.94
205.313	8.37
205.699	26.29
206.086	30.15
206.472	11.83
206.858	4.06
207.245	-21.43
207.631	-9.6
208.017	30.24
208.403	-14.56
208.789	1.6
209.175	5.5
209.561	-32.87
209.947	28.27
210.333	6.95
210.719	31.23
211.105	32.41
211.491	-2.86
211.876	-23.76
212.262	26.3
212.648	-0.33
213.034	-9.35
213.419	20.96
213.805	-4.23
214.19	14.61
214.576	37.82
214.961	14.95
215.346	-24.67
215.732	15.73
216.117	2.19
216.502	-2.68
216.888	-21.51
217.273	0.61
217.658	4.82
218.043	-9.83
218.428	-25.76
218.813	2.58
219.198	-14.26
219.583	-1.24
219.968	-4.73
220.353	-8.96
220.738	11.25
221.122	-12.65
221.507	-17.84
221.892	-27.23
222.276	-25.07
222.661	-19.11
223.046	-5.97
223.43	17.21
223.815	8.53
224.199	-6.81
224.583	-0.54
224.968	9.99
225.352	-4.62
225.736	11.99
226.121	1.78
226.505	-1.29
226.889	2.65
227.273	1.16
227.657	4.75
228.041	4.1
228.425	1.5
228.809	3.53
229.193	3.31
229.577	5.46
229.961	4.99
230.344	5.06
230.728	6.11
231.112	5.22
231.495	4.3
231.879	3.94
232.263	4.15
232.646	4.1
233.03	6.46
233.413	3.91
233.797	1.97
234.18	3.67
234.563	3.39
234.946	3.09
235.33	3.93
235.713	3.65
236.096	5.15
236.479	4.81
236.862	5.44
237.245	3.77
237.628	4.06
238.011	3.58
238.394	2.22
238.777	4.19
239.16	5.06
239.543	6.37
239.925	3.4
240.308	3.46
240.691	3.06
241.073	3.6
241.456	4.38
241.838	5.16
242.221	4.6
242.603	3.71
242.986	4.31
243.368	4.67
243.75	5.17
244.133	5.13
244.515	4.23
244.897	4.4
245.279	4.04
245.661	5.16
246.043	4.92
246.425	4.1
246.807	4.02
247.189	3.56
247.571	4.55
247.953	4.29
248.335	4.45
248.717	4.62
249.098	4.61
249.48	4.51
249.862	4.87
250.243	4.57
250.625	4.66
251.006	4.66
251.388	4.49
251.769	3.83
252.151	4.73
252.532	4.18
252.913	4.62
253.295	4.35
253.676	4.22
254.057	4.17
254.438	4.43
254.819	4.21
255.2	4.46
255.581	4.68
255.962	4.66
256.343	4.91
256.724	4.58
257.105	3.97
257.486	3.26
257.867	3.24
258.247	4.64
258.628	4.21
259.009	4.03
259.389	3.23
259.77	4.61
260.15	4.9
260.531	4.35
260.911	4
261.292	4.05
261.672	4.04
262.052	4.16
262.432	4.02
262.813	3.77
263.193	3.94
263.573	3.56
263.953	3.35
264.333	4.14
264.713	3.73
265.093	4.02
265.473	3.68
265.853	5.03
266.233	3.96
266.612	3.39
266.992	4.22
267.372	3.71
267.752	4.31
268.131	3.68
268.511	3.39
268.89	4.24
269.27	3.5
269.649	3.92
270.029	3.7
270.408	4.05
270.787	3.93
271.167	4.35
271.546	4.33
271.925	4.17
272.304	4.12
272.683	3.66
273.062	3.77
273.441	3.75
273.82	4.01
274.199	3.77
274.578	4.08
274.957	3.79
275.336	4.08
275.715	4.16
276.093	3.44
276.472	3.38
276.851	3.36
277.229	3.56
277.608	3.89
277.986	3.7
278.365	4.53
278.743	3.84
279.122	3.7
279.5	3.94
279.878	3.79
280.257	3.54
280.635	3.91
281.013	3.45
281.391	4.03
281.769	4.54
282.147	3.06
282.525	3.11
282.903	3.67
283.281	3.95
283.659	4.02
284.037	3.56
284.415	3.63
284.792	3.99
285.17	3.42
285.548	3.88
285.925	3.66
286.303	4.07
286.68	3.76
287.058	3.95
287.435	3.51
287.813	3.83
288.19	3.71
288.567	3.5
288.945	3.55
289.322	4.27
289.699	3.98
290.076	3.79
290.453	3.64
290.83	4
291.207	3.8
291.584	4.08
291.961	3.91
292.338	3.5
292.715	3.47
293.092	3.96
293.469	3.49
293.845	3.42
294.222	4.2
294.599	3.73
294.975	3.37
295.352	4.12
295.728	4.04
296.105	3.63
296.481	3.95
296.858	3.37
297.234	3.71
297.61	3.63
297.986	4.1
298.363	3.83
298.739	3.83
299.115	3.52
299.491	3.9
299.867	3.73
300.243	3.91
300.619	3.81
300.995	3.58
301.371	4.02
301.746	3.68
302.122	3.63
302.498	3.67
302.874	3.88
303.249	3.85
303.625	3.24
304	3.57
304.376	4.22
304.751	3.91
305.127	3.69
305.502	3.69
305.878	3.8
306.253	2.85
306.628	3.77
307.003	3.48
307.378	3.92
307.754	3.5
308.129	3.03
308.504	3.58
308.879	3.84
309.254	3.85
309.629	3.67
310.003	3.48
310.378	4.13
310.753	3.87
311.128	3.65
311.502	3.51
311.877	3.39
312.252	3.88
312.626	4.16
313.001	3.58
313.375	3.46
313.75	3.68
314.124	3.51
314.498	3.86
314.873	3.29
315.247	3.8
315.621	3.43
315.995	3.74
316.369	3.46
316.743	3.2
317.117	3.25
317.491	3.54
317.865	3.02
318.239	3.9
318.613	3.76
318.987	3.08
319.361	3.4
319.734	3.73
320.108	3.91
320.482	3.78
320.855	3.3
321.229	3.39
321.602	3.85
321.976	2.96
322.349	4.32
322.723	3.6
323.096	3.5
323.469	3.44
323.843	3.05
324.216	3.39
324.589	3.8
324.962	3.67
325.335	3.22
325.708	3.44
326.081	3.66
326.454	3.52
326.827	3.39
327.2	3.25
327.573	4.01
327.945	3.4
328.318	3.28
328.691	3.43
329.063	3.71
329.436	3.12
329.809	3.53
330.181	3.86
330.553	3.75
330.926	3.57
331.298	3
331.671	3.65
332.043	3.05
332.415	3.59
332.787	3.83
333.159	3.29
333.532	3.34
333.904	3.65
334.276	3.43
334.648	3.64
335.02	3.53
335.391	3.5
335.763	3.24
336.135	3.99
336.507	3.56
336.879	3.62
337.25	3.76
337.622	3.33
337.993	3.18
338.365	3.37
338.736	3.53
339.108	3.48
339.479	3.39
339.851	3.77
340.222	3.7
340.593	3.82
340.964	3.59
341.336	3.3
341.707	3.44
342.078	3.41
342.449	3.79
342.82	3.87
343.191	3.27
343.562	3.69
343.933	3.36
344.303	4.07
344.674	3.78
345.045	3.56
345.416	3.78
345.786	3.49
346.157	3.77
346.527	3.3
346.898	3.36
347.268	3.68
347.639	3.49
348.009	3.43
348.38	3.26
348.75	3.57
349.12	3.56
349.49	3.33
349.861	3.74
350.231	3.67
350.601	3.4
350.971	3.28
351.341	3.47
351.711	3.62
352.081	3.32
352.45	3.45
352.82	3.09
353.19	3.25
353.56	3.63
353.929	3.57
354.299	3.6
354.669	3.61
355.038	3.63
355.408	3.41
355.777	3.67
356.147	3.43
356.516	3.48
356.885	3.29
357.254	3.36
357.624	3.1
357.993	3.63
358.362	3.62
358.731	3.84
359.1	3.66
359.469	3.63
359.838	3.62
360.207	3.52
360.576	3.47
360.945	3.6
361.314	3.49
361.682	3.29
362.051	3.2
362.42	3.4
362.788	3.68
363.157	3.45
363.525	3.73
363.894	3.34
364.262	3.36
364.631	3.74
364.999	3.46
365.367	3.42
365.735	3.24
366.104	3.47
366.472	3.51
366.84	3.26
367.208	3.94
367.576	3.83
367.944	3.36
368.312	3.5
368.68	3.65
369.048	3.52
369.416	3.43
369.783	3.29
370.151	3.87
370.519	3.91
370.886	3.57
371.254	3.72
371.621	3.62
371.989	3.82
372.356	3.42
372.724	3.39
373.091	3.52
373.458	3.5
373.826	3.62
374.193	3.56
374.56	3.99
374.927	3.49
375.294	3.68
375.661	3.77
376.028	3.49
376.395	3.84
376.762	3.43
377.129	3.27
377.496	3.48
377.863	3.78
378.229	3.71
378.596	3.93
378.963	3.51
379.329	3.7
379.696	3.26
380.062	3.51
380.429	3.49
380.795	3.69
381.161	3.36
381.528	3.23
381.894	3.45
382.26	3.62
382.626	3.74
382.993	3.91
383.359	3.66
383.725	3.26
384.091	3.8
384.457	3.26
384.823	3.44
385.188	3.89
385.554	3.61
385.92	3.54
386.286	3.69
386.651	3.6
387.017	3.9
387.383	3.67
387.748	3.62
388.114	3.73
388.479	3.76
388.845	3.51
389.21	3.72
389.575	3.99
389.94	3.72
390.306	3.83
390.671	3.69
391.036	3.6
391.401	3.62
391.766	3.57
392.131	4.05
392.496	3.65
392.861	3.68
393.226	3.58
393.591	3.63
393.956	3.92
394.32	3.82
394.685	3.85
395.05	3.65
395.414	3.7
395.779	3.94
396.143	3.6
396.508	3.74
396.872	3.63
397.236	3.92
397.601	3.8
397.965	3.69
398.329	3.45
398.694	3.54
399.058	3.58
399.422	3.78
399.786	3.43
400.15	3.74
400.514	3.83
400.878	3.67
401.242	3.88
401.605	3.55
401.969	3.69
402.333	3.53
402.697	3.97
403.06	3.66
403.424	3.63
403.787	3.89
404.151	3.64
404.514	3.95
404.878	3.72
405.241	3.72
405.604	3.72
405.968	3.75
406.331	3.93
406.694	3.86
407.057	3.84
407.42	3.77
407.783	3.82
408.146	3.63
408.509	3.8
408.872	3.71
409.235	3.74
409.598	3.84
409.961	3.84
410.323	3.62
410.686	3.7
411.049	3.92
411.411	3.79
411.774	3.64
412.136	3.71
412.499	3.82
412.861	3.53
413.223	3.7
413.586	3.75
413.948	3.59
414.31	3.84
414.672	3.8
415.035	3.97
415.397	3.67
415.759	3.63
416.121	3.83
416.483	3.73
416.845	3.82
417.206	3.85
417.568	3.91
417.93	3.8
418.292	3.7
418.653	3.74
419.015	3.83
419.377	3.82
419.738	3.79
420.1	3.74
420.461	3.74
420.822	3.83
421.184	3.77
421.545	3.79
421.906	3.86
422.267	3.74
422.629	3.7
422.99	3.63
423.351	3.7
423.712	3.75
424.073	3.79
424.434	3.89
424.795	3.75
425.155	3.71
425.516	3.75
425.877	3.77
426.238	3.69
426.598	3.81
426.959	3.88
427.32	3.75
427.68	3.81
428.041	3.93
428.401	3.84
428.761	3.98
429.122	3.89
429.482	3.85
429.842	3.83
430.202	4.07
430.563	3.75
430.923	3.79
431.283	3.93
431.643	3.94
432.003	3.96
432.363	4.01
432.722	3.82
433.082	3.65
433.442	3.83
433.802	3.79
434.161	3.86
434.521	3.87
434.881	3.88
435.24	3.89
435.6	3.86
435.959	3.92
436.319	3.86
436.678	4.07
437.037	3.69
437.396	3.87
437.756	3.72
438.115	4.02
438.474	3.89
438.833	3.72
439.192	3.96
439.551	3.79
439.91	3.81
440.269	3.86
440.628	3.75
440.987	4.03
441.345	3.94
441.704	3.9
442.063	3.85
442.421	3.9
442.78	3.86
443.138	3.82
443.497	3.91
443.855	4.04
444.214	3.82
444.572	3.99
444.93	3.95
445.288	3.83
445.647	3.91
446.005	3.94
446.363	3.88
446.721	3.89
447.079	3.85
447.437	3.89
447.795	4.03
448.153	3.99
448.51	3.96
448.868	3.91
449.226	3.93
449.584	3.99
449.941	3.9
450.299	4
450.656	4.02
451.014	4.07
451.371	4.07
451.729	4
452.086	4.03
452.443	4.15
452.801	3.94
453.158	4.17
453.515	3.9
453.872	3.93
454.229	3.71
454.586	3.86
454.943	3.99
455.3	4
455.657	3.89
456.014	4.08
456.371	4.09
456.727	4.19
457.084	4.1
457.441	4.1
457.797	3.96
458.154	3.99
458.51	3.86
458.867	4.08
459.223	3.89
459.58	4.09
459.936	3.95
460.292	4.09
460.648	3.96
461.005	3.89
461.361	4.03
461.717	3.98
462.073	4.02
462.429	4.19
462.785	4.2
463.141	4.11
463.496	4.05
463.852	4.24
464.208	4.01
464.564	4.07
464.919	3.98
465.275	4.03
465.631	4.14
465.986	4.18
466.342	4.19
466.697	3.96
467.052	4.21
467.408	4.15
467.763	4.03
468.118	4.01
468.473	4.13
468.829	4
469.184	4.13
469.539	4.06
469.894	4.14
470.249	4.19
470.603	4.09
470.958	4.12
471.313	4.32
471.668	4.19
472.023	4.23
472.377	4.1
472.732	4.24
473.086	4.13
473.441	4.12
473.795	4.18
474.15	4.09
474.504	3.99
474.859	4.08
475.213	4.19
475.567	4.06
475.921	4.18
476.275	4.22
476.63	4.2
476.984	4.06
477.338	4.15
477.692	3.99
478.045	4.22
478.399	4.21
478.753	4.13
479.107	4.1
479.461	4.1
479.814	4.11
480.168	4.08
480.521	4.17
480.875	4.18
481.228	4.23
481.582	4.2
481.935	4.3
482.289	4.17
482.642	4.24
482.995	4.1
483.348	4.15
483.701	4.2
484.055	4.09
484.408	4.07
484.761	4.01
485.114	3.9
485.466	3.88
485.819	3.88
486.172	3.95
486.525	3.97
486.878	4.07
487.23	4.05
487.583	4.13
487.936	4.07
488.288	4.09
488.641	4.05
488.993	3.99
489.345	3.99
489.698	3.95
490.05	3.98
490.402	4.04
490.754	4.13
491.107	4.08
491.459	4.11
491.811	4.12
492.163	4.11
492.515	4.03
492.866	3.99
493.218	3.98
493.57	4.06
493.922	4.09
494.274	4.17
494.625	4.28
494.977	4.12
495.328	4.21
495.68	4.21
496.031	4.19
496.383	4.18
496.734	4.26
497.086	4.32
497.437	4.26
497.788	4.3
498.139	4.21
498.49	4.25
498.842	4.3
499.193	4.11
499.544	4.19
499.894	4.03
500.245	4.26
500.596	4.17
500.947	4.28
501.298	4.32
501.648	4.26
501.999	4.27
502.35	4.16
502.7	4.38
503.051	4.37
503.401	4.39
503.752	4.18
504.102	4.36
504.452	4.45
504.803	4.22
505.153	4.28
505.503	4.25
505.853	4.38
506.203	4.37
506.553	4.26
506.903	4.26
507.253	4.36
507.603	4.34
507.953	4.21
508.303	4.32
508.652	4.17
509.002	4.26
509.352	4.31
509.701	4.1
510.051	4.37
510.4	4.37
510.75	4.25
511.099	4.29
511.449	4.39
511.798	4.23
512.147	4.27
512.496	4.32
512.846	4.27
513.195	4.29
513.544	4.37
513.893	4.38
514.242	4.32
514.591	4.33
514.939	4.37
515.288	4.35
515.637	4.36
515.986	4.34
516.334	4.34
516.683	4.38
517.032	4.5
517.38	4.24
517.729	4.29
518.077	4.24
518.426	4.38
518.774	4.24
519.122	4.32
519.47	4.27
519.819	4.35
520.167	4.24
520.515	4.28
520.863	4.25
521.211	4.28
521.559	4.34
521.907	4.41
522.255	4.3
522.602	4.39
522.95	4.49
523.298	4.36
523.645	4.48
523.993	4.32
524.341	4.31
524.688	4.32
525.036	4.31
525.383	4.43
525.73	4.39
526.078	4.45
526.425	4.38
526.772	4.31
527.119	4.32
527.466	4.36
527.814	4.35
528.161	4.42
528.508	4.42
528.854	4.37
529.201	4.23
529.548	4.29
529.895	4.22
530.242	4.19
530.588	4.23
530.935	4.25
531.282	4.24
531.628	4.28
531.975	4.34
532.321	4.32
532.667	4.44
533.014	4.41
533.36	4.41
533.706	4.4
534.052	4.37
534.399	4.37
534.745	4.24
535.091	4.27
535.437	4.24
535.783	4.31
536.129	4.36
536.474	4.46
536.82	4.49
537.166	4.33
537.512	4.37
537.857	4.43
538.203	4.44
538.549	4.37
538.894	4.36
539.239	4.47
539.585	4.53
539.93	4.54
540.276	4.46
540.621	4.61
540.966	4.63
541.311	4.55
541.656	4.47
542.001	4.4
542.346	4.36
542.691	4.3
543.036	4.33
543.381	4.32
543.726	4.36
544.071	4.39
544.415	4.37
544.76	4.39
545.105	4.41
545.449	4.35
545.794	4.52
546.138	4.41
546.483	4.54
546.827	4.55
547.171	4.56
547.516	4.52
547.86	4.54
548.204	4.5
548.548	4.57
548.892	4.5
549.236	4.47
549.58	4.46
549.924	4.54
550.268	4.62
550.612	4.58
550.956	4.72
551.3	4.71
551.643	4.71
551.987	4.79
552.33	4.73
552.674	4.55
553.017	4.71
553.361	4.65
553.704	4.73
554.048	4.45
554.391	4.65
554.734	4.48
555.077	4.61
555.42	4.52
555.764	4.67
556.107	4.65
556.45	4.71
556.793	4.79
557.135	4.77
557.478	4.75
557.821	4.66
558.164	4.62
558.507	4.59
558.849	4.85
559.192	4.71
559.534	4.76
559.877	4.68
560.219	4.7
560.562	4.68
560.904	4.79
561.246	4.67
561.589	4.83
561.931	4.75
562.273	4.67
562.615	4.7
562.957	4.65
563.299	4.69
563.641	4.7
563.983	4.56
564.325	4.78
564.667	4.82
565.008	4.53
565.35	4.58
565.692	4.58
566.033	4.68
566.375	4.8
566.716	4.53
567.058	4.66
567.399	4.83
567.741	4.63
568.082	4.75
568.423	4.69
568.764	4.67
569.105	4.65
569.447	4.84
569.788	4.78
570.129	4.69
570.47	4.7
570.811	4.74
571.151	4.76
571.492	4.86
571.833	4.66
572.174	4.87
572.514	4.68
572.855	4.84
573.195	4.71
573.536	4.79
573.876	4.73
574.217	4.87
574.557	4.69
574.898	4.75
575.238	4.92
575.578	4.72
575.918	4.86
576.258	4.92
576.598	4.6
576.938	4.72
577.278	4.86
577.618	4.9
577.958	4.92
578.298	4.76
578.638	4.64
578.977	4.83
579.317	4.8
579.657	4.83
579.996	4.96
580.336	4.9
580.675	4.78
581.014	4.91
581.354	4.65
581.693	4.91
582.032	4.86
582.372	4.9
582.711	4.91
583.05	4.92
583.389	5
583.728	4.92
584.067	4.69
584.406	4.98
584.745	4.61
585.083	4.96
585.422	5.03
585.761	4.93
586.1	5.05
586.438	4.94
586.777	4.83
587.115	4.92
587.454	4.85
587.792	4.78
588.13	4.84
588.469	4.82
588.807	5.28
589.145	4.82
589.483	4.73
589.821	4.76
590.159	5
590.497	5
590.835	5.06
591.173	5
591.511	5.16
591.849	4.98
592.187	4.86
592.524	5.07
592.862	4.88
593.2	5
593.537	4.96
593.875	4.99
594.212	4.83
594.55	4.92
594.887	5.02
595.224	5.33
595.561	4.87
595.899	4.91
596.236	4.8
596.573	4.74
596.91	5.07
597.247	5.04
597.584	5.05
597.921	4.81
598.258	5.19
598.594	4.9
598.931	4.96
599.268	4.66
599.604	4.95
599.941	5.01
600.277	5.06
600.614	4.85
600.95	5.02
601.287	4.85
601.623	4.86
601.959	5.36
602.296	4.95
602.632	4.84
602.968	5.1
603.304	5.31
603.64	5
603.976	4.81
604.312	4.99
604.648	5.01
604.984	5.05
605.319	5.08
605.655	4.9
605.991	4.73
606.326	5.13
606.662	4.91
606.998	5.02
607.333	5.05
607.668	4.96
608.004	5.12
608.339	4.84
608.674	5.05
609.01	5.3
609.345	5.1
609.68	5.03
610.015	5.25
610.35	5.24
610.685	4.79
611.02	4.79
611.355	5.02
611.689	5.02
612.024	5.21
612.359	5.27
612.694	5.28
613.028	5.05
613.363	5.21
613.697	5.17
614.032	5.03
614.366	5.27
614.7	5.4
615.035	5.35
615.369	5.36
615.703	5.17
616.037	5.14
616.371	4.99
616.705	5.12
617.039	5.27
617.373	5.22
617.707	5.05
618.041	5.02
618.375	4.42
618.709	5.33
619.042	5.08
619.376	5.2
619.71	5
620.043	5.44
620.377	5.38
620.71	5.15
621.043	5.18
621.377	5.3
621.71	5.5
622.043	5.28
622.376	5.4
622.709	5.34
623.043	5.27
623.376	5.08
623.709	5.59
624.041	5.08
624.374	5.24
624.707	5.24
625.04	5.06
625.373	5.36
625.705	5.36
626.038	5.14
626.37	5.11
626.703	5.14
627.035	5.43
627.368	5.34
627.7	5.16
628.032	5.08
628.365	5.64
628.697	5.45
629.029	5.31
629.361	5.3
629.693	5.32
630.025	5.24
630.357	5.38
630.689	5.3
631.021	5.57
631.353	5.25
631.684	4.94
632.016	5.01
632.348	5.18
632.679	5.37
633.011	5.23
633.342	5.5
633.674	5.09
634.005	5.21
634.336	5.64
634.668	5.18
634.999	5.02
635.33	5.36
635.661	5.22
635.992	5.32
636.323	5.25
636.654	5.15
636.985	5.34
637.316	5.24
637.647	5.55
637.977	5.13
638.308	5.64
638.639	5.71
638.969	5.4
639.3	5.44
639.63	5.24
639.961	5.32
640.291	5.31
640.622	5.33
640.952	5.66
641.282	4.97
641.612	5.13
641.943	5.3
642.273	5.69
642.603	5.45
642.933	5.95
643.263	5.34
643.592	5.98
643.922	5.63
644.252	5.57
644.582	5.45
644.911	5.48
645.241	5.5
645.571	5.28
645.9	5.98
646.23	5.63
646.559	5.04
646.888	5.65
647.218	5.56
647.547	5.48
647.876	5.45
648.205	4.91
648.534	5.28
648.863	5.38
649.192	5.63
649.521	5.46
649.85	5.73
650.179	5.36
650.508	5.17
650.837	5.48
651.165	5.73
651.494	5.32
651.822	5.66
652.151	5.26
652.479	5.32
652.808	5.6
653.136	5
653.465	5.26
653.793	5.65
654.121	5.04
654.449	5.21
654.777	5.06
655.105	5.24
655.433	5.93
655.761	5.9
656.089	5.49
656.417	5.99
656.745	5.99
657.073	5.2
657.4	5.65
657.728	5.25
658.056	5.12
658.383	5.47
658.711	5.58
659.038	5.61
659.365	5.77
659.693	5.51
660.02	5
660.347	5.84
660.674	5.5
661.001	5.61
661.329	5.18
661.656	5.29
661.982	5.11
662.309	5.53
662.636	5.39
662.963	5.38
663.29	5.93
663.616	5
663.943	5.56
664.27	5.56
664.596	5.63
664.923	6.11
665.249	5.7
665.576	5.72
665.902	5.6
666.228	5.88
666.554	5.98
666.881	5.15
667.207	5.27
667.533	5.22
667.859	5.45
668.185	5.3
668.511	5.52
668.837	5.62
669.162	5.45
669.488	5.28
669.814	5.47
670.139	4.55
670.465	6.1
670.791	4.96
671.116	5.37
671.442	5.08
671.767	5.67
672.092	5.36
672.418	5.42
672.743	5.24
673.068	5.22
673.393	5.61
673.718	4.86
674.043	5.04
674.368	5.1
674.693	5.56
675.018	5.76
675.343	5.37
675.667	5.68
675.992	5.92
676.317	5.56
676.641	5.58
676.966	5.64
677.29	5.3
677.615	5.43
677.939	6.19
678.264	5.45
678.588	5.51
678.912	5.67
679.236	5.65
679.56	5.15
679.885	5.68
680.209	6.24
680.532	5.95
680.856	5.95
681.18	5.97
681.504	5.87
681.828	5.01
682.152	6.29
682.475	5.65
682.799	5.65
683.122	5.4
683.446	5.14
683.769	5.74
684.093	5.82
684.416	6.13
684.739	5.67
685.062	5.95
685.386	5.76
685.709	6.01
686.032	5.19
686.355	5.57
686.678	6.32
687.001	5.71
687.324	5.63
687.646	6.47
687.969	6.56
688.292	5.81
688.614	6.18
688.937	5.98
689.26	6.43
689.582	5.58
689.904	5.85
690.227	6.19
690.549	5.68
690.871	5.39
691.194	6.12
691.516	6.05
691.838	6.18
692.16	5.81
692.482	5.3
692.804	5.65
