Data from 21-6_forehead_Reflection__0__105.txt Node

Date: Thu Dec 15 17:17:01 CST 2022
User: ToomeyLab
Spectrometer: FLMS14357
Trigger mode: 0
Integration Time (sec): 1.000000E-2
Scans to average: 100
Electric dark correction enabled: true
Nonlinearity correction enabled: false
Boxcar width: 0
XAxis mode: Wavelengths
Number of Pixels in Spectrum: 2048
>>>>>Begin Spectral Data<<<<<
189.047	-6.7
189.435	-6.7
189.823	-6.7
190.211	19.64
190.599	35.41
190.987	9.2
191.375	82.39
191.763	-1060.56
192.151	80.38
192.538	76.85
192.926	210
193.314	11076.09
193.702	-97.42
194.089	96.76
194.477	193.08
194.864	130.22
195.252	-1803.89
195.639	275.57
196.027	20.96
196.414	-52.68
196.801	-120.72
197.189	-1150
197.576	-76.78
197.963	39.26
198.351	25.82
198.738	-68.53
199.125	-84.79
199.512	44.85
199.899	-83.86
200.286	31.43
200.673	21.86
201.06	18.19
201.447	6.42
201.833	15.74
202.22	47.34
202.607	-322.65
202.994	42.51
203.38	64.37
203.767	34.15
204.154	28.13
204.54	50.55
204.927	30.78
205.313	41.6
205.699	28.27
206.086	33.35
206.472	50.24
206.858	41.66
207.245	9.79
207.631	40.24
208.017	42.86
208.403	-12.42
208.789	41.18
209.175	18.16
209.561	-14.78
209.947	46.88
210.333	9.61
210.719	44.83
211.105	42.76
211.491	13.17
211.876	-2.82
212.262	31.71
212.648	14.68
213.034	16.36
213.419	21.95
213.805	-42.69
214.19	-14.33
214.576	66.01
214.961	19.46
215.346	7.62
215.732	25.89
216.117	75.39
216.502	-14.71
216.888	36.46
217.273	26.53
217.658	42.04
218.043	-7.99
218.428	14.8
218.813	28.81
219.198	-15.11
219.583	11.27
219.968	18.12
220.353	-1.24
220.738	22.28
221.122	11.75
221.507	-11.91
221.892	17
222.276	-6.66
222.661	2.12
223.046	-2.88
223.43	23.96
223.815	3.57
224.199	10.04
224.583	2.81
224.968	9.32
225.352	-0.19
225.736	8.11
226.121	10.33
226.505	-5.3
226.889	3.09
227.273	0.21
227.657	3.38
228.041	3.39
228.425	2.86
228.809	1.74
229.193	1.02
229.577	2.94
229.961	2.17
230.344	3.67
230.728	3.11
231.112	2.8
231.495	1.54
231.879	2
232.263	4.38
232.646	2.24
233.03	3.96
233.413	3.03
233.797	4.16
234.18	2.11
234.563	3.59
234.946	1.15
235.33	2.91
235.713	1.86
236.096	3.1
236.479	4.43
236.862	2.81
237.245	1.1
237.628	2.61
238.011	2.78
238.394	2.55
238.777	1.64
239.16	3.31
239.543	3.6
239.925	2.03
240.308	1.54
240.691	1.62
241.073	1.96
241.456	2.32
241.838	2.99
242.221	2.57
242.603	3.09
242.986	3.1
243.368	2.97
243.75	2.71
244.133	3.16
244.515	2.4
244.897	2.36
245.279	2.49
245.661	2.72
246.043	3.35
246.425	3.23
246.807	3.27
247.189	2.37
247.571	2.57
247.953	2.31
248.335	2.7
248.717	2.49
249.098	2.58
249.48	2.63
249.862	3.01
250.243	2.81
250.625	2.56
251.006	3.84
251.388	2.43
251.769	3.2
252.151	2.87
252.532	2.6
252.913	2.73
253.295	2.45
253.676	2.35
254.057	3.06
254.438	2.29
254.819	2.64
255.2	3.84
255.581	3.7
255.962	2.22
256.343	3.4
256.724	3.2
257.105	3.31
257.486	1.45
257.867	3.01
258.247	3.29
258.628	3.74
259.009	2.83
259.389	2.32
259.77	2.42
260.15	3.45
260.531	2.63
260.911	2.29
261.292	2.66
261.672	2.47
262.052	2.54
262.432	2.39
262.813	2.43
263.193	2.59
263.573	2.62
263.953	2.32
264.333	3.11
264.713	2.52
265.093	2.31
265.473	1.28
265.853	2.76
266.233	2.5
266.612	1.88
266.992	2.82
267.372	2.74
267.752	3.01
268.131	2.51
268.511	2.49
268.89	2.96
269.27	2.31
269.649	2.2
270.029	2.24
270.408	2.81
270.787	2.64
271.167	3.06
271.546	2.86
271.925	1.9
272.304	2.21
272.683	1.99
273.062	2.27
273.441	2.04
273.82	2.46
274.199	2.24
274.578	2.61
274.957	2.53
275.336	2.49
275.715	3.04
276.093	2.25
276.472	2.22
276.851	2.84
277.229	1.94
277.608	1.46
277.986	2.64
278.365	2.61
278.743	2.24
279.122	2.63
279.5	2.75
279.878	2.48
280.257	2.52
280.635	2.3
281.013	1.86
281.391	1.51
281.769	2.53
282.147	2.57
282.525	2.65
282.903	2.58
283.281	3.09
283.659	3
284.037	2.27
284.415	2.45
284.792	2.59
285.17	2.44
285.548	2.25
285.925	2.03
286.303	2.83
286.68	2.47
287.058	2.64
287.435	2.38
287.813	2.32
288.19	2.2
288.567	2.31
288.945	1.77
289.322	2.47
289.699	2.78
290.076	2.36
290.453	2.2
290.83	2.55
291.207	2.26
291.584	2.48
291.961	2.54
292.338	2.21
292.715	2.57
293.092	3.09
293.469	2.8
293.845	2.75
294.222	3.39
294.599	2.25
294.975	2.34
295.352	2.77
295.728	2.71
296.105	2.41
296.481	3.14
296.858	2.65
297.234	2.7
297.61	3.34
297.986	2.98
298.363	2.99
298.739	3.05
299.115	2.95
299.491	2.98
299.867	2.43
300.243	2.81
300.619	3.03
300.995	3.11
301.371	2.91
301.746	3.16
302.122	2.75
302.498	2.74
302.874	3.15
303.249	3.1
303.625	2.91
304	3.75
304.376	3.78
304.751	3.35
305.127	2.98
305.502	3.54
305.878	3.4
306.253	2.45
306.628	3.49
307.003	3.36
307.378	3.17
307.754	3.39
308.129	3.83
308.504	3.9
308.879	3.91
309.254	3.33
309.629	4.05
310.003	2.89
310.378	3.39
310.753	3.73
311.128	3.62
311.502	3.78
311.877	3.66
312.252	3.72
312.626	4.12
313.001	3.73
313.375	3.82
313.75	3.79
314.124	4.17
314.498	4.6
314.873	3.8
315.247	4.02
315.621	4.04
315.995	4.05
316.369	3.79
316.743	3.89
317.117	3.85
317.491	3.94
317.865	3.92
318.239	4.18
318.613	3.8
318.987	3.69
319.361	4.52
319.734	4.12
320.108	3.62
320.482	4.86
320.855	4.4
321.229	4.37
321.602	4.54
321.976	4.01
322.349	5.49
322.723	4.7
323.096	4.52
323.469	4.62
323.843	4.34
324.216	4.5
324.589	5.07
324.962	4.47
325.335	4.44
325.708	4.96
326.081	4.94
326.454	4.69
326.827	5.04
327.2	4.48
327.573	5.21
327.945	4.52
328.318	4.83
328.691	4.9
329.063	4.67
329.436	4.59
329.809	5.3
330.181	5.69
330.553	5.5
330.926	5.79
331.298	4.94
331.671	5.35
332.043	5.48
332.415	5.24
332.787	5.61
333.159	5.15
333.532	5.17
333.904	5.53
334.276	5.7
334.648	5.61
335.02	5.37
335.391	4.99
335.763	5.11
336.135	5.66
336.507	5.09
336.879	5.51
337.25	5.16
337.622	5.5
337.993	5.42
338.365	5.73
338.736	5.3
339.108	5.75
339.479	5.62
339.851	5.46
340.222	5.64
340.593	5.83
340.964	5.96
341.336	5.55
341.707	6.01
342.078	5.44
342.449	5.46
342.82	5.87
343.191	5.9
343.562	5.97
343.933	5.96
344.303	6.35
344.674	5.62
345.045	6.11
345.416	6.03
345.786	5.82
346.157	5.82
346.527	5.86
346.898	5.71
347.268	5.81
347.639	6
348.009	6
348.38	5.83
348.75	6.1
349.12	6.03
349.49	5.8
349.861	5.95
350.231	5.87
350.601	6.01
350.971	5.83
351.341	6.05
351.711	6.3
352.081	5.88
352.45	5.65
352.82	5.66
353.19	5.96
353.56	6.06
353.929	6.17
354.299	6.3
354.669	6.74
355.038	6.5
355.408	6.16
355.777	6.43
356.147	6.42
356.516	6.04
356.885	6.21
357.254	6.01
357.624	6.01
357.993	6.57
358.362	6.64
358.731	6.73
359.1	6.46
359.469	6.72
359.838	6.15
360.207	6.31
360.576	6.86
360.945	6.71
361.314	6.27
361.682	6.32
362.051	6.31
362.42	6.66
362.788	6.81
363.157	6.46
363.525	6.61
363.894	6.32
364.262	6.67
364.631	6.77
364.999	6.65
365.367	6.74
365.735	6.73
366.104	6.8
366.472	6.71
366.84	6.65
367.208	7.3
367.576	6.92
367.944	6.94
368.312	6.82
368.68	7.02
369.048	6.87
369.416	6.74
369.783	6.77
370.151	7.31
370.519	7.45
370.886	7.16
371.254	7.37
371.621	7.21
371.989	7.36
372.356	7.16
372.724	7.19
373.091	7.07
373.458	7.17
373.826	7.33
374.193	7.31
374.56	7.37
374.927	7.15
375.294	7.59
375.661	7.59
376.028	7.21
376.395	7.54
376.762	6.95
377.129	7.05
377.496	7.35
377.863	7.57
378.229	7.87
378.596	7.28
378.963	7.4
379.329	7.54
379.696	7.24
380.062	7.55
380.429	7.27
380.795	7.77
381.161	6.93
381.528	7.11
381.894	7.58
382.26	7.56
382.626	7.54
382.993	7.89
383.359	7.37
383.725	7.49
384.091	7.64
384.457	7.48
384.823	7.75
385.188	7.76
385.554	7.72
385.92	7.44
386.286	7.59
386.651	7.68
387.017	7.77
387.383	7.75
387.748	7.9
388.114	7.72
388.479	7.63
388.845	7.52
389.21	7.83
389.575	7.71
389.94	7.81
390.306	7.73
390.671	7.72
391.036	7.61
391.401	7.74
391.766	7.58
392.131	7.89
392.496	7.58
392.861	7.54
393.226	7.47
393.591	7.61
393.956	7.77
394.32	7.91
394.685	7.89
395.05	7.53
395.414	7.61
395.779	7.54
396.143	7.45
396.508	7.5
396.872	7.46
397.236	7.79
397.601	7.74
397.965	7.64
398.329	7.49
398.694	7.41
399.058	7.67
399.422	7.44
399.786	7.57
400.15	7.67
400.514	7.54
400.878	7.55
401.242	7.79
401.605	7.51
401.969	7.55
402.333	7.47
402.697	7.63
403.06	7.69
403.424	7.68
403.787	7.45
404.151	7.46
404.514	7.42
404.878	7.27
405.241	7.54
405.604	7.31
405.968	7.19
406.331	7.4
406.694	7.32
407.057	7.1
407.42	7.16
407.783	7.24
408.146	7.28
408.509	7.21
408.872	7.29
409.235	7.29
409.598	7.35
409.961	7.22
410.323	7.16
410.686	7.3
411.049	7.54
411.411	7.16
411.774	7.26
412.136	7.28
412.499	7.55
412.861	6.98
413.223	7.05
413.586	7.25
413.948	7.43
414.31	7.52
414.672	7.05
415.035	7.17
415.397	7.2
415.759	7.22
416.121	7.53
416.483	7.39
416.845	7.29
417.206	7.41
417.568	7.34
417.93	7.48
418.292	7.39
418.653	7.43
419.015	7.22
419.377	7.47
419.738	7.47
420.1	7.51
420.461	7.28
420.822	7.46
421.184	7.57
421.545	7.59
421.906	7.55
422.267	7.54
422.629	7.39
422.99	7.56
423.351	7.66
423.712	7.76
424.073	7.88
424.434	8.01
424.795	7.76
425.155	7.93
425.516	7.94
425.877	7.96
426.238	8.05
426.598	8.14
426.959	8.22
427.32	8.08
427.68	8.37
428.041	8.47
428.401	8.45
428.761	8.64
429.122	8.85
429.482	8.79
429.842	8.85
430.202	8.86
430.563	8.86
430.923	9.13
431.283	9.17
431.643	9.17
432.003	9.34
432.363	9.37
432.722	9.27
433.082	9.37
433.442	9.52
433.802	9.38
434.161	9.42
434.521	9.39
434.881	9.64
435.24	9.67
435.6	9.65
435.959	9.76
436.319	9.8
436.678	9.99
437.037	9.95
437.396	9.97
437.756	9.97
438.115	9.86
438.474	10.14
438.833	10.15
439.192	10.24
439.551	10.04
439.91	10.22
440.269	10.26
440.628	10.19
440.987	10.45
441.345	10.34
441.704	10.38
442.063	10.4
442.421	10.58
442.78	10.5
443.138	10.63
443.497	10.58
443.855	10.77
444.214	10.68
444.572	11.03
444.93	10.82
445.288	10.96
445.647	10.97
446.005	10.92
446.363	11.13
446.721	11.1
447.079	11.12
447.437	11.13
447.795	11.09
448.153	11.06
448.51	11.05
448.868	11.09
449.226	11.27
449.584	11.35
449.941	11.34
450.299	11.48
450.656	11.52
451.014	11.64
451.371	11.68
451.729	11.87
452.086	11.93
452.443	12.01
452.801	11.91
453.158	12.19
453.515	12.03
453.872	11.94
454.229	11.86
454.586	11.96
454.943	12.16
455.3	12.27
455.657	12.33
456.014	12.3
456.371	12.4
456.727	12.53
457.084	12.56
457.441	12.57
457.797	12.68
458.154	12.54
458.51	12.7
458.867	12.67
459.223	12.6
459.58	12.62
459.936	12.77
460.292	12.69
460.648	12.54
461.005	12.56
461.361	12.56
461.717	12.74
462.073	12.82
462.429	12.88
462.785	13.2
463.141	12.95
463.496	13.27
463.852	13.17
464.208	13.21
464.564	13.29
464.919	13.43
465.275	13.48
465.631	13.73
465.986	13.72
466.342	13.39
466.697	13.76
467.052	13.93
467.408	13.75
467.763	13.72
468.118	13.66
468.473	13.84
468.829	13.71
469.184	14.06
469.539	13.83
469.894	14.01
470.249	13.95
470.603	14.16
470.958	14.29
471.313	14.26
471.668	14.28
472.023	14.2
472.377	14.37
472.732	14.29
473.086	14.45
473.441	14.33
473.795	14.58
474.15	14.34
474.504	14.44
474.859	14.3
475.213	14.63
475.567	14.69
475.921	14.63
476.275	14.73
476.63	14.9
476.984	14.7
477.338	14.8
477.692	14.89
478.045	14.86
478.399	14.84
478.753	14.63
479.107	14.89
479.461	14.79
479.814	14.95
480.168	14.95
480.521	14.98
480.875	15.11
481.228	15.12
481.582	15.09
481.935	15.29
482.289	15.22
482.642	15.34
482.995	15.05
483.348	15.05
483.701	15.02
484.055	14.88
484.408	14.83
484.761	14.63
485.114	14.4
485.466	14.43
485.819	14.47
486.172	14.59
486.525	14.72
486.878	14.86
487.23	14.91
487.583	15.08
487.936	15.1
488.288	15.11
488.641	14.94
488.993	14.91
489.345	14.96
489.698	14.96
490.05	15.04
490.402	15.18
490.754	15.35
491.107	15.39
491.459	15.49
491.811	15.6
492.163	15.54
492.515	15.5
492.866	15.38
493.218	15.36
493.57	15.38
493.922	15.55
494.274	15.68
494.625	15.89
494.977	15.97
495.328	16.13
495.68	16.2
496.031	16.25
496.383	16.33
496.734	16.36
497.086	16.53
497.437	16.45
497.788	16.5
498.139	16.34
498.49	16.29
498.842	16.44
499.193	16.48
499.544	16.39
499.894	16.48
500.245	16.62
500.596	16.75
500.947	16.72
501.298	16.73
501.648	16.78
501.999	16.98
502.35	16.8
502.7	17.13
503.051	16.87
503.401	17.04
503.752	16.87
504.102	17.12
504.452	17.09
504.803	17.1
505.153	17.18
505.503	17.17
505.853	17.16
506.203	17.14
506.553	17.13
506.903	17.11
507.253	17.21
507.603	17.39
507.953	17.29
508.303	17.34
508.652	17.07
509.002	17.44
509.352	17.31
509.701	17.25
510.051	17.27
510.4	17.21
510.75	17.19
511.099	17.1
511.449	17.32
511.798	17.26
512.147	17.23
512.496	17.5
512.846	17.25
513.195	17.44
513.544	17.4
513.893	17.38
514.242	17.46
514.591	17.43
514.939	17.5
515.288	17.61
515.637	17.68
515.986	17.73
516.334	17.63
516.683	17.72
517.032	17.72
517.38	17.67
517.729	17.69
518.077	17.63
518.426	17.78
518.774	17.68
519.122	17.64
519.47	17.51
519.819	17.59
520.167	17.43
520.515	17.44
520.863	17.4
521.211	17.39
521.559	17.52
521.907	17.63
522.255	17.55
522.602	17.83
522.95	17.8
523.298	17.91
523.645	17.94
523.993	17.9
524.341	17.85
524.688	17.92
525.036	17.86
525.383	18.02
525.73	17.87
526.078	17.83
526.425	17.78
526.772	17.57
527.119	17.55
527.466	17.62
527.814	17.62
528.161	17.68
528.508	17.74
528.854	17.64
529.201	17.57
529.548	17.32
529.895	17.1
530.242	17.14
530.588	17.19
530.935	17.25
531.282	17.25
531.628	17.37
531.975	17.5
532.321	17.6
532.667	17.79
533.014	17.87
533.36	17.86
533.706	17.89
534.052	17.8
534.399	17.69
534.745	17.53
535.091	17.58
535.437	17.49
535.783	17.68
536.129	17.82
536.474	17.97
536.82	18.2
537.166	18.09
537.512	18.17
537.857	18.12
538.203	17.96
538.549	18.02
538.894	18.06
539.239	18.31
539.585	18.29
539.93	18.48
540.276	18.5
540.621	18.63
540.966	18.65
541.311	18.59
541.656	18.46
542.001	18.35
542.346	18.17
542.691	17.91
543.036	18
543.381	17.94
543.726	18.1
544.071	18.16
544.415	18.26
544.76	18.32
545.105	18.42
545.449	18.48
545.794	18.54
546.138	18.75
546.483	18.89
546.827	18.73
547.171	18.84
547.516	19.03
547.86	18.81
548.204	18.88
548.548	18.94
548.892	18.86
549.236	18.95
549.58	19.07
549.924	19.19
550.268	19.18
550.612	19.55
550.956	19.5
551.3	19.65
551.643	19.74
551.987	19.73
552.33	19.64
552.674	19.78
553.017	19.72
553.361	19.67
553.704	19.73
554.048	19.69
554.391	19.71
554.734	19.64
555.077	19.59
555.42	19.66
555.764	19.79
556.107	19.79
556.45	19.98
556.793	20.03
557.135	20.13
557.478	20.27
557.821	20.29
558.164	20.15
558.507	20.02
558.849	20.1
559.192	20.15
559.534	20.16
559.877	20.18
560.219	20.28
560.562	20.48
560.904	20.39
561.246	20.43
561.589	20.42
561.931	20.46
562.273	20.23
562.615	20.39
562.957	20.36
563.299	20.48
563.641	20.52
563.983	20.48
564.325	20.51
564.667	20.57
565.008	20.55
565.35	20.56
565.692	20.45
566.033	20.7
566.375	20.69
566.716	20.61
567.058	20.68
567.399	20.67
567.741	20.76
568.082	20.58
568.423	20.55
568.764	20.84
569.105	20.7
569.447	20.84
569.788	20.82
570.129	20.95
570.47	20.76
570.811	20.79
571.151	20.78
571.492	20.93
571.833	20.83
572.174	20.89
572.514	21.23
572.855	21.05
573.195	20.98
573.536	21
573.876	21.01
574.217	21.04
574.557	21
574.898	21.14
575.238	21.19
575.578	21.4
575.918	21.16
576.258	21.45
576.598	21.12
576.938	21.18
577.278	21.22
577.618	21.45
577.958	21.6
578.298	21.51
578.638	21.52
578.977	21.59
579.317	21.68
579.657	21.71
579.996	21.81
580.336	21.91
580.675	21.9
581.014	22.02
581.354	21.96
581.693	22.15
582.032	22.15
582.372	22.18
582.711	22.48
583.05	22.2
583.389	22.52
583.728	22.33
584.067	22.18
584.406	22.18
584.745	22.45
585.083	22.26
585.422	22.37
585.761	22.35
586.1	22.57
586.438	22.28
586.777	22.62
587.115	22.71
587.454	22.41
587.792	22.88
588.13	22.53
588.469	22.96
588.807	22.75
589.145	22.94
589.483	22.65
589.821	23.24
590.159	22.75
590.497	23.05
590.835	22.9
591.173	22.96
591.511	22.96
591.849	22.88
592.187	23
592.524	23.17
592.862	23.01
593.2	23.41
593.537	23.1
593.875	23.17
594.212	23.04
594.55	23.28
594.887	23.53
595.224	23.43
595.561	23.21
595.899	23.28
596.236	23.42
596.573	23.26
596.91	23.3
597.247	23.52
597.584	23.25
597.921	23.51
598.258	23.57
598.594	23.34
598.931	23.5
599.268	23.34
599.604	23.43
599.941	23.5
600.277	23.68
600.614	23.87
600.95	23.73
601.287	23.81
601.623	23.62
601.959	24.09
602.296	24.04
602.632	23.93
602.968	23.94
603.304	24.55
603.64	24.03
603.976	24.11
604.312	24.22
604.648	24.19
604.984	24.12
605.319	24.21
605.655	24.12
605.991	23.92
606.326	23.98
606.662	23.97
606.998	24.15
607.333	24.23
607.668	24.24
608.004	24.46
608.339	24.37
608.674	24.6
609.01	24.87
609.345	24.57
609.68	24.56
610.015	24.59
610.35	24.81
610.685	24.31
611.02	24.37
611.355	24.32
611.689	24.57
612.024	24.69
612.359	24.78
612.694	24.92
613.028	24.86
613.363	25.06
613.697	24.97
614.032	25.1
614.366	25.01
614.7	24.95
615.035	24.92
615.369	25.45
615.703	25.61
616.037	25.41
616.371	25.05
616.705	25.22
617.039	25.53
617.373	25.33
617.707	25.41
618.041	25.41
618.375	25.22
618.709	25.53
619.042	25.45
619.376	25.6
619.71	25.48
620.043	25.8
620.377	25.74
620.71	25.43
621.043	25.73
621.377	25.68
621.71	25.9
622.043	25.65
622.376	26.02
622.709	26.22
623.043	25.75
623.376	25.8
623.709	26.33
624.041	26.3
624.374	26.07
624.707	25.83
625.04	26.06
625.373	26.22
625.705	26.23
626.038	26.42
626.37	26.14
626.703	26.29
627.035	26.56
627.368	26.69
627.7	26.23
628.032	26.11
628.365	26.37
628.697	26.48
629.029	26.22
629.361	26.22
629.693	26.12
630.025	26.35
630.357	26.69
630.689	26.34
631.021	26.57
631.353	26.72
631.684	26.53
632.016	26.42
632.348	26.35
632.679	26.91
633.011	26.53
633.342	26.77
633.674	26.81
634.005	27.1
634.336	26.99
634.668	26.87
634.999	26.8
635.33	26.83
635.661	27.34
635.992	27.07
636.323	27.04
636.654	27.16
636.985	27.07
637.316	26.85
637.647	27.18
637.977	26.82
638.308	27.32
638.639	27.27
638.969	27.29
639.3	27.02
639.63	27.41
639.961	27.4
640.291	27.11
640.622	27.88
640.952	27.9
641.282	27.22
641.612	27.4
641.943	27.06
642.273	27.28
642.603	27.49
642.933	27.64
643.263	27.98
643.592	28.08
643.922	28.08
644.252	28.21
644.582	28.46
644.911	27.67
645.241	28.26
645.571	28.35
645.9	28.78
646.23	28.32
646.559	27.79
646.888	27.96
647.218	28.44
647.547	28.47
647.876	28.12
648.205	28.16
648.534	28.53
648.863	28.36
649.192	28.04
649.521	28.44
649.85	28.64
650.179	28.8
650.508	28.59
650.837	28.77
651.165	28.5
651.494	28.4
651.822	28.65
652.151	28.25
652.479	28.8
652.808	28.68
653.136	28.23
653.465	28.45
653.793	28.44
654.121	28.58
654.449	28.64
654.777	28.38
655.105	28.94
655.433	29.18
655.761	29.07
656.089	29.15
656.417	29.27
656.745	29.4
657.073	28.98
657.4	28.73
657.728	29.18
658.056	29.06
658.383	28.91
658.711	29.59
659.038	29.16
659.365	29.19
659.693	28.9
660.02	28.95
660.347	29.2
660.674	29.11
661.001	29.18
661.329	29.31
661.656	28.91
661.982	29.17
662.309	29.28
662.636	29.58
662.963	29.5
663.29	29.51
663.616	29.62
663.943	29.57
664.27	29.71
664.596	29.92
664.923	30.27
665.249	30.38
665.576	29.51
665.902	29.86
666.228	30.38
666.554	30.84
666.881	30.19
667.207	30.17
667.533	29.98
667.859	30.12
668.185	30.06
668.511	30.31
668.837	30.02
669.162	30.43
669.488	30.07
669.814	29.86
670.139	29.72
670.465	30.89
670.791	29.98
671.116	30.24
671.442	30.18
671.767	30.41
672.092	30.11
672.418	30.22
672.743	30.1
673.068	30.11
673.393	30.84
673.718	30.17
674.043	30.34
674.368	30.73
674.693	30.91
675.018	31.08
675.343	30.78
675.667	30.62
675.992	31.17
676.317	30.04
