Data from 21-6_forehead_Reflection__2__107.txt Node

Date: Thu Dec 15 17:17:23 CST 2022
User: ToomeyLab
Spectrometer: FLMS14357
Trigger mode: 0
Integration Time (sec): 1.000000E-2
Scans to average: 100
Electric dark correction enabled: true
Nonlinearity correction enabled: false
Boxcar width: 0
XAxis mode: Wavelengths
Number of Pixels in Spectrum: 2048
>>>>>Begin Spectral Data<<<<<
189.047	6.81
189.435	6.81
189.823	6.81
190.211	73.96
190.599	3.42
190.987	99.29
191.375	84.54
191.763	-684.16
192.151	78.97
192.538	123.31
192.926	245.87
193.314	3119.57
193.702	199.88
194.089	-175.28
194.477	184.5
194.864	130.08
195.252	-250.6
195.639	39.89
196.027	-257.44
196.414	79.08
196.801	790.81
197.189	-1126.4
197.576	136.57
197.963	112.9
198.351	23.29
198.738	-32
199.125	-29.14
199.512	46.5
199.899	-8.03
200.286	-22.05
200.673	42.84
201.06	18.92
201.447	-11.41
201.833	-2.25
202.22	36.21
202.607	124.64
202.994	6.37
203.38	-14.9
203.767	-15.75
204.154	26.26
204.54	11.94
204.927	13.37
205.313	48.57
205.699	25.44
206.086	39.47
206.472	46.28
206.858	12.27
207.245	1.07
207.631	24.62
208.017	48.35
208.403	-68.28
208.789	19.58
209.175	7.18
209.561	-63.46
209.947	-29.74
210.333	-12.98
210.719	26.07
211.105	28.44
211.491	2.3
211.876	-14.18
212.262	7.87
212.648	5.65
213.034	19.9
213.419	-10.59
213.805	-41.49
214.19	-15.31
214.576	-47.34
214.961	5.9
215.346	-17.99
215.732	-2.35
216.117	-13.28
216.502	-9.15
216.888	3.14
217.273	10.63
217.658	28.9
218.043	-23.71
218.428	-16.94
218.813	20.78
219.198	0.38
219.583	9.57
219.968	-9.4
220.353	-22.93
220.738	3.98
221.122	-6.04
221.507	-6.19
221.892	-21.62
222.276	-17.35
222.661	-6.96
223.046	-1.03
223.43	13.87
223.815	2.88
224.199	6.75
224.583	0.62
224.968	-9.53
225.352	-0.47
225.736	8.27
226.121	-4.68
226.505	-10.24
226.889	0.51
227.273	-0.61
227.657	0.39
228.041	1.62
228.425	-5.83
228.809	1.04
229.193	0.35
229.577	1.05
229.961	1.54
230.344	2.14
230.728	2.54
231.112	2.92
231.495	0.37
231.879	0.4
232.263	1.54
232.646	0.68
233.03	2.64
233.413	1.99
233.797	0.83
234.18	2.75
234.563	4.1
234.946	-0.07
235.33	-1.4
235.713	2.14
236.096	3.6
236.479	2.62
236.862	1.61
237.245	0.94
237.628	1.93
238.011	1.01
238.394	0.41
238.777	2.51
239.16	4.13
239.543	3.51
239.925	1.34
240.308	0.5
240.691	2.42
241.073	0.86
241.456	1.38
241.838	1.81
242.221	1.76
242.603	2.27
242.986	1.87
243.368	1.98
243.75	2.03
244.133	1.95
244.515	1.69
244.897	1.61
245.279	1.54
245.661	2.08
246.043	2.13
246.425	2.45
246.807	2.34
247.189	1.47
247.571	1.82
247.953	1.61
248.335	1.77
248.717	2.09
249.098	1.85
249.48	1.6
249.862	1.94
250.243	2.15
250.625	2.17
251.006	2.44
251.388	1.96
251.769	1.93
252.151	2.75
252.532	1.58
252.913	2
253.295	1.85
253.676	2.29
254.057	2.04
254.438	2.21
254.819	2.58
255.2	2.16
255.581	3.19
255.962	2.4
256.343	1.67
256.724	1.78
257.105	1.74
257.486	0.96
257.867	2.43
258.247	1.69
258.628	1.97
259.009	1.11
259.389	1.7
259.77	2.23
260.15	2.35
260.531	2.11
260.911	1.73
261.292	2.16
261.672	1.86
262.052	2.03
262.432	1.73
262.813	2.59
263.193	1.79
263.573	2.09
263.953	1.23
264.333	2.02
264.713	2.19
265.093	1.72
265.473	1.34
265.853	1.66
266.233	1.41
266.612	1.63
266.992	1.89
267.372	2.31
267.752	2.32
268.131	2.04
268.511	1.64
268.89	2.53
269.27	1.45
269.649	1.39
270.029	1.6
270.408	1.72
270.787	2.37
271.167	2.37
271.546	2.24
271.925	2.1
272.304	2.09
272.683	1.82
273.062	1.62
273.441	1.71
273.82	2
274.199	1.66
274.578	1.88
274.957	1.85
275.336	1.93
275.715	1.88
276.093	1.43
276.472	1.47
276.851	1.67
277.229	1.75
277.608	1.4
277.986	1.93
278.365	2.18
278.743	1.81
279.122	1.69
279.5	1.55
279.878	1.46
280.257	1.57
280.635	1.86
281.013	1.53
281.391	1.05
281.769	2
282.147	1.65
282.525	1.68
282.903	1.84
283.281	2.04
283.659	2.01
284.037	1.91
284.415	1.98
284.792	1.94
285.17	1.61
285.548	1.62
285.925	1.49
286.303	2.16
286.68	1.88
287.058	1.69
287.435	1.6
287.813	2.03
288.19	1.62
288.567	1.98
288.945	1.71
289.322	2.18
289.699	2.09
290.076	1.66
290.453	1.59
290.83	2.17
291.207	1.89
291.584	2.08
291.961	1.96
292.338	1.9
292.715	1.73
293.092	2.1
293.469	2.16
293.845	1.84
294.222	2.39
294.599	2.26
294.975	1.6
295.352	2.12
295.728	2.33
296.105	2.05
296.481	2.29
296.858	2.15
297.234	1.71
297.61	2.09
297.986	2.81
298.363	2.58
298.739	2.4
299.115	2.31
299.491	2.53
299.867	2.12
300.243	2.41
300.619	1.52
300.995	2.19
301.371	2.73
301.746	2.6
302.122	1.65
302.498	2.55
302.874	2.61
303.249	2.15
303.625	2.36
304	2.84
304.376	2.38
304.751	2.87
305.127	2.9
305.502	2.74
305.878	2.89
306.253	2.75
306.628	3.02
307.003	2.81
307.378	2.44
307.754	2.89
308.129	2.75
308.504	3.02
308.879	2.64
309.254	3.16
309.629	2.7
310.003	2.65
310.378	3.05
310.753	3.38
311.128	2.69
311.502	3.11
311.877	2.71
312.252	3.1
312.626	3.54
313.001	2.95
313.375	3.18
313.75	3.14
314.124	3.16
314.498	3.85
314.873	3.5
315.247	3.2
315.621	2.87
315.995	3.02
316.369	2.88
316.743	3.31
317.117	2.72
317.491	3.07
317.865	3
318.239	3.75
318.613	3.28
318.987	3.32
319.361	3.5
319.734	3.76
320.108	2.85
320.482	3.51
320.855	3.77
321.229	3.8
321.602	3.67
321.976	3.04
322.349	4.57
322.723	3.82
323.096	3.88
323.469	3.7
323.843	3.49
324.216	3.5
324.589	3.91
324.962	3.16
325.335	3.39
325.708	3.75
326.081	4.02
326.454	3.96
326.827	3.95
327.2	3.79
327.573	4.41
327.945	3.61
328.318	3.55
328.691	4.19
329.063	3.73
329.436	3.98
329.809	4.46
330.181	4.95
330.553	4.34
330.926	4.61
331.298	4.03
331.671	4.36
332.043	4.06
332.415	4.26
332.787	4.61
333.159	4.15
333.532	4.16
333.904	4.26
334.276	4.51
334.648	4.24
335.02	3.94
335.391	4.29
335.763	4.47
336.135	4.67
336.507	4.35
336.879	4.61
337.25	4.46
337.622	4.53
337.993	4.51
338.365	4.33
338.736	4.56
339.108	4.65
339.479	4.54
339.851	4.59
340.222	4.7
340.593	4.38
340.964	4.76
341.336	4.42
341.707	4.56
342.078	4.44
342.449	4.81
342.82	4.63
343.191	4.83
343.562	4.64
343.933	4.39
344.303	4.22
344.674	4.41
345.045	4.64
345.416	4.86
345.786	4.65
346.157	4.46
346.527	4.79
346.898	4.54
347.268	4.82
347.639	4.65
348.009	4.83
348.38	4.76
348.75	5.02
349.12	5.04
349.49	4.58
349.861	4.69
350.231	4.83
350.601	5.02
350.971	4.8
351.341	4.73
351.711	4.9
352.081	4.95
352.45	4.42
352.82	3.94
353.19	4.8
353.56	4.48
353.929	4.97
354.299	5.35
354.669	4.98
355.038	5.27
355.408	4.72
355.777	5.27
356.147	5.02
356.516	4.86
356.885	4.72
357.254	4.78
357.624	4.51
357.993	5.18
358.362	5
358.731	5.12
359.1	5.11
359.469	5.31
359.838	5.07
360.207	4.93
360.576	5.36
360.945	5.4
361.314	4.94
361.682	5.01
362.051	4.99
362.42	5.08
362.788	5.37
363.157	4.97
363.525	5.34
363.894	5.12
364.262	5.06
364.631	5.54
364.999	5.35
365.367	5.14
365.735	5.23
366.104	5.4
366.472	5.32
366.84	5.38
367.208	5.49
367.576	5.22
367.944	5.35
368.312	5.42
368.68	5.63
369.048	5.75
369.416	5.29
369.783	5.79
370.151	5.49
370.519	5.97
370.886	5.34
371.254	5.54
371.621	5.92
371.989	5.6
372.356	5.57
372.724	5.43
373.091	5.35
373.458	5.4
373.826	6.02
374.193	5.59
374.56	5.64
374.927	5.24
375.294	6.04
375.661	5.53
376.028	5.44
376.395	5.67
376.762	5.34
377.129	5.78
377.496	5.64
377.863	5.83
378.229	5.9
378.596	5.86
378.963	5.92
379.329	5.79
379.696	5.73
380.062	5.48
380.429	5.66
380.795	6.24
381.161	5.75
381.528	5.46
381.894	5.97
382.26	5.92
382.626	5.95
382.993	6.1
383.359	5.8
383.725	5.69
384.091	5.88
384.457	5.57
384.823	6
385.188	5.9
385.554	5.71
385.92	5.89
386.286	5.89
386.651	5.74
387.017	5.97
387.383	5.97
387.748	6.08
388.114	6.12
388.479	5.98
388.845	5.74
389.21	6.14
389.575	6.01
389.94	6.16
390.306	6.04
390.671	5.82
391.036	5.88
391.401	5.84
391.766	5.76
392.131	5.87
392.496	5.82
392.861	5.82
393.226	5.71
393.591	5.85
393.956	5.98
394.32	6.07
394.685	5.81
395.05	5.94
395.414	5.93
395.779	6.13
396.143	5.81
396.508	6.02
396.872	5.88
397.236	6.32
397.601	6.1
397.965	5.9
398.329	5.84
398.694	5.6
399.058	5.76
399.422	5.92
399.786	5.86
400.15	5.78
400.514	5.9
400.878	5.71
401.242	5.84
401.605	6
401.969	5.82
402.333	5.84
402.697	5.99
403.06	5.93
403.424	5.98
403.787	6.05
404.151	5.73
404.514	5.86
404.878	5.59
405.241	5.76
405.604	5.72
405.968	5.73
406.331	5.84
406.694	5.76
407.057	5.66
407.42	5.69
407.783	5.79
408.146	5.52
408.509	5.86
408.872	5.51
409.235	5.84
409.598	5.69
409.961	5.98
410.323	5.74
410.686	5.88
411.049	5.81
411.411	5.7
411.774	5.74
412.136	5.66
412.499	5.84
412.861	5.47
413.223	5.87
413.586	5.67
413.948	5.75
414.31	5.8
414.672	5.67
415.035	5.99
415.397	5.57
415.759	5.69
416.121	5.88
416.483	5.72
416.845	5.68
417.206	5.8
417.568	5.72
417.93	5.8
418.292	5.72
418.653	5.67
419.015	5.72
419.377	5.67
419.738	5.9
420.1	5.75
420.461	5.76
420.822	5.88
421.184	5.81
421.545	5.87
421.906	5.95
422.267	5.84
422.629	6.01
422.99	5.95
423.351	6
423.712	6.05
424.073	6.08
424.434	6.15
424.795	6.11
425.155	6.08
425.516	6.13
425.877	6.23
426.238	6.27
426.598	6.26
426.959	6.4
427.32	6.29
427.68	6.4
428.041	6.6
428.401	6.61
428.761	6.72
429.122	6.74
429.482	6.64
429.842	6.8
430.202	6.89
430.563	6.85
430.923	6.91
431.283	7.05
431.643	6.98
432.003	7.08
432.363	7.25
432.722	7.04
433.082	7.16
433.442	7.13
433.802	6.98
434.161	7.26
434.521	7.16
434.881	7.33
435.24	7.23
435.6	7.39
435.959	7.29
436.319	7.4
436.678	7.51
437.037	7.43
437.396	7.64
437.756	7.69
438.115	7.55
438.474	7.58
438.833	7.63
439.192	7.61
439.551	7.55
439.91	7.64
440.269	7.54
440.628	7.73
440.987	7.92
441.345	7.77
441.704	7.74
442.063	7.84
442.421	7.92
442.78	7.99
443.138	7.93
443.497	8.01
443.855	8.13
444.214	7.95
444.572	8.17
444.93	8.02
445.288	8.17
445.647	7.96
446.005	8.2
446.363	8.13
446.721	8.12
447.079	8.16
447.437	8.21
447.795	8.2
448.153	8.21
448.51	8.27
448.868	8.19
449.226	8.3
449.584	8.33
449.941	8.45
450.299	8.5
450.656	8.5
451.014	8.55
451.371	8.63
451.729	8.8
452.086	8.72
452.443	8.75
452.801	8.76
453.158	9.04
453.515	8.63
453.872	8.69
454.229	8.74
454.586	8.65
454.943	8.9
455.3	8.96
455.657	9
456.014	9.01
456.371	8.96
456.727	9.23
457.084	9.11
457.441	9.15
457.797	9.22
458.154	9.26
458.51	9.16
458.867	9.21
459.223	9.18
459.58	9.25
459.936	9.32
460.292	9.12
460.648	9.12
461.005	9.16
461.361	9.2
461.717	9.09
462.073	9.31
462.429	9.36
462.785	9.57
463.141	9.58
463.496	9.71
463.852	9.72
464.208	9.67
464.564	9.78
464.919	9.71
465.275	9.9
465.631	10.06
465.986	9.89
466.342	9.82
466.697	9.77
467.052	10.05
467.408	10.04
467.763	9.99
468.118	9.88
468.473	10.07
468.829	10
469.184	9.97
469.539	9.98
469.894	10.32
470.249	10.19
470.603	10.16
470.958	10.31
471.313	10.23
471.668	10.44
472.023	10.25
472.377	10.26
472.732	10.35
473.086	10.41
473.441	10.35
473.795	10.56
474.15	10.34
474.504	10.47
474.859	10.3
475.213	10.63
475.567	10.57
475.921	10.72
476.275	10.67
476.63	10.71
476.984	10.62
477.338	10.68
477.692	10.69
478.045	10.69
478.399	10.69
478.753	10.76
479.107	10.83
479.461	10.66
479.814	10.75
480.168	10.67
480.521	10.86
480.875	10.91
481.228	10.89
481.582	10.8
481.935	10.89
482.289	10.85
482.642	11.07
482.995	10.96
483.348	10.86
483.701	10.92
484.055	10.85
484.408	10.74
484.761	10.55
485.114	10.34
485.466	10.25
485.819	10.34
486.172	10.53
486.525	10.71
486.878	10.83
487.23	10.93
487.583	11.05
487.936	10.89
488.288	10.84
488.641	10.78
488.993	10.68
489.345	10.72
489.698	10.73
490.05	10.84
490.402	11
490.754	11.13
491.107	11.25
491.459	11.34
491.811	11.39
492.163	11.37
492.515	11.22
492.866	10.99
493.218	10.96
493.57	11.02
493.922	11.21
494.274	11.42
494.625	11.51
494.977	11.7
495.328	11.79
495.68	11.8
496.031	11.78
496.383	11.89
496.734	11.85
497.086	12.08
497.437	12.01
497.788	11.88
498.139	11.75
498.49	11.7
498.842	11.98
499.193	11.79
499.544	11.98
499.894	11.88
500.245	12.21
500.596	12.14
500.947	12.05
501.298	12.16
501.648	12.11
501.999	12.27
502.35	12.21
502.7	12.42
503.051	12.34
503.401	12.32
503.752	12.29
504.102	12.25
504.452	12.31
504.803	12.31
505.153	12.45
505.503	12.39
505.853	12.52
506.203	12.4
506.553	12.48
506.903	12.52
507.253	12.53
507.603	12.65
507.953	12.59
508.303	12.69
508.652	12.53
509.002	12.57
509.352	12.61
509.701	12.36
510.051	12.63
510.4	12.55
510.75	12.53
511.099	12.51
511.449	12.73
511.798	12.6
512.147	12.63
512.496	12.75
512.846	12.81
513.195	12.65
513.544	12.73
513.893	12.71
514.242	12.69
514.591	12.65
514.939	12.97
515.288	12.94
515.637	12.86
515.986	12.82
516.334	12.9
516.683	12.96
517.032	12.96
517.38	12.97
517.729	12.9
518.077	12.99
518.426	12.97
518.774	12.86
519.122	12.93
519.47	12.85
519.819	12.79
520.167	12.67
520.515	12.79
520.863	12.74
521.211	12.77
521.559	12.92
521.907	13.03
522.255	12.97
522.602	13.13
522.95	13.23
523.298	13.24
523.645	13.17
523.993	13.12
524.341	13.21
524.688	13.24
525.036	13.15
525.383	13.24
525.73	13.19
526.078	13.27
526.425	13.08
526.772	12.97
527.119	12.97
527.466	13.09
527.814	13
528.161	13.17
528.508	13.13
528.854	13.03
529.201	13
529.548	12.8
529.895	12.59
530.242	12.45
530.588	12.53
530.935	12.75
531.282	12.88
531.628	13.05
531.975	13.04
532.321	13.28
532.667	13.26
533.014	13.31
533.36	13.34
533.706	13.36
534.052	13.22
534.399	13.06
534.745	13.01
535.091	12.95
535.437	13.1
535.783	13.23
536.129	13.38
536.474	13.47
536.82	13.63
537.166	13.49
537.512	13.62
537.857	13.48
538.203	13.34
538.549	13.38
538.894	13.58
539.239	13.65
539.585	13.77
539.93	13.89
540.276	13.96
540.621	13.95
540.966	14.01
541.311	13.99
541.656	13.71
542.001	13.7
542.346	13.49
542.691	13.33
543.036	13.25
543.381	13.36
543.726	13.61
544.071	13.65
544.415	13.83
544.76	13.74
545.105	13.86
545.449	13.9
545.794	13.98
546.138	14.08
546.483	14.21
546.827	14.13
547.171	14.09
547.516	14.32
547.86	14.19
548.204	14.12
548.548	14.25
548.892	14.18
549.236	14.29
549.58	14.48
549.924	14.58
550.268	14.54
550.612	14.75
550.956	14.81
551.3	14.76
551.643	14.75
551.987	14.83
552.33	14.9
552.674	14.81
553.017	14.76
553.361	14.78
553.704	14.72
554.048	14.8
554.391	14.75
554.734	14.7
555.077	14.88
555.42	14.94
555.764	15.02
556.107	15.11
556.45	15.07
556.793	15.2
557.135	15.18
557.478	15.16
557.821	15.2
558.164	15.32
558.507	15.11
558.849	15.23
559.192	15.22
559.534	15.22
559.877	15.27
560.219	15.3
560.562	15.25
560.904	15.52
561.246	15.42
561.589	15.67
561.931	15.42
562.273	15.31
562.615	15.55
562.957	15.34
563.299	15.3
563.641	15.49
563.983	15.39
564.325	15.75
564.667	15.34
565.008	15.57
565.35	15.44
565.692	15.68
566.033	15.76
566.375	15.58
566.716	15.46
567.058	15.77
567.399	15.69
567.741	15.47
568.082	15.39
568.423	15.55
568.764	15.52
569.105	15.71
569.447	15.85
569.788	15.83
570.129	15.93
570.47	15.88
570.811	15.74
571.151	16
571.492	15.94
571.833	15.91
572.174	15.97
572.514	16.11
572.855	16.06
573.195	15.95
573.536	15.98
573.876	15.93
574.217	15.86
574.557	16.06
574.898	16.21
575.238	16.4
575.578	16.43
575.918	16.14
576.258	16.33
576.598	16.38
576.938	16.09
577.278	16.47
577.618	16.27
577.958	16.43
578.298	16.6
578.638	16.56
578.977	16.5
579.317	16.47
579.657	16.7
579.996	16.59
580.336	16.85
580.675	16.8
581.014	16.84
581.354	16.79
581.693	17.17
582.032	16.99
582.372	16.97
582.711	16.99
583.05	17.34
583.389	17
583.728	17.21
584.067	17.29
584.406	17.13
584.745	17.17
585.083	17.01
585.422	17.42
585.761	17.34
586.1	17.32
586.438	17.35
586.777	17.18
587.115	17.33
587.454	17.35
587.792	17.5
588.13	17.26
588.469	17.5
588.807	17.66
589.145	17.57
589.483	17.45
589.821	17.5
590.159	17.59
590.497	17.59
590.835	17.73
591.173	17.81
591.511	17.69
591.849	17.64
592.187	17.41
592.524	17.65
592.862	17.69
593.2	17.91
593.537	17.9
593.875	18.24
594.212	18.13
594.55	17.8
594.887	18.25
595.224	18.11
595.561	18
595.899	17.86
596.236	17.99
596.573	18.06
596.91	18.01
597.247	18.26
597.584	18.08
597.921	18
598.258	18.07
598.594	18.05
598.931	17.95
599.268	17.92
599.604	18.24
599.941	18.2
600.277	18.45
600.614	18.44
600.95	18.49
601.287	18.49
601.623	18.54
601.959	18.77
602.296	18.63
602.632	18.8
602.968	18.73
603.304	18.58
603.64	18.58
603.976	18.81
604.312	18.68
604.648	18.48
604.984	18.65
605.319	18.56
605.655	18.69
605.991	18.63
606.326	18.55
606.662	18.52
606.998	18.68
607.333	18.57
607.668	18.87
608.004	19.06
608.339	19.02
608.674	19.33
609.01	19.27
609.345	18.86
609.68	19.17
610.015	19.47
610.35	19.15
610.685	18.98
611.02	18.88
611.355	18.83
611.689	19
612.024	19.23
612.359	19.35
612.694	19.39
613.028	19.13
613.363	19.25
613.697	19.53
614.032	19.4
614.366	19.33
614.7	19.7
615.035	19.6
615.369	19.8
615.703	19.83
616.037	19.68
616.371	19.42
616.705	19.8
617.039	19.95
617.373	20
617.707	20.08
618.041	19.66
618.375	19.62
618.709	19.94
619.042	20.12
619.376	19.96
619.71	20.05
620.043	20.27
620.377	20.06
620.71	20.02
621.043	20.06
621.377	20.21
621.71	20.19
622.043	20.48
622.376	19.96
622.709	20.74
623.043	19.96
623.376	20.15
623.709	20.87
624.041	20.26
624.374	20.34
624.707	20.41
625.04	20.32
625.373	20.57
625.705	20.36
626.038	20.75
626.37	20.54
626.703	20.38
627.035	20.53
627.368	20.89
627.7	20.38
628.032	20.5
628.365	20.31
628.697	20.75
629.029	20.91
629.361	20.78
629.693	20.79
630.025	20.63
630.357	20.72
630.689	20.9
631.021	20.85
631.353	21.12
631.684	20.62
632.016	20.75
632.348	20.59
632.679	21.07
633.011	20.78
633.342	20.93
633.674	20.78
634.005	21.37
634.336	21.25
634.668	21.16
634.999	21.1
635.33	21.25
635.661	21.1
635.992	21.09
636.323	21.42
636.654	21.27
636.985	21.34
637.316	21.29
637.647	21.69
637.977	21.48
638.308	21.85
638.639	21.52
638.969	21.61
639.3	21.36
639.63	21.18
639.961	21.76
640.291	21.38
640.622	21.99
640.952	22.43
641.282	21.48
641.612	21.4
641.943	21.36
642.273	21.7
642.603	21.9
642.933	21.85
643.263	21.94
643.592	22.12
643.922	22.65
644.252	22.43
644.582	21.97
644.911	22.25
645.241	22.22
645.571	22.5
645.9	22.63
646.23	22.83
646.559	21.96
646.888	22.54
647.218	22.25
647.547	22.43
647.876	22.35
648.205	21.95
648.534	22.64
648.863	22.26
649.192	22.54
649.521	22.6
649.85	22.94
650.179	22.17
650.508	22.4
650.837	22.18
651.165	22.74
651.494	22.75
651.822	23
652.151	22.73
652.479	22.8
652.808	22.73
653.136	22.31
653.465	22.6
653.793	22.96
654.121	22.98
654.449	22.31
654.777	22.55
655.105	22.53
655.433	23.14
655.761	22.9
656.089	22.78
656.417	23.61
656.745	23.21
657.073	22.97
657.4	23.23
657.728	22.97
658.056	23.16
658.383	23.59
658.711	23.25
659.038	23.18
659.365	23.71
659.693	22.67
660.02	22.76
660.347	23.47
660.674	23.01
661.001	22.8
661.329	22.99
661.656	22.98
661.982	22.94
662.309	23.28
662.636	23.35
662.963	23.73
663.29	23.54
663.616	23.51
663.943	23.55
664.27	23.31
664.596	23.45
664.923	23.99
665.249	23.4
665.576	24.01
665.902	23.91
666.228	24.18
666.554	24.13
666.881	23.86
667.207	23.99
667.533	24.29
667.859	23.74
668.185	23.65
668.511	24.38
668.837	24.33
669.162	24.32
669.488	23.78
669.814	23.75
670.139	23.6
670.465	24.54
670.791	23.95
671.116	24
671.442	23.53
671.767	24.24
672.092	23.63
672.418	24.4
672.743	24.41
673.068	24.1
673.393	24.18
673.718	23.81
674.043	23.9
674.368	24.19
674.693	24.75
675.018	24.67
675.343	24.82
675.667	24.73
675.992	24.48
676.317	24.08
676.641	24.93
676.966	24.7
677.29	24.64
677.615	24.35
677.939	24.52
678.264	24.62
678.588	25.15
