Data from 21-6_chest_Reflection__1__96.txt Node

Date: Thu Dec 15 17:13:20 CST 2022
User: ToomeyLab
Spectrometer: FLMS14357
Trigger mode: 0
Integration Time (sec): 1.000000E-2
Scans to average: 100
Electric dark correction enabled: true
Nonlinearity correction enabled: false
Boxcar width: 0
XAxis mode: Wavelengths
Number of Pixels in Spectrum: 2048
>>>>>Begin Spectral Data<<<<<
189.047	-88.1
189.435	-88.1
189.823	-88.1
190.211	83.08
190.599	37.3
190.987	191.55
191.375	5.02
191.763	-1240.06
192.151	101.88
192.538	-37.87
192.926	64.93
193.314	-1441.3
193.702	-450.98
194.089	107.98
194.477	144.8
194.864	123.49
195.252	-409.28
195.639	104.21
196.027	22.6
196.414	170.26
196.801	-736.6
197.189	608.39
197.576	-31.66
197.963	94.17
198.351	21.59
198.738	-29.05
199.125	-22.55
199.512	38.01
199.899	-40.45
200.286	-1.46
200.673	68.56
201.06	16.2
201.447	58
201.833	-12.94
202.22	20.88
202.607	277.07
202.994	41.22
203.38	67.98
203.767	36.01
204.154	0.32
204.54	20.94
204.927	63.3
205.313	38.1
205.699	27.18
206.086	29.18
206.472	40.09
206.858	-0.66
207.245	6.18
207.631	-7.93
208.017	33.68
208.403	-10.01
208.789	6.68
209.175	-29.33
209.561	-53.71
209.947	19.88
210.333	-3.52
210.719	30.64
211.105	33.4
211.491	0.13
211.876	5.87
212.262	32.52
212.648	-2.55
213.034	-16.24
213.419	22.68
213.805	-29.51
214.19	-43.34
214.576	10.08
214.961	28.8
215.346	-2.05
215.732	10.27
216.117	26.47
216.502	7.24
216.888	18.2
217.273	3.96
217.658	-5.59
218.043	-37.88
218.428	-14.63
218.813	18.62
219.198	4.13
219.583	15.28
219.968	6.45
220.353	1.24
220.738	28.18
221.122	2.58
221.507	-11.53
221.892	-5.5
222.276	10.34
222.661	12.77
223.046	11.36
223.43	18.84
223.815	2.39
224.199	3.55
224.583	-1.85
224.968	6.51
225.352	-0.64
225.736	14.72
226.121	6.16
226.505	3.32
226.889	1.13
227.273	-3.83
227.657	8.69
228.041	2.26
228.425	0.98
228.809	1.58
229.193	6.3
229.577	4.55
229.961	4.13
230.344	5.2
230.728	5.36
231.112	4.68
231.495	3.83
231.879	4.4
232.263	5.5
232.646	3.29
233.03	5.36
233.413	3.85
233.797	4.85
234.18	7.72
234.563	6.31
234.946	2.38
235.33	5.37
235.713	4.22
236.096	6.64
236.479	6.04
236.862	4.18
237.245	4.54
237.628	4.94
238.011	5.12
238.394	4.02
238.777	4.95
239.16	4.73
239.543	5.11
239.925	2.34
240.308	2.27
240.691	5.22
241.073	3.69
241.456	4.22
241.838	4.18
242.221	4.9
242.603	4.73
242.986	4.21
243.368	4.61
243.75	4.53
244.133	4.44
244.515	4.27
244.897	4.05
245.279	3.99
245.661	4.08
246.043	4.33
246.425	4.56
246.807	4.2
247.189	3.91
247.571	3.74
247.953	3.9
248.335	4.29
248.717	4.37
249.098	4.27
249.48	3.95
249.862	4.49
250.243	4.46
250.625	4.03
251.006	4.96
251.388	3.95
251.769	3.2
252.151	4.77
252.532	3.98
252.913	4.54
253.295	4.04
253.676	3.99
254.057	3.92
254.438	4.09
254.819	4.45
255.2	4.5
255.581	5.7
255.962	4.7
256.343	4.82
256.724	4.76
257.105	3.26
257.486	4.17
257.867	4.06
258.247	4.57
258.628	4.39
259.009	3.86
259.389	3.03
259.77	3.48
260.15	4.53
260.531	4.07
260.911	4.17
261.292	3.97
261.672	3.9
262.052	3.96
262.432	3.56
262.813	4.44
263.193	4.12
263.573	4.05
263.953	3.69
264.333	4.46
264.713	4.04
265.093	4.12
265.473	3.31
265.853	3.75
266.233	4.55
266.612	3.65
266.992	3.71
267.372	3.84
267.752	4.16
268.131	3.57
268.511	3.76
268.89	4.59
269.27	3.62
269.649	3.61
270.029	3.41
270.408	3.76
270.787	3.96
271.167	4.55
271.546	4.77
271.925	4.26
272.304	4.12
272.683	3.75
273.062	4.14
273.441	3.53
273.82	3.97
274.199	3.34
274.578	3.64
274.957	4.09
275.336	4.02
275.715	4.05
276.093	3.08
276.472	3.53
276.851	3.84
277.229	3.25
277.608	3.06
277.986	4.45
278.365	4.03
278.743	3.89
279.122	3.4
279.5	3.98
279.878	3.27
280.257	3.83
280.635	3.6
281.013	3.44
281.391	3.65
281.769	4.12
282.147	3.62
282.525	3.25
282.903	3.63
283.281	4.02
283.659	3.93
284.037	3.9
284.415	3.65
284.792	4.1
285.17	3.57
285.548	3.39
285.925	3.31
286.303	4.23
286.68	3.86
287.058	3.56
287.435	3.58
287.813	3.63
288.19	3.51
288.567	3.59
288.945	3.48
289.322	3.85
289.699	4.16
290.076	3.73
290.453	2.89
290.83	4.22
291.207	3.57
291.584	3.88
291.961	3.77
292.338	3.56
292.715	3.65
293.092	3.89
293.469	3.49
293.845	3.57
294.222	4.51
294.599	3.07
294.975	3.57
295.352	3.86
295.728	3.92
296.105	3.9
296.481	4.22
296.858	4.05
297.234	3.55
297.61	3.7
297.986	3.91
298.363	3.78
298.739	3.93
299.115	3.85
299.491	4.03
299.867	3.82
300.243	3.8
300.619	3.69
300.995	3.83
301.371	3.33
301.746	4.19
302.122	3.33
302.498	3.71
302.874	4.11
303.249	3.69
303.625	3.75
304	4.03
304.376	4.14
304.751	3.93
305.127	4.04
305.502	4.06
305.878	3.72
306.253	3.79
306.628	4.15
307.003	3.93
307.378	3.85
307.754	4.42
308.129	3.42
308.504	4.08
308.879	3.78
309.254	4.39
309.629	3.76
310.003	4.11
310.378	4.51
310.753	3.91
311.128	3.82
311.502	3.87
311.877	3.81
312.252	3.81
312.626	3.99
313.001	4
313.375	3.84
313.75	4.03
314.124	3.99
314.498	4.45
314.873	3.29
315.247	3.94
315.621	3.43
315.995	3.95
316.369	3.79
316.743	3.79
317.117	3.76
317.491	3.84
317.865	3.38
318.239	4.44
318.613	3.7
318.987	3.24
319.361	3.87
319.734	4.09
320.108	3.94
320.482	4.69
320.855	4.09
321.229	3.86
321.602	3.92
321.976	4.02
322.349	4.6
322.723	4.14
323.096	3.93
323.469	3.47
323.843	3.8
324.216	3.81
324.589	3.79
324.962	3.81
325.335	4.28
325.708	3.69
326.081	4.15
326.454	4.04
326.827	4.14
327.2	3.47
327.573	4.33
327.945	3.77
328.318	3.91
328.691	4.06
329.063	3.7
329.436	3.62
329.809	4.51
330.181	4.43
330.553	4.28
330.926	4.34
331.298	4.41
331.671	3.66
332.043	3.63
332.415	4.05
332.787	4.18
333.159	3.9
333.532	3.76
333.904	3.78
334.276	4.05
334.648	4.26
335.02	3.67
335.391	3.85
335.763	4.46
336.135	4.4
336.507	3.53
336.879	3.93
337.25	4.14
337.622	4.4
337.993	3.71
338.365	3.89
338.736	4.13
339.108	3.91
339.479	3.52
339.851	3.9
340.222	4.08
340.593	4.03
340.964	4.16
341.336	3.95
341.707	4.11
342.078	3.79
342.449	3.85
342.82	4.41
343.191	3.99
343.562	4.15
343.933	3.78
344.303	4.38
344.674	4.26
345.045	4.17
345.416	4.17
345.786	3.86
346.157	4.3
346.527	4.01
346.898	3.66
347.268	4.02
347.639	3.76
348.009	4.43
348.38	3.83
348.75	4.04
349.12	4.07
349.49	4.17
349.861	4.3
350.231	3.92
350.601	3.7
350.971	3.77
351.341	4.41
351.711	4.17
352.081	3.95
352.45	3.72
352.82	3.48
353.19	3.63
353.56	3.62
353.929	4.38
354.299	4.22
354.669	4.07
355.038	4.51
355.408	3.96
355.777	4.23
356.147	4.06
356.516	3.88
356.885	3.95
357.254	4.06
357.624	3.69
357.993	4.28
358.362	4.06
358.731	4.02
359.1	4.01
359.469	4.26
359.838	4.23
360.207	3.82
360.576	4.23
360.945	4.34
361.314	3.74
361.682	3.82
362.051	4.05
362.42	4.21
362.788	3.94
363.157	4.01
363.525	4.14
363.894	3.87
364.262	4.18
364.631	4.44
364.999	4.07
365.367	4.12
365.735	3.88
366.104	4.24
366.472	4
366.84	4.07
367.208	4.3
367.576	4.06
367.944	4.05
368.312	4.14
368.68	4.36
369.048	4.1
369.416	3.85
369.783	3.98
370.151	4.29
370.519	4.27
370.886	4.17
371.254	4.35
371.621	4.19
371.989	4.48
372.356	4.02
372.724	3.92
373.091	3.97
373.458	3.85
373.826	4.38
374.193	4.12
374.56	3.96
374.927	3.9
375.294	4.49
375.661	4.46
376.028	4.06
376.395	4.2
376.762	3.93
377.129	4.2
377.496	4.24
377.863	4.04
378.229	4.4
378.596	4.37
378.963	4.3
379.329	4.29
379.696	4.25
380.062	4.23
380.429	3.89
380.795	4.41
381.161	4.07
381.528	3.89
381.894	4.05
382.26	4.13
382.626	4.38
382.993	4.45
383.359	4.32
383.725	4.01
384.091	4.57
384.457	4.11
384.823	4.2
385.188	4.2
385.554	4.16
385.92	4
386.286	4.36
386.651	4.2
387.017	4.22
387.383	4.18
387.748	4.24
388.114	4.26
388.479	4.17
388.845	4.26
389.21	4.65
389.575	4.46
389.94	4.32
390.306	4.29
390.671	4.34
391.036	4.36
391.401	4.29
391.766	4.08
392.131	4.52
392.496	4.32
392.861	4.24
393.226	4.19
393.591	4.21
393.956	4.18
394.32	4.4
394.685	4.33
395.05	4.28
395.414	4.19
395.779	4.49
396.143	4.12
396.508	4.33
396.872	4.09
397.236	4.68
397.601	4.45
397.965	4.42
398.329	4.37
398.694	4.31
399.058	4.25
399.422	4.35
399.786	4.21
400.15	4.43
400.514	4.38
400.878	4.36
401.242	4.29
401.605	4.29
401.969	4.33
402.333	4.1
402.697	4.24
403.06	4.43
403.424	4.55
403.787	4.21
404.151	4.51
404.514	4.46
404.878	4.17
405.241	4.36
405.604	4.22
405.968	4.4
406.331	4.47
406.694	4.53
407.057	4.28
407.42	4.37
407.783	4.44
408.146	4.51
408.509	4.3
408.872	4.49
409.235	4.39
409.598	4.32
409.961	4.59
410.323	4.37
410.686	4.52
411.049	4.62
411.411	4.68
411.774	4.42
412.136	4.41
412.499	4.6
412.861	4.24
413.223	4.32
413.586	4.43
413.948	4.75
414.31	4.49
414.672	4.4
415.035	4.59
415.397	4.43
415.759	4.3
416.121	4.62
416.483	4.55
416.845	4.38
417.206	4.43
417.568	4.48
417.93	4.41
418.292	4.41
418.653	4.19
419.015	4.32
419.377	4.46
419.738	4.49
420.1	4.37
420.461	4.29
420.822	4.49
421.184	4.44
421.545	4.44
421.906	4.42
422.267	4.31
422.629	4.18
422.99	4.22
423.351	4.37
423.712	4.43
424.073	4.52
424.434	4.58
424.795	4.39
425.155	4.39
425.516	4.31
425.877	4.42
426.238	4.36
426.598	4.43
426.959	4.39
427.32	4.44
427.68	4.5
428.041	4.64
428.401	4.38
428.761	4.56
429.122	4.61
429.482	4.53
429.842	4.48
430.202	4.52
430.563	4.52
430.923	4.58
431.283	4.5
431.643	4.81
432.003	4.58
432.363	4.53
432.722	4.54
433.082	4.51
433.442	4.54
433.802	4.55
434.161	4.61
434.521	4.59
434.881	4.57
435.24	4.56
435.6	4.54
435.959	4.51
436.319	4.62
436.678	4.64
437.037	4.62
437.396	4.52
437.756	4.64
438.115	4.51
438.474	4.57
438.833	4.63
439.192	4.52
439.551	4.61
439.91	4.73
440.269	4.66
440.628	4.48
440.987	4.62
441.345	4.6
441.704	4.62
442.063	4.58
442.421	4.57
442.78	4.5
443.138	4.58
443.497	4.47
443.855	4.67
444.214	4.53
444.572	4.64
444.93	4.49
445.288	4.78
445.647	4.56
446.005	4.6
446.363	4.52
446.721	4.58
447.079	4.52
447.437	4.54
447.795	4.59
448.153	4.62
448.51	4.62
448.868	4.54
449.226	4.62
449.584	4.65
449.941	4.67
450.299	4.68
450.656	4.67
451.014	4.8
451.371	4.8
451.729	4.8
452.086	4.93
452.443	4.77
452.801	4.84
453.158	4.81
453.515	4.74
453.872	4.69
454.229	4.57
454.586	4.66
454.943	4.88
455.3	4.86
455.657	4.73
456.014	4.71
456.371	4.84
456.727	4.76
457.084	4.98
457.441	4.96
457.797	4.65
458.154	4.74
458.51	4.66
458.867	4.78
459.223	4.83
459.58	4.85
459.936	4.71
460.292	4.75
460.648	4.66
461.005	4.64
461.361	4.58
461.717	4.61
462.073	4.73
462.429	4.81
462.785	4.94
463.141	4.72
463.496	4.83
463.852	4.97
464.208	4.83
464.564	4.85
464.919	4.92
465.275	5.04
465.631	5.06
465.986	4.78
466.342	4.82
466.697	4.78
467.052	5.04
467.408	5.02
467.763	4.87
468.118	4.79
468.473	4.8
468.829	4.83
469.184	4.95
469.539	4.79
469.894	4.87
470.249	4.94
470.603	5.06
470.958	5.03
471.313	5
471.668	5.01
472.023	5.01
472.377	4.78
472.732	5.02
473.086	4.9
473.441	4.91
473.795	5.27
474.15	4.94
474.504	4.94
474.859	4.9
475.213	4.95
475.567	4.98
475.921	5.06
476.275	5.06
476.63	5.05
476.984	4.93
477.338	5.02
477.692	4.94
478.045	5
478.399	5.09
478.753	4.9
479.107	5.1
479.461	4.91
479.814	5.08
480.168	5.12
480.521	5.1
480.875	4.97
481.228	5.07
481.582	5.12
481.935	5.1
482.289	4.95
482.642	5.12
482.995	5
483.348	4.97
483.701	5.02
484.055	4.89
484.408	4.92
484.761	4.8
485.114	4.72
485.466	4.7
485.819	4.7
486.172	4.79
486.525	4.83
486.878	4.92
487.23	4.94
487.583	4.94
487.936	4.93
488.288	4.9
488.641	4.85
488.993	4.82
489.345	4.83
489.698	4.8
490.05	4.89
490.402	4.92
490.754	4.94
491.107	4.94
491.459	5.04
491.811	5.05
492.163	5.01
492.515	4.93
492.866	4.92
493.218	4.94
493.57	4.99
493.922	4.97
494.274	5.08
494.625	5.05
494.977	5.2
495.328	5.15
495.68	5.18
496.031	5.26
496.383	5.26
496.734	5.11
497.086	5.34
497.437	5.21
497.788	5.19
498.139	5.18
498.49	5.18
498.842	5.22
499.193	5.18
499.544	5.19
499.894	5.16
500.245	5.32
500.596	5.26
500.947	5.27
501.298	5.32
501.648	5.37
501.999	5.31
502.35	5.28
502.7	5.5
503.051	5.39
503.401	5.46
503.752	5.22
504.102	5.32
504.452	5.31
504.803	5.24
505.153	5.39
505.503	5.31
505.853	5.49
506.203	5.35
506.553	5.28
506.903	5.39
507.253	5.45
507.603	5.49
507.953	5.29
508.303	5.47
508.652	5.38
509.002	5.53
509.352	5.48
509.701	5.33
510.051	5.61
510.4	5.52
510.75	5.39
511.099	5.35
511.449	5.48
511.798	5.48
512.147	5.35
512.496	5.49
512.846	5.49
513.195	5.49
513.544	5.52
513.893	5.52
514.242	5.57
514.591	5.45
514.939	5.51
515.288	5.67
515.637	5.61
515.986	5.58
516.334	5.67
516.683	5.6
517.032	5.55
517.38	5.53
517.729	5.68
518.077	5.56
518.426	5.63
518.774	5.61
519.122	5.65
519.47	5.61
519.819	5.68
520.167	5.57
520.515	5.57
520.863	5.57
521.211	5.62
521.559	5.61
521.907	5.75
522.255	5.68
522.602	5.75
522.95	5.83
523.298	5.68
523.645	5.72
523.993	5.77
524.341	5.85
524.688	5.76
525.036	5.85
525.383	5.87
525.73	5.84
526.078	5.8
526.425	5.75
526.772	5.69
527.119	5.79
527.466	5.84
527.814	5.77
528.161	5.9
528.508	5.85
528.854	5.71
529.201	5.75
529.548	5.77
529.895	5.64
530.242	5.61
530.588	5.67
530.935	5.69
531.282	5.73
531.628	5.73
531.975	5.8
532.321	5.86
532.667	5.95
533.014	5.89
533.36	5.97
533.706	6.04
534.052	6.09
534.399	5.91
534.745	5.87
535.091	5.85
535.437	5.9
535.783	5.98
536.129	6.01
536.474	6.1
536.82	6.16
537.166	6.12
537.512	6.08
537.857	6.13
538.203	6.06
538.549	6.08
538.894	6.1
539.239	6.26
539.585	6.24
539.93	6.31
540.276	6.29
540.621	6.29
540.966	6.28
541.311	6.32
541.656	6.24
542.001	6.25
542.346	6.21
542.691	6.12
543.036	6.14
543.381	6.19
543.726	6.24
544.071	6.24
544.415	6.24
544.76	6.26
545.105	6.38
545.449	6.21
545.794	6.35
546.138	6.37
546.483	6.55
546.827	6.47
547.171	6.48
547.516	6.55
547.86	6.65
548.204	6.6
548.548	6.55
548.892	6.61
549.236	6.56
549.58	6.6
549.924	6.66
550.268	6.82
550.612	6.82
550.956	6.78
551.3	6.91
551.643	6.87
551.987	6.97
552.33	7.12
552.674	6.88
553.017	6.84
553.361	7.05
553.704	7.07
554.048	6.81
554.391	7.01
554.734	6.85
555.077	6.98
555.42	6.94
555.764	6.96
556.107	7.22
556.45	7.16
556.793	7.17
557.135	7.12
557.478	7.08
557.821	7.34
558.164	7.22
558.507	7.09
558.849	7.37
559.192	7.2
559.534	7.24
559.877	7.2
560.219	7.34
560.562	7.35
560.904	7.34
561.246	7.32
561.589	7.55
561.931	7.42
562.273	7.37
562.615	7.23
562.957	7.36
563.299	7.37
563.641	7.55
563.983	7.42
564.325	7.68
564.667	7.59
565.008	7.46
565.35	7.43
565.692	7.65
566.033	7.59
566.375	7.71
566.716	7.67
567.058	7.86
567.399	7.74
567.741	7.58
568.082	7.76
568.423	7.67
568.764	7.71
569.105	7.87
569.447	7.86
569.788	7.82
570.129	7.74
570.47	7.78
570.811	7.74
571.151	7.86
571.492	7.91
571.833	7.96
572.174	8.03
572.514	7.96
572.855	8.09
573.195	7.96
573.536	8.08
573.876	8.16
574.217	7.93
574.557	8.15
574.898	7.98
575.238	8.35
575.578	8.21
575.918	8.26
576.258	8.47
576.598	8.11
576.938	8.32
577.278	8.36
577.618	8.43
577.958	8.44
578.298	8.42
578.638	8.42
578.977	8.52
579.317	8.48
579.657	8.47
579.996	8.69
580.336	8.57
580.675	8.61
581.014	8.64
581.354	8.51
581.693	8.78
582.032	8.9
582.372	8.79
582.711	8.88
583.05	8.81
583.389	8.91
583.728	8.89
584.067	8.8
584.406	9.04
584.745	8.68
585.083	9.01
585.422	8.98
585.761	9.03
586.1	9.15
586.438	8.98
586.777	9.27
587.115	9.24
587.454	8.98
587.792	9.26
588.13	9.23
588.469	9.3
588.807	9.41
589.145	9.43
589.483	9.28
589.821	9.38
590.159	9.4
590.497	9.4
590.835	9.82
591.173	9.61
591.511	9.77
591.849	9.61
592.187	9.6
592.524	9.83
592.862	9.33
593.2	9.63
593.537	9.62
593.875	9.62
594.212	9.48
594.55	9.78
594.887	9.7
595.224	9.83
595.561	9.75
595.899	9.91
596.236	9.92
596.573	9.72
596.91	9.76
597.247	10.14
597.584	10.19
597.921	9.86
598.258	10.23
598.594	9.98
598.931	9.78
599.268	9.82
599.604	10.04
599.941	10.2
600.277	10.06
600.614	10.3
600.95	10.23
601.287	9.97
601.623	10.16
601.959	10.55
602.296	10.43
602.632	10.29
602.968	10.87
603.304	10.69
603.64	10.59
603.976	10.39
604.312	10.43
604.648	10.6
604.984	10.59
605.319	10.55
605.655	10.51
605.991	10.54
606.326	10.72
606.662	10.5
606.998	10.78
607.333	10.7
607.668	10.87
608.004	10.76
608.339	10.83
608.674	10.98
609.01	11.2
609.345	11.05
609.68	11.14
610.015	11.25
610.35	11.22
610.685	10.88
611.02	11
611.355	10.96
611.689	10.89
612.024	11.26
612.359	11.22
612.694	11.42
613.028	11.12
613.363	11.35
613.697	11.63
614.032	11.39
614.366	11.62
614.7	11.69
615.035	11.63
615.369	11.93
615.703	11.73
616.037	11.75
616.371	11.55
616.705	11.95
617.039	11.68
617.373	11.99
617.707	11.95
618.041	11.77
618.375	11.41
618.709	12
619.042	11.99
619.376	11.82
619.71	11.78
620.043	12.48
620.377	12.08
620.71	12.16
621.043	12.38
621.377	12.2
621.71	12.58
622.043	12.39
622.376	12.17
622.709	12.66
623.043	12.29
623.376	12.17
623.709	12.84
624.041	12.47
624.374	12.62
624.707	12.31
625.04	12.67
625.373	12.78
625.705	12.57
626.038	12.65
626.37	12.64
626.703	12.61
627.035	12.96
627.368	13.27
627.7	12.85
628.032	12.68
628.365	13.21
628.697	13.11
629.029	13.09
629.361	13.19
629.693	13.07
630.025	13.32
630.357	13.04
630.689	13.27
631.021	13.3
631.353	13.21
631.684	13.07
632.016	12.83
632.348	13.21
632.679	13.58
633.011	13.5
633.342	13.47
633.674	13.47
634.005	13.54
634.336	13.9
634.668	13.8
634.999	13.29
635.33	13.74
635.661	13.76
635.992	13.59
636.323	13.71
636.654	14.01
636.985	13.53
637.316	13.64
637.647	13.98
637.977	14.01
638.308	14.18
638.639	14.03
638.969	13.78
639.3	13.95
639.63	14.27
639.961	13.98
640.291	14.3
640.622	14.39
640.952	14.48
641.282	13.76
641.612	14.28
641.943	14.4
642.273	14.35
642.603	14.95
642.933	14.91
643.263	14.46
643.592	14.6
643.922	14.87
644.252	14.47
644.582	14.93
644.911	14.62
645.241	14.88
645.571	14.57
645.9	15.25
646.23	15.11
646.559	14.89
646.888	14.92
647.218	14.8
647.547	15.19
647.876	15.35
648.205	14.74
648.534	15.21
648.863	15.19
649.192	15.19
649.521	15.34
649.85	15.39
650.179	15.88
650.508	15.37
650.837	15.66
651.165	15.66
651.494	15.53
651.822	15.62
652.151	15.39
652.479	15.61
652.808	15.76
653.136	15.37
653.465	15.56
653.793	15.66
654.121	15.85
654.449	15.68
654.777	15.15
655.105	15.3
655.433	16.28
655.761	15.59
656.089	15.71
656.417	16.4
656.745	16.34
657.073	15.98
657.4	16.41
657.728	15.75
658.056	16.15
658.383	16.34
658.711	16.15
659.038	16.38
659.365	16.25
659.693	16.36
660.02	16.51
660.347	16.51
660.674	15.96
661.001	16.55
661.329	16.65
661.656	16.26
661.982	16.65
662.309	16.5
662.636	16.62
662.963	16.57
663.29	16.85
663.616	16.57
663.943	16.83
664.27	16.55
664.596	16.71
664.923	17.04
665.249	16.47
665.576	16.83
665.902	16.83
666.228	17.1
666.554	17.82
666.881	17.01
667.207	17.27
667.533	17.56
667.859	17.41
668.185	17.26
668.511	17.74
668.837	17.21
669.162	17.71
669.488	17.21
669.814	17.71
670.139	16.93
670.465	17.69
670.791	17.52
671.116	17.91
671.442	17.83
671.767	18.35
672.092	17.25
672.418	17.67
672.743	17.91
673.068	17.41
673.393	18.02
673.718	17.5
674.043	17.46
674.368	17.92
674.693	18.49
675.018	18.25
675.343	18.25
675.667	18.14
675.992	18.44
676.317	17.98
676.641	18.6
676.966	18.78
677.29	18.2
677.615	18.61
677.939	19.12
678.264	17.94
678.588	18.39
678.912	18.58
679.236	18.66
679.56	18.24
679.885	18.46
680.209	18.94
680.532	19.41
680.856	19.08
681.18	19.35
681.504	19.01
681.828	18.85
682.152	18.67
682.475	19.06
682.799	19.05
683.122	19.19
683.446	18.36
683.769	18.89
684.093	19.6
684.416	18.63
684.739	19.11
685.062	19.29
685.386	19.65
685.709	19.86
686.032	19.46
686.355	19.41
