Data from 21-6_crown_Reflection__0__100.txt Node

Date: Thu Dec 15 17:15:33 CST 2022
User: ToomeyLab
Spectrometer: FLMS14357
Trigger mode: 0
Integration Time (sec): 1.000000E-2
Scans to average: 100
Electric dark correction enabled: true
Nonlinearity correction enabled: false
Boxcar width: 0
XAxis mode: Wavelengths
Number of Pixels in Spectrum: 2048
>>>>>Begin Spectral Data<<<<<
189.047	-49.89
189.435	-49.89
189.823	-49.89
190.211	18.21
190.599	63.67
190.987	79.64
191.375	-180.05
191.763	-733.85
192.151	100.93
192.538	62.24
192.926	508.03
193.314	11850
193.702	-307.25
194.089	-185.39
194.477	138.58
194.864	140.63
195.252	870.36
195.639	221.46
196.027	-160.16
196.414	124.44
196.801	92.99
197.189	-1459.32
197.576	-127.47
197.963	9.43
198.351	-4.16
198.738	-60.37
199.125	-109.71
199.512	25.54
199.899	-42.05
200.286	2.53
200.673	0.38
201.06	0.2
201.447	-9.88
201.833	-5.44
202.22	-35.2
202.607	466.52
202.994	-45.42
203.38	30.66
203.767	29.98
204.154	51.68
204.54	13.46
204.927	21.3
205.313	12.26
205.699	41.76
206.086	39.17
206.472	31.98
206.858	18.32
207.245	38.49
207.631	-23.15
208.017	41.81
208.403	-14.03
208.789	5.88
209.175	-28.68
209.561	-16.09
209.947	30.62
210.333	12.73
210.719	18.57
211.105	34.36
211.491	-23.33
211.876	-11.42
212.262	6.6
212.648	31.42
213.034	-3.31
213.419	3.33
213.805	-20.86
214.19	-75.95
214.576	7.65
214.961	-0.57
215.346	3.92
215.732	9.34
216.117	-11.31
216.502	-0.42
216.888	20.55
217.273	15.65
217.658	11.2
218.043	-7.31
218.428	-7.78
218.813	13.65
219.198	-32.29
219.583	-16.47
219.968	7.14
220.353	-2.01
220.738	-12.58
221.122	0.64
221.507	-8.39
221.892	-22.05
222.276	-30.62
222.661	-17.18
223.046	-10.78
223.43	8.57
223.815	-1.42
224.199	-11.12
224.583	-6.24
224.968	-4.32
225.352	-9.52
225.736	12.62
226.121	-2.22
226.505	0.59
226.889	4.04
227.273	-1.53
227.657	2.47
228.041	0.76
228.425	-1.73
228.809	-3.87
229.193	1.9
229.577	1.78
229.961	0.74
230.344	1.7
230.728	2.01
231.112	1.69
231.495	0.37
231.879	1.82
232.263	1.66
232.646	1.32
233.03	4.26
233.413	0.46
233.797	1.62
234.18	2.61
234.563	0.75
234.946	1.03
235.33	1.55
235.713	1.15
236.096	2.1
236.479	3.37
236.862	0.05
237.245	-0.33
237.628	2.05
238.011	1.17
238.394	1.94
238.777	1.7
239.16	0.83
239.543	2.45
239.925	-0.33
240.308	1.18
240.691	1.48
241.073	0.49
241.456	2.31
241.838	0.8
242.221	1.11
242.603	1.51
242.986	2.06
243.368	1.56
243.75	1.69
244.133	2.16
244.515	1.22
244.897	1.68
245.279	1.53
245.661	0.67
246.043	1.07
246.425	1.8
246.807	1.44
247.189	1.38
247.571	1.44
247.953	1.47
248.335	1.67
248.717	1.66
249.098	1.72
249.48	1.35
249.862	1.7
250.243	1.81
250.625	1.62
251.006	2.62
251.388	1.82
251.769	1.49
252.151	1.06
252.532	0.67
252.913	1.41
253.295	1.38
253.676	1.8
254.057	1.46
254.438	0.88
254.819	1.89
255.2	1.32
255.581	2.71
255.962	1.57
256.343	1.69
256.724	0.93
257.105	2.08
257.486	1.07
257.867	0.88
258.247	0.81
258.628	1.6
259.009	1.1
259.389	0.67
259.77	0.99
260.15	1.98
260.531	1.96
260.911	1.65
261.292	1.68
261.672	1.61
262.052	1.51
262.432	1.18
262.813	1.66
263.193	1.47
263.573	1.21
263.953	1.3
264.333	1.76
264.713	1.86
265.093	1.23
265.473	0.92
265.853	1.52
266.233	1.18
266.612	0.68
266.992	1.92
267.372	1.9
267.752	1.51
268.131	1.4
268.511	1.72
268.89	2.03
269.27	0.73
269.649	1.52
270.029	1.01
270.408	0.75
270.787	1.75
271.167	1.45
271.546	1.9
271.925	1.42
272.304	1.27
272.683	1.3
273.062	1.31
273.441	1.05
273.82	1.27
274.199	1.41
274.578	1.41
274.957	1.54
275.336	1.83
275.715	1.95
276.093	1.38
276.472	0.9
276.851	1.72
277.229	1.13
277.608	0.82
277.986	1.78
278.365	2.26
278.743	1.17
279.122	1.52
279.5	1.14
279.878	0.9
280.257	1.66
280.635	1.56
281.013	0.84
281.391	0.75
281.769	1.87
282.147	1.77
282.525	0.79
282.903	1.37
283.281	1.9
283.659	1.44
284.037	1.59
284.415	1.17
284.792	1.53
285.17	1.54
285.548	1.15
285.925	1.26
286.303	2.07
286.68	1.5
287.058	1.56
287.435	1.32
287.813	1.51
288.19	1.3
288.567	1.65
288.945	0.91
289.322	1.65
289.699	1.66
290.076	1.58
290.453	1.15
290.83	1.75
291.207	1.48
291.584	1.48
291.961	1.34
292.338	1.43
292.715	1.49
293.092	1.77
293.469	1.4
293.845	1.37
294.222	2.21
294.599	1.14
294.975	1.16
295.352	1.49
295.728	1.71
296.105	1.69
296.481	1.58
296.858	1.76
297.234	1.26
297.61	1.71
297.986	1.9
298.363	1.9
298.739	2.23
299.115	1.8
299.491	2.01
299.867	1.3
300.243	1.78
300.619	1.52
300.995	1.91
301.371	1.8
301.746	1.81
302.122	1.25
302.498	1.55
302.874	1.96
303.249	1.45
303.625	1.04
304	1.88
304.376	2.39
304.751	1.74
305.127	1.38
305.502	1.93
305.878	2.07
306.253	1.41
306.628	1.82
307.003	2.13
307.378	1.82
307.754	1.2
308.129	1.35
308.504	1.68
308.879	1.8
309.254	2.02
309.629	1.94
310.003	1.8
310.378	1.95
310.753	1.72
311.128	1.36
311.502	1.85
311.877	1.46
312.252	1.85
312.626	1.87
313.001	1.76
313.375	1.88
313.75	1.76
314.124	1.82
314.498	2.11
314.873	1.75
315.247	1.79
315.621	1.62
315.995	1.47
316.369	1.44
316.743	1.35
317.117	1.51
317.491	2.04
317.865	1.16
318.239	2.04
318.613	2.07
318.987	1.27
319.361	1.79
319.734	1.91
320.108	2.06
320.482	2.3
320.855	1.54
321.229	1.4
321.602	1.71
321.976	1.32
322.349	2.36
322.723	1.54
323.096	1.84
323.469	1.83
323.843	1.78
324.216	1.73
324.589	1.92
324.962	1.36
325.335	1.7
325.708	1.63
326.081	1.81
326.454	1.92
326.827	1.67
327.2	1.61
327.573	1.99
327.945	1.64
328.318	1.68
328.691	1.96
329.063	1.41
329.436	1.07
329.809	2.38
330.181	2.31
330.553	1.98
330.926	2.38
331.298	1.61
331.671	2.04
332.043	1.56
332.415	1.23
332.787	2.11
333.159	1.49
333.532	2.16
333.904	1.71
334.276	2.13
334.648	1.79
335.02	1.7
335.391	1.99
335.763	2
336.135	2.25
336.507	1.8
336.879	1.81
337.25	2.3
337.622	2.34
337.993	1.92
338.365	1.88
338.736	1.75
339.108	2.42
339.479	1.84
339.851	1.94
340.222	2.16
340.593	1.65
340.964	2.01
341.336	1.85
341.707	1.72
342.078	2.03
342.449	1.85
342.82	1.97
343.191	1.96
343.562	2.03
343.933	1.47
344.303	1.95
344.674	2.18
345.045	1.69
345.416	1.84
345.786	1.75
346.157	1.72
346.527	1.82
346.898	1.54
347.268	1.91
347.639	1.77
348.009	1.91
348.38	1.69
348.75	1.81
349.12	1.99
349.49	1.61
349.861	1.75
350.231	1.94
350.601	1.75
350.971	1.76
351.341	2.02
351.711	2.06
352.081	1.63
352.45	1.06
352.82	1.17
353.19	1.63
353.56	1.77
353.929	1.88
354.299	1.77
354.669	2
355.038	2.33
355.408	1.86
355.777	1.95
356.147	1.9
356.516	1.76
356.885	1.76
357.254	1.4
357.624	1.52
357.993	2.12
358.362	2.03
358.731	2.01
359.1	1.69
359.469	1.97
359.838	1.87
360.207	1.76
360.576	1.71
360.945	1.89
361.314	1.84
361.682	1.65
362.051	1.81
362.42	1.81
362.788	1.91
363.157	1.74
363.525	1.83
363.894	1.55
364.262	1.92
364.631	2.06
364.999	1.98
365.367	1.63
365.735	1.83
366.104	1.45
366.472	1.7
366.84	2.07
367.208	2.06
367.576	1.9
367.944	1.76
368.312	1.66
368.68	1.99
369.048	1.83
369.416	1.71
369.783	1.74
370.151	2.06
370.519	2.28
370.886	2.04
371.254	2
371.621	2.15
371.989	2.01
372.356	2.03
372.724	1.66
373.091	1.46
373.458	1.78
373.826	1.95
374.193	1.95
374.56	1.97
374.927	1.58
375.294	2.13
375.661	1.91
376.028	1.88
376.395	1.9
376.762	1.68
377.129	1.81
377.496	1.83
377.863	2.09
378.229	2.02
378.596	1.91
378.963	2.06
379.329	1.98
379.696	1.88
380.062	1.87
380.429	1.67
380.795	2.22
381.161	1.84
381.528	1.66
381.894	1.61
382.26	2.19
382.626	2.03
382.993	1.98
383.359	1.75
383.725	1.6
384.091	1.93
384.457	1.94
384.823	1.84
385.188	1.88
385.554	1.98
385.92	1.73
386.286	1.86
386.651	1.85
387.017	2.29
387.383	1.94
387.748	2.01
388.114	1.92
388.479	1.86
388.845	1.88
389.21	2.17
389.575	2.25
389.94	2.06
390.306	1.99
390.671	2.01
391.036	2.03
391.401	2.19
391.766	2.04
392.131	2.27
392.496	2.03
392.861	1.74
393.226	1.78
393.591	1.81
393.956	1.9
394.32	2.1
394.685	2.11
395.05	2.02
395.414	2.1
395.779	2.09
396.143	1.99
396.508	1.88
396.872	1.83
397.236	2.25
397.601	2.08
397.965	2.1
398.329	1.88
398.694	1.69
399.058	1.97
399.422	1.92
399.786	1.83
400.15	1.95
400.514	1.9
400.878	2.08
401.242	2.16
401.605	1.89
401.969	2.04
402.333	1.96
402.697	2.15
403.06	1.91
403.424	2.14
403.787	1.94
404.151	1.97
404.514	2.1
404.878	2.11
405.241	1.95
405.604	2.07
405.968	2
406.331	2.14
406.694	2.12
407.057	1.75
407.42	1.98
407.783	2.19
408.146	1.98
408.509	1.98
408.872	1.89
409.235	1.98
409.598	2.06
409.961	2.17
410.323	1.83
410.686	2.05
411.049	2.09
411.411	1.95
411.774	2
412.136	1.92
412.499	2.15
412.861	1.89
413.223	1.94
413.586	1.98
413.948	2.02
414.31	1.98
414.672	1.76
415.035	2.18
415.397	1.9
415.759	1.76
416.121	2.2
416.483	1.97
416.845	2.03
417.206	2.06
417.568	1.99
417.93	1.94
418.292	2.06
418.653	1.66
419.015	1.84
419.377	2.06
419.738	2.04
420.1	1.95
420.461	1.89
420.822	2.02
421.184	1.99
421.545	1.98
421.906	1.99
422.267	1.99
422.629	1.96
422.99	1.9
423.351	1.92
423.712	2.03
424.073	2.07
424.434	2.01
424.795	1.87
425.155	1.87
425.516	1.97
425.877	2
426.238	1.97
426.598	1.91
426.959	1.99
427.32	1.86
427.68	1.96
428.041	2.14
428.401	2.02
428.761	2.13
429.122	1.99
429.482	2.04
429.842	2.12
430.202	2.08
430.563	1.92
430.923	1.97
431.283	2.05
431.643	2.17
432.003	2.22
432.363	2.13
432.722	2.02
433.082	1.96
433.442	2.08
433.802	1.96
434.161	1.96
434.521	2
434.881	2.17
435.24	2.13
435.6	1.98
435.959	2.08
436.319	2.06
436.678	2.16
437.037	2.04
437.396	2.02
437.756	1.88
438.115	2.02
438.474	2.16
438.833	1.93
439.192	1.98
439.551	2
439.91	2.11
440.269	2.09
440.628	2.08
440.987	2.15
441.345	2.05
441.704	2.01
442.063	1.97
442.421	2.01
442.78	2.09
443.138	2.13
443.497	2.02
443.855	2.15
444.214	1.99
444.572	2.29
444.93	2.09
445.288	2.02
445.647	1.98
446.005	2.1
446.363	2.05
446.721	2
447.079	1.99
447.437	2.07
447.795	2.11
448.153	2.05
448.51	2.09
448.868	1.96
449.226	2.07
449.584	2
449.941	2.07
450.299	2.08
450.656	2.03
451.014	2.16
451.371	2.23
451.729	2.14
452.086	2.04
452.443	2.11
452.801	2.05
453.158	2.32
453.515	2.02
453.872	2.13
454.229	1.88
454.586	2.02
454.943	2.15
455.3	2.1
455.657	2.13
456.014	2.05
456.371	2.1
456.727	2.24
457.084	2.29
457.441	2.21
457.797	2.17
458.154	2.21
458.51	2
458.867	2.12
459.223	2.11
459.58	2.14
459.936	2.11
460.292	2.07
460.648	2.07
461.005	2.01
461.361	2.03
461.717	2.02
462.073	2.11
462.429	2.1
462.785	2.25
463.141	2.09
463.496	2.12
463.852	2.26
464.208	2.18
464.564	2.07
464.919	2.12
465.275	2.11
465.631	2.4
465.986	2.3
466.342	2.07
466.697	2.13
467.052	2.13
467.408	2.27
467.763	2.08
468.118	2.23
468.473	2.27
468.829	2.01
469.184	2.06
469.539	1.97
469.894	2.13
470.249	2.14
470.603	2.41
470.958	2.21
471.313	2.07
471.668	2.17
472.023	2.25
472.377	2.22
472.732	2.19
473.086	2.03
473.441	2.17
473.795	2.39
474.15	2.14
474.504	2.16
474.859	2.05
475.213	2.28
475.567	2.06
475.921	2.2
476.275	2.29
476.63	2.28
476.984	2.03
477.338	2.16
477.692	2.21
478.045	2.16
478.399	2.15
478.753	2.09
479.107	2.28
479.461	2.09
479.814	2.1
480.168	2.15
480.521	2.35
480.875	2.19
481.228	2.27
481.582	2.16
481.935	2.23
482.289	2.22
482.642	2.27
482.995	2.16
483.348	2.18
483.701	2.22
484.055	2.12
484.408	2.12
484.761	2.12
485.114	2.06
485.466	2.03
485.819	2.03
486.172	2.07
486.525	2.07
486.878	2.13
487.23	2.11
487.583	2.21
487.936	2.05
488.288	2.13
488.641	2.14
488.993	2.12
489.345	2.09
489.698	2.05
490.05	2.08
490.402	2.12
490.754	2.14
491.107	2.08
491.459	2.21
491.811	2.24
492.163	2.25
492.515	2.17
492.866	2.11
493.218	2.1
493.57	2.15
493.922	2.15
494.274	2.21
494.625	2.26
494.977	2.21
495.328	2.27
495.68	2.26
496.031	2.27
496.383	2.21
496.734	2.25
497.086	2.38
497.437	2.33
497.788	2.31
498.139	2.25
498.49	2.26
498.842	2.24
499.193	2.12
499.544	2.24
499.894	2.21
500.245	2.3
500.596	2.33
500.947	2.21
501.298	2.31
501.648	2.25
501.999	2.27
502.35	2.13
502.7	2.32
503.051	2.17
503.401	2.4
503.752	2.3
504.102	2.21
504.452	2.18
504.803	2.32
505.153	2.36
505.503	2.21
505.853	2.23
506.203	2.32
506.553	2.3
506.903	2.36
507.253	2.26
507.603	2.36
507.953	2.25
508.303	2.3
508.652	2.13
509.002	2.39
509.352	2.24
509.701	2.16
510.051	2.38
510.4	2.33
510.75	2.26
511.099	2.18
511.449	2.28
511.798	2.14
512.147	2.21
512.496	2.31
512.846	2.23
513.195	2.3
513.544	2.39
513.893	2.29
514.242	2.23
514.591	2.29
514.939	2.37
515.288	2.31
515.637	2.32
515.986	2.32
516.334	2.42
516.683	2.31
517.032	2.33
517.38	2.24
517.729	2.27
518.077	2.32
518.426	2.44
518.774	2.3
519.122	2.31
519.47	2.27
519.819	2.26
520.167	2.31
520.515	2.27
520.863	2.22
521.211	2.28
521.559	2.27
521.907	2.39
522.255	2.25
522.602	2.36
522.95	2.33
523.298	2.41
523.645	2.31
523.993	2.28
524.341	2.23
524.688	2.22
525.036	2.33
525.383	2.3
525.73	2.22
526.078	2.37
526.425	2.41
526.772	2.31
527.119	2.34
527.466	2.38
527.814	2.25
528.161	2.32
528.508	2.39
528.854	2.33
529.201	2.28
529.548	2.24
529.895	2.25
530.242	2.22
530.588	2.21
530.935	2.24
531.282	2.23
531.628	2.33
531.975	2.3
532.321	2.37
532.667	2.35
533.014	2.4
533.36	2.3
533.706	2.32
534.052	2.35
534.399	2.4
534.745	2.32
535.091	2.26
535.437	2.28
535.783	2.35
536.129	2.38
536.474	2.35
536.82	2.48
537.166	2.37
537.512	2.37
537.857	2.36
538.203	2.37
538.549	2.36
538.894	2.41
539.239	2.34
539.585	2.43
539.93	2.46
540.276	2.35
540.621	2.5
540.966	2.48
541.311	2.44
541.656	2.26
542.001	2.35
542.346	2.34
542.691	2.35
543.036	2.33
543.381	2.29
543.726	2.41
544.071	2.36
544.415	2.35
544.76	2.42
545.105	2.35
545.449	2.37
545.794	2.34
546.138	2.37
546.483	2.42
546.827	2.33
547.171	2.47
547.516	2.47
547.86	2.5
548.204	2.44
548.548	2.35
548.892	2.43
549.236	2.39
549.58	2.47
549.924	2.61
550.268	2.63
550.612	2.58
550.956	2.58
551.3	2.69
551.643	2.68
551.987	2.54
552.33	2.64
552.674	2.55
553.017	2.59
553.361	2.63
553.704	2.64
554.048	2.44
554.391	2.63
554.734	2.48
555.077	2.53
555.42	2.44
555.764	2.51
556.107	2.51
556.45	2.44
556.793	2.6
557.135	2.57
557.478	2.59
557.821	2.55
558.164	2.56
558.507	2.53
558.849	2.77
559.192	2.53
559.534	2.54
559.877	2.46
560.219	2.62
560.562	2.52
560.904	2.8
561.246	2.45
561.589	2.7
561.931	2.5
562.273	2.61
562.615	2.53
562.957	2.47
563.299	2.57
563.641	2.61
563.983	2.43
564.325	2.46
564.667	2.53
565.008	2.56
565.35	2.48
565.692	2.51
566.033	2.53
566.375	2.67
566.716	2.53
567.058	2.63
567.399	2.54
567.741	2.57
568.082	2.48
568.423	2.47
568.764	2.65
569.105	2.53
569.447	2.61
569.788	2.52
570.129	2.58
570.47	2.64
570.811	2.57
571.151	2.6
571.492	2.62
571.833	2.62
572.174	2.71
572.514	2.65
572.855	2.68
573.195	2.56
573.536	2.55
573.876	2.66
574.217	2.63
574.557	2.68
574.898	2.51
575.238	2.81
575.578	2.68
575.918	2.72
576.258	2.78
576.598	2.51
576.938	2.56
577.278	2.68
577.618	2.58
577.958	2.59
578.298	2.7
578.638	2.59
578.977	2.81
579.317	2.88
579.657	2.57
579.996	2.66
580.336	2.77
580.675	2.61
581.014	2.64
581.354	2.52
581.693	2.72
582.032	2.88
582.372	2.68
582.711	2.65
583.05	2.72
583.389	2.64
583.728	2.84
584.067	2.65
584.406	2.66
584.745	2.65
585.083	2.68
585.422	2.66
585.761	2.84
586.1	2.72
586.438	2.53
586.777	2.63
587.115	3.09
587.454	2.49
587.792	2.79
588.13	2.81
588.469	2.66
588.807	2.91
589.145	2.67
589.483	2.57
589.821	2.81
590.159	2.72
590.497	2.8
590.835	2.89
591.173	2.78
591.511	2.72
591.849	2.85
592.187	2.5
592.524	2.67
592.862	2.65
593.2	2.77
593.537	3.06
593.875	2.8
594.212	2.8
594.55	2.79
594.887	2.86
595.224	2.82
595.561	2.73
595.899	2.81
596.236	2.86
596.573	2.5
596.91	2.69
597.247	2.98
597.584	2.8
597.921	2.73
598.258	2.95
598.594	2.7
598.931	2.57
599.268	2.57
599.604	2.96
599.941	2.71
600.277	2.84
600.614	2.82
600.95	2.55
601.287	2.39
601.623	2.61
601.959	3.13
602.296	3.05
602.632	2.89
602.968	2.95
603.304	2.78
603.64	2.73
603.976	2.62
604.312	2.65
604.648	2.82
604.984	2.86
605.319	2.85
605.655	2.8
605.991	2.76
606.326	2.91
606.662	2.66
606.998	2.89
607.333	2.82
607.668	2.83
608.004	2.74
608.339	2.99
608.674	2.85
609.01	3.12
609.345	2.97
609.68	2.84
610.015	3
610.35	2.97
610.685	2.6
611.02	2.76
611.355	2.87
611.689	2.88
612.024	2.78
612.359	3
612.694	3.18
613.028	3.02
613.363	2.76
613.697	2.89
614.032	2.86
614.366	2.63
614.7	3.05
615.035	2.8
615.369	2.98
615.703	2.91
616.037	2.85
616.371	2.89
616.705	3.04
617.039	2.59
617.373	3.29
617.707	3.05
618.041	2.52
618.375	2.47
618.709	2.84
619.042	2.95
619.376	2.9
619.71	3.09
620.043	3.16
620.377	2.78
620.71	2.81
621.043	3.31
621.377	3.11
621.71	3.47
622.043	2.87
622.376	2.94
622.709	3.36
623.043	3.05
623.376	2.97
623.709	3.27
624.041	2.73
624.374	2.85
624.707	2.76
625.04	2.96
625.373	3.51
625.705	3
626.038	3.06
626.37	3.03
626.703	3.18
627.035	2.96
627.368	3.28
627.7	3.06
628.032	3.08
628.365	3.02
628.697	3.12
629.029	3
629.361	3.31
629.693	2.99
630.025	2.9
630.357	3.25
630.689	3.13
631.021	3.21
631.353	3.34
631.684	2.92
632.016	2.77
632.348	3.05
632.679	3.04
633.011	3.02
633.342	3.29
633.674	3.14
634.005	2.89
634.336	3.31
634.668	2.99
634.999	2.57
635.33	3.05
635.661	3.09
635.992	3.02
636.323	2.81
636.654	3.06
636.985	2.88
637.316	2.9
637.647	3.32
637.977	3.01
638.308	3.25
638.639	2.98
638.969	3.07
639.3	3.07
639.63	3.25
639.961	3.09
640.291	3.02
640.622	3.33
640.952	3.18
641.282	2.86
641.612	3.28
641.943	3.26
642.273	3.08
642.603	3.46
642.933	3.15
643.263	3.22
643.592	3.39
643.922	3.63
644.252	3.23
644.582	3.15
644.911	3.07
645.241	3.16
645.571	3.09
645.9	3.22
646.23	3.57
646.559	2.82
646.888	3.27
647.218	3.1
647.547	2.89
647.876	3
648.205	2.92
648.534	3.11
648.863	3.17
649.192	3.16
649.521	3.08
649.85	3.45
650.179	3.31
650.508	3.09
650.837	3.47
651.165	3.62
651.494	2.99
651.822	3.37
652.151	3.37
652.479	3.46
652.808	3.27
653.136	2.73
653.465	3.2
653.793	3.27
654.121	3.28
654.449	2.89
654.777	3.02
655.105	2.8
655.433	3.35
655.761	3.02
656.089	3.32
656.417	3.8
656.745	3.55
657.073	3.05
657.4	3.49
657.728	2.4
658.056	2.84
658.383	3.2
658.711	3.79
659.038	3.35
659.365	3.41
659.693	3.17
660.02	3.44
660.347	3.46
660.674	3.02
661.001	3.22
661.329	3.32
661.656	3.3
661.982	3.25
662.309	3.39
662.636	3.39
662.963	3.24
663.29	3.59
663.616	3.2
663.943	3.3
664.27	3.45
664.596	3.19
664.923	3.65
665.249	3.33
665.576	2.88
665.902	3.07
666.228	3.53
666.554	3.58
666.881	3.07
667.207	3.63
667.533	3.12
667.859	3.08
668.185	3.5
668.511	3.85
668.837	3.59
669.162	3.6
669.488	3.01
669.814	3.29
670.139	2.84
670.465	3.89
670.791	2.85
671.116	3.08
671.442	2.49
671.767	3.38
672.092	3
672.418	3.49
672.743	3.6
673.068	3.53
673.393	3.89
673.718	3.05
674.043	3.56
674.368	2.59
674.693	3.62
675.018	3.59
675.343	3.75
675.667	3.22
675.992	3.67
676.317	2.67
676.641	3.68
676.966	3.25
677.29	2.9
677.615	3.09
677.939	3.88
678.264	2.82
678.588	3.64
678.912	3.99
679.236	3.31
679.56	3.34
679.885	3.72
680.209	3.85
680.532	3.67
680.856	3.74
681.18	3.87
681.504	3.48
681.828	3.11
682.152	3.37
682.475	3.44
682.799	3.38
683.122	3.77
683.446	3.03
683.769	3.48
684.093	3.59
684.416	3.03
684.739	3.24
685.062	3.61
685.386	3.43
685.709	3.56
686.032	3.85
686.355	3.48
686.678	3.96
687.001	3.88
687.324	3.61
687.646	3.35
687.969	3.43
688.292	3.78
688.614	3.74
688.937	3.37
689.26	3.93
689.582	3.75
689.904	3.66
690.227	4.02
690.549	3.81
690.871	3.61
691.194	3.23
691.516	3.58
691.838	3.71
692.16	3.13
