Data from 21-6_crown_Reflection__2__102.txt Node

Date: Thu Dec 15 17:16:04 CST 2022
User: ToomeyLab
Spectrometer: FLMS14357
Trigger mode: 0
Integration Time (sec): 1.000000E-2
Scans to average: 100
Electric dark correction enabled: true
Nonlinearity correction enabled: false
Boxcar width: 0
XAxis mode: Wavelengths
Number of Pixels in Spectrum: 2048
>>>>>Begin Spectral Data<<<<<
189.047	-131.28
189.435	-131.28
189.823	-131.28
190.211	54.53
190.599	16.45
190.987	-81.12
191.375	82.1
191.763	-734.47
192.151	137.24
192.538	56.23
192.926	84.27
193.314	2567.39
193.702	-214.62
194.089	283.33
194.477	140.09
194.864	115.58
195.252	-1155.39
195.639	117.49
196.027	159.44
196.414	-38.56
196.801	-430.69
197.189	-1370.5
197.576	14.05
197.963	16.86
198.351	-54.09
198.738	3.23
199.125	-83.25
199.512	1.58
199.899	-75.58
200.286	-12.26
200.673	19.7
201.06	-52.32
201.447	55.66
201.833	8.43
202.22	14.62
202.607	1068.52
202.994	-19.64
203.38	2.64
203.767	1.28
204.154	17.54
204.54	-31.64
204.927	4.75
205.313	-0.37
205.699	34.07
206.086	45.8
206.472	48.41
206.858	8.08
207.245	-11.51
207.631	-6.57
208.017	20.83
208.403	-34.39
208.789	26.65
209.175	30.18
209.561	-15.85
209.947	8.61
210.333	-14.98
210.719	17.34
211.105	20.23
211.491	16.99
211.876	-48.29
212.262	22.28
212.648	12.77
213.034	4.26
213.419	-10.29
213.805	-43.98
214.19	-10.47
214.576	1.33
214.961	32.15
215.346	-8.55
215.732	24.22
216.117	14.91
216.502	-18.88
216.888	1.95
217.273	-2.66
217.658	-10.58
218.043	15.01
218.428	-23.31
218.813	30.3
219.198	-22.28
219.583	7.97
219.968	-18.14
220.353	-17.3
220.738	-4.02
221.122	-10.32
221.507	-9.58
221.892	-19.15
222.276	-20.01
222.661	-9.99
223.046	-9.11
223.43	7.2
223.815	-4.97
224.199	-0.03
224.583	1.96
224.968	-5.88
225.352	4.98
225.736	4.38
226.121	-4.19
226.505	-2.45
226.889	-5.74
227.273	-5.83
227.657	1.9
228.041	1.59
228.425	-4.43
228.809	-2.03
229.193	2.16
229.577	2.06
229.961	1.15
230.344	1.86
230.728	3.77
231.112	3.26
231.495	1.12
231.879	1.84
232.263	3.63
232.646	2.32
233.03	2.87
233.413	3.23
233.797	1.89
234.18	3.67
234.563	0.7
234.946	0.72
235.33	2.51
235.713	2.12
236.096	4.06
236.479	2.86
236.862	1.19
237.245	3.26
237.628	2.5
238.011	1.94
238.394	1.44
238.777	1.8
239.16	3.78
239.543	4.17
239.925	1.29
240.308	1.03
240.691	1.9
241.073	2.1
241.456	3.25
241.838	2.36
242.221	1.42
242.603	2.55
242.986	2.6
243.368	2.49
243.75	2.89
244.133	2.22
244.515	2.53
244.897	2.29
245.279	2.46
245.661	1.8
246.043	2.81
246.425	3.46
246.807	1.69
247.189	2.07
247.571	2.22
247.953	1.98
248.335	2.34
248.717	2.25
249.098	2.45
249.48	2.08
249.862	2.38
250.243	2.52
250.625	2.26
251.006	2.38
251.388	2.27
251.769	2.17
252.151	2.44
252.532	1.71
252.913	2.32
253.295	2.19
253.676	2.3
254.057	2.21
254.438	2.03
254.819	2.19
255.2	2.07
255.581	3.11
255.962	2.74
256.343	2.6
256.724	1.49
257.105	2.49
257.486	1.07
257.867	1.82
258.247	2.57
258.628	2.74
259.009	1.84
259.389	1.53
259.77	2.04
260.15	2.21
260.531	2.2
260.911	2.17
261.292	2.12
261.672	2.4
262.052	2.14
262.432	2.14
262.813	2.14
263.193	1.82
263.573	1.83
263.953	1.64
264.333	1.89
264.713	2.36
265.093	1.89
265.473	1.8
265.853	1.98
266.233	2.34
266.612	1.12
266.992	1.94
267.372	2.75
267.752	2.44
268.131	1.93
268.511	1.64
268.89	2.37
269.27	1.74
269.649	1.58
270.029	2.38
270.408	1.95
270.787	1.61
271.167	2.05
271.546	2.42
271.925	2.1
272.304	1.64
272.683	1.95
273.062	2.29
273.441	1.66
273.82	2.31
274.199	2.04
274.578	2.18
274.957	1.91
275.336	2.32
275.715	2.25
276.093	2.08
276.472	2.03
276.851	2.48
277.229	1.87
277.608	1.9
277.986	2.28
278.365	2.19
278.743	2.06
279.122	2.03
279.5	2.01
279.878	1.75
280.257	2.17
280.635	2.39
281.013	1.62
281.391	2.06
281.769	2.49
282.147	2.55
282.525	1.78
282.903	2.1
283.281	2.27
283.659	2.25
284.037	1.58
284.415	1.84
284.792	1.89
285.17	1.7
285.548	1.93
285.925	1.96
286.303	2.43
286.68	2.43
287.058	2.08
287.435	1.79
287.813	2.18
288.19	2.1
288.567	1.81
288.945	1.89
289.322	2.11
289.699	2.11
290.076	2.01
290.453	1.58
290.83	1.96
291.207	1.8
291.584	2.29
291.961	2.04
292.338	1.79
292.715	1.91
293.092	2.06
293.469	1.89
293.845	1.74
294.222	2.45
294.599	1.85
294.975	1.47
295.352	2.36
295.728	2.03
296.105	1.69
296.481	1.78
296.858	2.04
297.234	2.12
297.61	1.88
297.986	2.25
298.363	2.13
298.739	2.25
299.115	1.86
299.491	2.19
299.867	1.77
300.243	2.06
300.619	1.56
300.995	2.02
301.371	2.14
301.746	2.21
302.122	1.57
302.498	1.72
302.874	2.28
303.249	1.85
303.625	1.35
304	1.74
304.376	2.56
304.751	2.01
305.127	1.92
305.502	1.55
305.878	2.15
306.253	1.53
306.628	1.97
307.003	1.59
307.378	1.91
307.754	2.09
308.129	1.84
308.504	1.9
308.879	1.7
309.254	2.26
309.629	1.74
310.003	1.83
310.378	2.26
310.753	2.26
311.128	1.91
311.502	2.05
311.877	1.67
312.252	2.09
312.626	2.48
313.001	2.26
313.375	2.15
313.75	2.24
314.124	2.21
314.498	2.05
314.873	1.74
315.247	2
315.621	1.66
315.995	1.9
316.369	1.62
316.743	1.22
317.117	1.68
317.491	2.35
317.865	1.46
318.239	2.24
318.613	2.24
318.987	1.38
319.361	2.09
319.734	1.77
320.108	1.93
320.482	2.13
320.855	1.59
321.229	1.81
321.602	2.25
321.976	1.92
322.349	2.41
322.723	1.99
323.096	2.37
323.469	1.66
323.843	2.19
324.216	1.82
324.589	2.57
324.962	1.6
325.335	1.77
325.708	1.83
326.081	1.87
326.454	2.41
326.827	2.35
327.2	1.41
327.573	2.57
327.945	1.61
328.318	2.17
328.691	1.85
329.063	1.75
329.436	1.84
329.809	1.94
330.181	2.63
330.553	2.58
330.926	2.72
331.298	2.02
331.671	1.76
332.043	2.24
332.415	1.98
332.787	2.42
333.159	1.97
333.532	2.27
333.904	1.99
334.276	2.28
334.648	2.12
335.02	2
335.391	1.69
335.763	1.86
336.135	1.81
336.507	2.12
336.879	2
337.25	1.88
337.622	2.3
337.993	1.88
338.365	2.25
338.736	1.73
339.108	2.35
339.479	2.01
339.851	2.56
340.222	2.09
340.593	2.05
340.964	1.97
341.336	1.85
341.707	2.26
342.078	1.87
342.449	2.46
342.82	1.78
343.191	1.93
343.562	2.09
343.933	1.95
344.303	2.34
344.674	1.97
345.045	2.09
345.416	2.43
345.786	1.96
346.157	2.36
346.527	1.98
346.898	1.95
347.268	2.13
347.639	1.8
348.009	2.22
348.38	2.12
348.75	2.38
349.12	2.09
349.49	1.79
349.861	2.2
350.231	1.9
350.601	1.89
350.971	1.81
351.341	2.1
351.711	2.04
352.081	1.6
352.45	1.71
352.82	1.32
353.19	1.95
353.56	1.95
353.929	2.02
354.299	1.9
354.669	2.21
355.038	2.44
355.408	1.93
355.777	2.26
356.147	1.76
356.516	2
356.885	1.84
357.254	1.74
357.624	1.65
357.993	2.26
358.362	2.34
358.731	2.41
359.1	2.23
359.469	2.23
359.838	2.05
360.207	2.2
360.576	2.14
360.945	2.31
361.314	1.81
361.682	1.97
362.051	2.3
362.42	1.85
362.788	1.98
363.157	2.02
363.525	2.27
363.894	1.97
364.262	1.92
364.631	2.06
364.999	2.13
365.367	2.15
365.735	1.77
366.104	1.98
366.472	2.02
366.84	2.13
367.208	2.19
367.576	2.17
367.944	2.12
368.312	1.96
368.68	2.29
369.048	1.95
369.416	2.03
369.783	1.97
370.151	2.39
370.519	2.47
370.886	1.85
371.254	2.32
371.621	1.98
371.989	2.25
372.356	2.22
372.724	2.09
373.091	1.99
373.458	1.78
373.826	2.45
374.193	2.21
374.56	2.4
374.927	1.96
375.294	2.23
375.661	2.22
376.028	2.06
376.395	2.2
376.762	1.9
377.129	1.85
377.496	2.35
377.863	2.17
378.229	2.45
378.596	2.26
378.963	2.29
379.329	2.25
379.696	1.84
380.062	2.09
380.429	1.92
380.795	2.24
381.161	1.78
381.528	1.96
381.894	1.9
382.26	2.16
382.626	2.18
382.993	2.36
383.359	2.09
383.725	1.85
384.091	2.38
384.457	1.92
384.823	2.25
385.188	2.2
385.554	2.25
385.92	2.26
386.286	2.35
386.651	1.97
387.017	2.44
387.383	2.19
387.748	2.24
388.114	2.29
388.479	2.25
388.845	1.9
389.21	2.6
389.575	2.37
389.94	2.34
390.306	2.33
390.671	2.34
391.036	1.96
391.401	2.34
391.766	2
392.131	2.09
392.496	2.27
392.861	2.28
393.226	2.19
393.591	2.16
393.956	2.18
394.32	2.31
394.685	2.3
395.05	2.26
395.414	2.31
395.779	2.21
396.143	2.39
396.508	2.33
396.872	2.23
397.236	2.35
397.601	2.41
397.965	2.31
398.329	2.11
398.694	2.12
399.058	2.17
399.422	2.24
399.786	2.01
400.15	2.06
400.514	2.08
400.878	2.35
401.242	2.27
401.605	2.24
401.969	2.03
402.333	2.25
402.697	2.26
403.06	2.15
403.424	2.27
403.787	2.25
404.151	2.39
404.514	2.21
404.878	2.33
405.241	2.3
405.604	1.93
405.968	2.08
406.331	2.42
406.694	2.2
407.057	2.35
407.42	2.26
407.783	2.21
408.146	2.09
408.509	2.36
408.872	2.27
409.235	2.26
409.598	2.36
409.961	2.33
410.323	2.15
410.686	2.1
411.049	2.32
411.411	2.14
411.774	2.14
412.136	2.1
412.499	2.25
412.861	1.89
413.223	2.07
413.586	2.15
413.948	2.52
414.31	2.58
414.672	2.18
415.035	2.42
415.397	2.16
415.759	1.86
416.121	2.42
416.483	2.11
416.845	2.24
417.206	2.27
417.568	2.15
417.93	2.23
418.292	2.14
418.653	2.16
419.015	2.13
419.377	2.19
419.738	2.24
420.1	2.18
420.461	2.1
420.822	2.23
421.184	2.05
421.545	2.24
421.906	2.24
422.267	2.2
422.629	2.17
422.99	2.15
423.351	2.14
423.712	2.21
424.073	2.22
424.434	2.4
424.795	2.18
425.155	2.08
425.516	2.2
425.877	2.31
426.238	2.13
426.598	2.26
426.959	2.27
427.32	2.2
427.68	2.26
428.041	2.32
428.401	2.22
428.761	2.33
429.122	2.38
429.482	2.35
429.842	2.33
430.202	2.3
430.563	2.36
430.923	2.37
431.283	2.41
431.643	2.46
432.003	2.33
432.363	2.38
432.722	2.36
433.082	2.4
433.442	2.31
433.802	2.2
434.161	2.31
434.521	2.3
434.881	2.31
435.24	2.27
435.6	2.39
435.959	2.27
436.319	2.31
436.678	2.35
437.037	2.33
437.396	2.31
437.756	2.2
438.115	2.13
438.474	2.22
438.833	2.3
439.192	2.23
439.551	2.28
439.91	2.27
440.269	2.29
440.628	2.31
440.987	2.32
441.345	2.35
441.704	2.28
442.063	2.28
442.421	2.16
442.78	2.32
443.138	2.29
443.497	2.29
443.855	2.34
444.214	2.15
444.572	2.55
444.93	2.31
445.288	2.28
445.647	2.11
446.005	2.3
446.363	2.28
446.721	2.25
447.079	2.23
447.437	2.31
447.795	2.31
448.153	2.31
448.51	2.31
448.868	2.19
449.226	2.28
449.584	2.2
449.941	2.34
450.299	2.2
450.656	2.28
451.014	2.33
451.371	2.39
451.729	2.38
452.086	2.28
452.443	2.33
452.801	2.29
453.158	2.48
453.515	2.27
453.872	2.23
454.229	2.18
454.586	2.15
454.943	2.38
455.3	2.29
455.657	2.35
456.014	2.45
456.371	2.38
456.727	2.45
457.084	2.33
457.441	2.34
457.797	2.27
458.154	2.52
458.51	2.3
458.867	2.42
459.223	2.38
459.58	2.27
459.936	2.36
460.292	2.23
460.648	2.3
461.005	2.28
461.361	2.33
461.717	2.36
462.073	2.32
462.429	2.39
462.785	2.39
463.141	2.37
463.496	2.36
463.852	2.43
464.208	2.34
464.564	2.3
464.919	2.17
465.275	2.37
465.631	2.49
465.986	2.43
466.342	2.34
466.697	2.36
467.052	2.39
467.408	2.47
467.763	2.35
468.118	2.14
468.473	2.36
468.829	2.31
469.184	2.46
469.539	2.16
469.894	2.4
470.249	2.48
470.603	2.38
470.958	2.47
471.313	2.44
471.668	2.39
472.023	2.5
472.377	2.41
472.732	2.56
473.086	2.4
473.441	2.42
473.795	2.61
474.15	2.35
474.504	2.4
474.859	2.21
475.213	2.49
475.567	2.35
475.921	2.27
476.275	2.49
476.63	2.51
476.984	2.25
477.338	2.46
477.692	2.31
478.045	2.56
478.399	2.47
478.753	2.29
479.107	2.45
479.461	2.37
479.814	2.36
480.168	2.52
480.521	2.47
480.875	2.41
481.228	2.31
481.582	2.43
481.935	2.57
482.289	2.44
482.642	2.46
482.995	2.33
483.348	2.33
483.701	2.5
484.055	2.41
484.408	2.36
484.761	2.3
485.114	2.23
485.466	2.23
485.819	2.26
486.172	2.29
486.525	2.28
486.878	2.34
487.23	2.35
487.583	2.33
487.936	2.33
488.288	2.29
488.641	2.35
488.993	2.29
489.345	2.29
489.698	2.3
490.05	2.28
490.402	2.29
490.754	2.36
491.107	2.29
491.459	2.39
491.811	2.37
492.163	2.29
492.515	2.25
492.866	2.3
493.218	2.3
493.57	2.36
493.922	2.32
494.274	2.42
494.625	2.47
494.977	2.33
495.328	2.44
495.68	2.42
496.031	2.41
496.383	2.32
496.734	2.43
497.086	2.51
497.437	2.6
497.788	2.46
498.139	2.39
498.49	2.41
498.842	2.43
499.193	2.37
499.544	2.39
499.894	2.37
500.245	2.47
500.596	2.52
500.947	2.41
501.298	2.46
501.648	2.49
501.999	2.48
502.35	2.45
502.7	2.59
503.051	2.39
503.401	2.42
503.752	2.32
504.102	2.31
504.452	2.36
504.803	2.42
505.153	2.54
505.503	2.39
505.853	2.52
506.203	2.54
506.553	2.35
506.903	2.39
507.253	2.45
507.603	2.55
507.953	2.49
508.303	2.55
508.652	2.43
509.002	2.57
509.352	2.63
509.701	2.39
510.051	2.51
510.4	2.51
510.75	2.37
511.099	2.47
511.449	2.48
511.798	2.44
512.147	2.51
512.496	2.52
512.846	2.41
513.195	2.54
513.544	2.56
513.893	2.48
514.242	2.46
514.591	2.41
514.939	2.47
515.288	2.43
515.637	2.43
515.986	2.43
516.334	2.47
516.683	2.52
517.032	2.4
517.38	2.29
517.729	2.4
518.077	2.5
518.426	2.57
518.774	2.42
519.122	2.47
519.47	2.47
519.819	2.45
520.167	2.45
520.515	2.51
520.863	2.47
521.211	2.39
521.559	2.45
521.907	2.54
522.255	2.36
522.602	2.46
522.95	2.54
523.298	2.58
523.645	2.53
523.993	2.49
524.341	2.49
524.688	2.39
525.036	2.56
525.383	2.53
525.73	2.46
526.078	2.57
526.425	2.45
526.772	2.44
527.119	2.5
527.466	2.53
527.814	2.47
528.161	2.51
528.508	2.55
528.854	2.47
529.201	2.45
529.548	2.44
529.895	2.37
530.242	2.39
530.588	2.37
530.935	2.41
531.282	2.36
531.628	2.41
531.975	2.43
532.321	2.43
532.667	2.51
533.014	2.44
533.36	2.43
533.706	2.47
534.052	2.52
534.399	2.52
534.745	2.42
535.091	2.44
535.437	2.38
535.783	2.44
536.129	2.38
536.474	2.53
536.82	2.54
537.166	2.37
537.512	2.54
537.857	2.47
538.203	2.48
538.549	2.45
538.894	2.43
539.239	2.58
539.585	2.56
539.93	2.57
540.276	2.51
540.621	2.61
540.966	2.5
541.311	2.62
541.656	2.35
542.001	2.41
542.346	2.47
542.691	2.41
543.036	2.4
543.381	2.42
543.726	2.5
544.071	2.48
544.415	2.53
544.76	2.52
545.105	2.39
545.449	2.51
545.794	2.49
546.138	2.5
546.483	2.54
546.827	2.47
547.171	2.54
547.516	2.64
547.86	2.54
548.204	2.57
548.548	2.54
548.892	2.56
549.236	2.57
549.58	2.54
549.924	2.58
550.268	2.6
550.612	2.64
550.956	2.6
551.3	2.76
551.643	2.62
551.987	2.78
552.33	2.77
552.674	2.52
553.017	2.73
553.361	2.64
553.704	2.66
554.048	2.6
554.391	2.62
554.734	2.54
555.077	2.69
555.42	2.51
555.764	2.52
556.107	2.66
556.45	2.66
556.793	2.63
557.135	2.65
557.478	2.61
557.821	2.65
558.164	2.71
558.507	2.61
558.849	2.78
559.192	2.71
559.534	2.62
559.877	2.56
560.219	2.61
560.562	2.61
560.904	2.87
561.246	2.63
561.589	2.79
561.931	2.79
562.273	2.67
562.615	2.71
562.957	2.52
563.299	2.61
563.641	2.64
563.983	2.43
564.325	2.68
564.667	2.63
565.008	2.61
565.35	2.66
565.692	2.76
566.033	2.74
566.375	2.78
566.716	2.57
567.058	2.77
567.399	2.66
567.741	2.73
568.082	2.59
568.423	2.63
568.764	2.6
569.105	2.68
569.447	2.52
569.788	2.48
570.129	2.53
570.47	2.69
570.811	2.48
571.151	2.57
571.492	2.59
571.833	2.55
572.174	2.66
572.514	2.81
572.855	2.83
573.195	2.61
573.536	2.76
573.876	2.67
574.217	2.61
574.557	2.69
574.898	2.65
575.238	2.61
575.578	2.77
575.918	2.59
576.258	2.81
576.598	2.58
576.938	2.59
577.278	2.69
577.618	2.75
577.958	2.82
578.298	2.73
578.638	2.67
578.977	2.76
579.317	2.86
579.657	2.63
579.996	2.8
580.336	2.81
580.675	2.61
581.014	2.66
581.354	2.51
581.693	2.9
582.032	2.97
582.372	2.52
582.711	2.73
583.05	2.79
583.389	2.87
583.728	2.95
584.067	2.76
584.406	2.78
584.745	2.71
585.083	2.75
585.422	2.9
585.761	2.79
586.1	2.92
586.438	2.69
586.777	2.78
587.115	2.8
587.454	2.52
587.792	2.77
588.13	2.68
588.469	2.65
588.807	2.84
589.145	2.91
589.483	2.46
589.821	2.74
590.159	2.82
590.497	2.95
590.835	2.87
591.173	2.88
591.511	2.84
591.849	2.9
592.187	2.75
592.524	2.72
592.862	2.74
593.2	2.65
593.537	2.68
593.875	2.67
594.212	2.8
594.55	2.7
594.887	2.77
595.224	2.92
595.561	2.77
595.899	2.79
596.236	2.88
596.573	2.61
596.91	2.62
597.247	2.8
597.584	2.84
597.921	2.58
598.258	2.91
598.594	2.78
598.931	2.54
599.268	2.58
599.604	2.71
599.941	2.71
600.277	2.83
600.614	2.67
600.95	2.9
601.287	2.52
601.623	2.59
601.959	2.87
602.296	2.85
602.632	2.72
602.968	2.88
603.304	2.88
603.64	2.64
603.976	2.76
604.312	2.7
604.648	2.94
604.984	2.93
605.319	3.01
605.655	2.65
605.991	2.82
606.326	2.75
606.662	2.54
606.998	2.91
607.333	2.64
607.668	2.66
608.004	2.68
608.339	2.7
608.674	2.96
609.01	3.06
609.345	2.8
609.68	2.82
610.015	3.02
610.35	2.75
610.685	2.43
611.02	2.86
611.355	2.73
611.689	2.72
612.024	2.91
612.359	2.9
612.694	2.83
613.028	2.64
613.363	2.69
613.697	2.75
614.032	2.76
614.366	2.71
614.7	3.18
615.035	2.9
615.369	3.08
615.703	2.95
616.037	2.92
616.371	3.01
616.705	2.77
617.039	2.84
617.373	3.12
617.707	2.83
618.041	2.87
618.375	2.6
618.709	2.88
619.042	2.82
619.376	2.83
619.71	2.67
620.043	3.07
620.377	2.91
620.71	2.47
621.043	2.88
621.377	2.82
621.71	2.9
622.043	3.06
622.376	2.66
622.709	3.3
623.043	2.97
623.376	2.92
623.709	3.22
624.041	2.74
624.374	2.98
624.707	2.9
625.04	2.68
625.373	3.04
625.705	2.73
626.038	3.06
626.37	2.88
626.703	2.94
627.035	2.86
627.368	3.19
627.7	2.97
628.032	2.83
628.365	3.1
628.697	3.18
629.029	2.89
629.361	2.89
629.693	2.9
630.025	2.93
630.357	2.98
630.689	2.74
631.021	2.96
631.353	3.03
631.684	2.92
632.016	2.78
632.348	2.74
632.679	3.19
633.011	2.94
633.342	2.9
633.674	2.75
634.005	2.82
634.336	2.92
634.668	2.99
634.999	2.59
635.33	2.82
635.661	2.84
635.992	2.73
636.323	2.99
636.654	2.95
636.985	2.89
637.316	2.94
637.647	2.84
637.977	2.91
638.308	3.32
638.639	2.87
638.969	2.95
639.3	3.06
639.63	3.04
639.961	2.86
640.291	3.14
640.622	3.18
640.952	3.26
641.282	2.59
641.612	2.91
641.943	2.57
642.273	2.96
642.603	3.06
642.933	2.85
643.263	3
643.592	3.38
643.922	3.09
644.252	2.9
644.582	3.29
644.911	2.66
645.241	2.6
645.571	2.55
645.9	2.7
646.23	3.15
646.559	2.35
646.888	3.3
647.218	3.05
647.547	2.9
647.876	3.2
648.205	2.88
648.534	3.24
648.863	3.05
649.192	3.09
649.521	2.8
649.85	3.15
650.179	3.05
650.508	2.75
650.837	3.05
651.165	3.18
651.494	2.98
651.822	2.91
652.151	2.69
652.479	3.22
652.808	3.02
653.136	2.82
653.465	2.99
653.793	2.94
654.121	3.16
654.449	2.89
654.777	2.79
655.105	2.84
655.433	3.29
655.761	2.84
656.089	3.17
656.417	3.36
656.745	3.55
657.073	2.42
657.4	2.77
657.728	2.47
658.056	2.6
658.383	2.85
658.711	2.98
659.038	3.15
659.365	3.34
659.693	3.19
660.02	2.84
660.347	2.79
660.674	3.04
661.001	3.03
661.329	2.77
661.656	2.7
661.982	2.64
662.309	2.85
662.636	2.99
662.963	2.93
663.29	3.22
663.616	2.95
663.943	2.95
664.27	2.93
664.596	2.9
664.923	3.22
665.249	2.97
665.576	2.84
665.902	2.67
666.228	3.37
666.554	3.73
666.881	2.53
667.207	3.34
667.533	2.66
667.859	3.4
668.185	2.94
668.511	3.67
668.837	3.08
669.162	3.04
669.488	2.86
669.814	3.1
670.139	2.78
670.465	3.63
670.791	2.61
671.116	2.7
671.442	2.66
671.767	2.71
672.092	2.57
672.418	3.85
672.743	2.95
673.068	2.17
673.393	3.22
673.718	2.65
674.043	3.03
674.368	3.22
674.693	3.01
675.018	3.15
675.343	3.32
675.667	2.99
675.992	2.66
676.317	2.58
676.641	3.3
676.966	3.22
677.29	2.8
677.615	2.48
677.939	3.25
678.264	2.76
678.588	3.18
678.912	2.74
679.236	2.83
679.56	2.97
679.885	2.65
680.209	3.44
680.532	3.43
680.856	3.32
681.18	3.81
681.504	3.15
681.828	2.76
682.152	2.69
682.475	3.25
682.799	3.14
683.122	3.38
683.446	2.26
683.769	3.66
684.093	3.18
684.416	2.75
684.739	2.65
685.062	2.82
685.386	3.3
685.709	2.56
686.032	2.76
686.355	2.78
686.678	3.17
687.001	3.27
687.324	3.27
687.646	3.34
687.969	2.86
688.292	3.23
688.614	3.04
688.937	3.08
689.26	3.86
689.582	3.06
689.904	3.85
690.227	3.24
690.549	3.33
690.871	3
691.194	3.24
691.516	3.28
691.838	3.14
