Data from 21-6_chest_Reflection__0__95.txt Node

Date: Thu Dec 15 17:13:08 CST 2022
User: ToomeyLab
Spectrometer: FLMS14357
Trigger mode: 0
Integration Time (sec): 1.000000E-2
Scans to average: 100
Electric dark correction enabled: true
Nonlinearity correction enabled: false
Boxcar width: 0
XAxis mode: Wavelengths
Number of Pixels in Spectrum: 2048
>>>>>Begin Spectral Data<<<<<
189.047	-70.71
189.435	-70.71
189.823	-70.71
190.211	31
190.599	-5.01
190.987	-113.07
191.375	137.22
191.763	575.47
192.151	176.74
192.538	73.71
192.926	17.89
193.314	4702.17
193.702	401.35
194.089	-39.42
194.477	60.51
194.864	87.06
195.252	417.66
195.639	317.79
196.027	52.54
196.414	84.75
196.801	-321.96
197.189	-2227.02
197.576	92.83
197.963	75.87
198.351	-30.44
198.738	-3.5
199.125	-97.83
199.512	44.4
199.899	-42.18
200.286	-30.13
200.673	16.83
201.06	6.67
201.447	-8.06
201.833	-42.69
202.22	4.53
202.607	668.23
202.994	-0.03
203.38	63.68
203.767	-3.03
204.154	35.81
204.54	60.96
204.927	17
205.313	-6.43
205.699	12.3
206.086	34.76
206.472	7.25
206.858	8.17
207.245	-0.4
207.631	18.22
208.017	35.87
208.403	-60.89
208.789	-9.46
209.175	17.07
209.561	-40.35
209.947	22.12
210.333	23.17
210.719	15.18
211.105	36.25
211.491	10.04
211.876	-7.14
212.262	22.33
212.648	13.01
213.034	-13.41
213.419	7.31
213.805	-27.53
214.19	-19.3
214.576	-3.74
214.961	3.26
215.346	1.08
215.732	11.94
216.117	13.89
216.502	-15.59
216.888	21.34
217.273	10.51
217.658	-10.83
218.043	-3.14
218.428	-32.58
218.813	7.36
219.198	-27.8
219.583	10.95
219.968	-1.13
220.353	-32.14
220.738	-18.15
221.122	-19.5
221.507	-16.93
221.892	-22.58
222.276	-27.39
222.661	2.68
223.046	-3.77
223.43	12.68
223.815	3.54
224.199	-9.21
224.583	2.62
224.968	1.6
225.352	-6.96
225.736	12.01
226.121	7.99
226.505	-1.57
226.889	1.04
227.273	-3.25
227.657	3.03
228.041	5.68
228.425	1.1
228.809	1.59
229.193	0.97
229.577	3.54
229.961	2.33
230.344	3.09
230.728	3.4
231.112	3.54
231.495	1.71
231.879	2.89
232.263	3.03
232.646	2.23
233.03	4.86
233.413	3.2
233.797	1.49
234.18	2.45
234.563	3.04
234.946	1.92
235.33	0.92
235.713	2.92
236.096	4.77
236.479	2.69
236.862	3.21
237.245	2.22
237.628	3.76
238.011	4.02
238.394	1.3
238.777	3.25
239.16	3.54
239.543	3.53
239.925	3.06
240.308	3.69
240.691	2.66
241.073	2.58
241.456	3.05
241.838	2.86
242.221	2.9
242.603	4.19
242.986	3.72
243.368	3.77
243.75	3.37
244.133	3.95
244.515	3.54
244.897	3.85
245.279	3.27
245.661	3.46
246.043	3.67
246.425	3.88
246.807	3.53
247.189	3.44
247.571	3.39
247.953	3.64
248.335	3.67
248.717	3.95
249.098	3.89
249.48	3.49
249.862	3.77
250.243	3.78
250.625	3.7
251.006	4.52
251.388	3.91
251.769	2.88
252.151	3.11
252.532	3.97
252.913	4.31
253.295	3.73
253.676	3.72
254.057	3.98
254.438	3.8
254.819	4.28
255.2	4.46
255.581	4.63
255.962	3.41
256.343	4.71
256.724	3.56
257.105	4
257.486	1.98
257.867	4.55
258.247	4.97
258.628	4.67
259.009	3.33
259.389	3.28
259.77	3.05
260.15	4.02
260.531	3.88
260.911	3.72
261.292	3.82
261.672	3.71
262.052	3.42
262.432	3.43
262.813	3.99
263.193	3.82
263.573	3.65
263.953	3.49
264.333	3.74
264.713	3.66
265.093	3.17
265.473	3.1
265.853	3.37
266.233	3.76
266.612	3.25
266.992	3.79
267.372	4.23
267.752	4.2
268.131	2.84
268.511	3.4
268.89	3.63
269.27	2.76
269.649	3.33
270.029	3.24
270.408	3.06
270.787	3.41
271.167	3.76
271.546	3.34
271.925	3.45
272.304	3.88
272.683	2.57
273.062	3.26
273.441	2.9
273.82	3.73
274.199	3.57
274.578	3.69
274.957	3.14
275.336	2.96
275.715	3.46
276.093	2.99
276.472	2.65
276.851	3.31
277.229	3.12
277.608	2.67
277.986	2.98
278.365	4.06
278.743	3.11
279.122	3.62
279.5	3.3
279.878	3.3
280.257	3.67
280.635	3.86
281.013	2.97
281.391	3.18
281.769	3.32
282.147	3.61
282.525	2.94
282.903	3.52
283.281	3.45
283.659	3.6
284.037	2.91
284.415	3.55
284.792	3.24
285.17	3.28
285.548	3.25
285.925	3.45
286.303	3.6
286.68	3.34
287.058	3.68
287.435	3
287.813	3.54
288.19	3.43
288.567	3.38
288.945	3.16
289.322	3.79
289.699	3.56
290.076	3.61
290.453	3.68
290.83	3.43
291.207	3.86
291.584	3.72
291.961	3.55
292.338	3.69
292.715	3.95
293.092	3.82
293.469	3.73
293.845	4.29
294.222	4.73
294.599	3.7
294.975	3.4
295.352	4.27
295.728	4.09
296.105	4.33
296.481	4.35
296.858	4.09
297.234	3.83
297.61	4.19
297.986	4.49
298.363	4.45
298.739	4.63
299.115	4.55
299.491	4.85
299.867	4.22
300.243	4.5
300.619	3.98
300.995	4.7
301.371	4.98
301.746	4.75
302.122	4.22
302.498	4.29
302.874	5.11
303.249	4.8
303.625	4.14
304	5.01
304.376	5.47
304.751	4.58
305.127	4.81
305.502	4.78
305.878	4.58
306.253	4.36
306.628	5
307.003	5.17
307.378	4.79
307.754	5.08
308.129	4.67
308.504	5.38
308.879	5.22
309.254	5.53
309.629	5.26
310.003	4.87
310.378	5.15
310.753	4.87
311.128	5.17
311.502	5.06
311.877	5.17
312.252	5.06
312.626	5.32
313.001	5.35
313.375	5.36
313.75	5.16
314.124	4.97
314.498	5.67
314.873	4.8
315.247	4.99
315.621	5.13
315.995	4.96
316.369	4.86
316.743	5.09
317.117	5.09
317.491	5.56
317.865	4.94
318.239	5.42
318.613	5.61
318.987	5
319.361	5.27
319.734	5.64
320.108	5.59
320.482	5.91
320.855	5.33
321.229	5.38
321.602	5.36
321.976	4.41
322.349	6.04
322.723	5.42
323.096	5.9
323.469	4.93
323.843	5.2
324.216	5.64
324.589	5.54
324.962	5.13
325.335	5.55
325.708	5.73
326.081	5.41
326.454	5.47
326.827	5.31
327.2	5.3
327.573	5.85
327.945	5.65
328.318	5.49
328.691	5.44
329.063	5.29
329.436	5.56
329.809	5.83
330.181	6.38
330.553	5.85
330.926	6.08
331.298	5.71
331.671	5.87
332.043	5.65
332.415	6.09
332.787	5.64
333.159	5.44
333.532	5.91
333.904	5.59
334.276	5.64
334.648	5.65
335.02	5.52
335.391	5.19
335.763	5.65
336.135	5.91
336.507	5.61
336.879	6.03
337.25	5.96
337.622	5.79
337.993	5.86
338.365	5.72
338.736	5.77
339.108	5.67
339.479	5.92
339.851	5.81
340.222	5.91
340.593	5.54
340.964	5.84
341.336	5.35
341.707	5.54
342.078	5.3
342.449	6
342.82	6.15
343.191	5.68
343.562	5.84
343.933	5.52
344.303	5.92
344.674	5.47
345.045	5.82
345.416	6.29
345.786	6.17
346.157	6.01
346.527	5.94
346.898	5.42
347.268	5.87
347.639	5.73
348.009	5.3
348.38	5.28
348.75	6.31
349.12	6.21
349.49	5.6
349.861	5.71
350.231	5.95
350.601	5.71
350.971	5.63
351.341	5.85
351.711	5.68
352.081	5.68
352.45	5.45
352.82	5.73
353.19	5.79
353.56	5.64
353.929	5.92
354.299	5.86
354.669	5.79
355.038	6.32
355.408	5.78
355.777	6
356.147	5.81
356.516	5.87
356.885	5.54
357.254	5.94
357.624	5.57
357.993	5.98
358.362	5.93
358.731	6.18
359.1	6.01
359.469	5.94
359.838	5.89
360.207	6.16
360.576	5.8
360.945	6.02
361.314	5.83
361.682	5.85
362.051	6.16
362.42	5.98
362.788	5.99
363.157	5.87
363.525	5.84
363.894	5.79
364.262	6.01
364.631	5.78
364.999	5.77
365.367	5.82
365.735	5.78
366.104	6.05
366.472	5.86
366.84	6.13
367.208	6.07
367.576	6.12
367.944	6.01
368.312	6.06
368.68	6.46
369.048	5.95
369.416	5.7
369.783	5.78
370.151	6.38
370.519	6.53
370.886	6.01
371.254	6.32
371.621	6.38
371.989	6.23
372.356	6.12
372.724	6.07
373.091	6.13
373.458	5.6
373.826	6.32
374.193	6.02
374.56	6.19
374.927	6.07
375.294	6.14
375.661	6.45
376.028	6.07
376.395	6.06
376.762	5.82
377.129	5.84
377.496	6.06
377.863	6.09
378.229	6.06
378.596	6.34
378.963	6.2
379.329	6.24
379.696	6.04
380.062	6
380.429	5.94
380.795	6.35
381.161	5.7
381.528	6.03
381.894	6.17
382.26	6.3
382.626	6.54
382.993	6.71
383.359	6.36
383.725	6.14
384.091	6.42
384.457	5.87
384.823	6.16
385.188	6.39
385.554	6.08
385.92	6.18
386.286	6.28
386.651	6.13
387.017	6.39
387.383	6.39
387.748	6.14
388.114	6.42
388.479	6.3
388.845	6
389.21	6.43
389.575	6.58
389.94	6.38
390.306	6.17
390.671	6.26
391.036	6.14
391.401	6.41
391.766	6.5
392.131	6.63
392.496	6.35
392.861	6.27
393.226	6.16
393.591	6.46
393.956	6.5
394.32	6.51
394.685	6.51
395.05	6.17
395.414	6.34
395.779	6.58
396.143	6.29
396.508	6.26
396.872	6.24
397.236	6.99
397.601	6.49
397.965	6.37
398.329	6.5
398.694	6.38
399.058	6.5
399.422	6.36
399.786	6.3
400.15	6.41
400.514	6.25
400.878	6.42
401.242	6.6
401.605	6.62
401.969	6.3
402.333	6.4
402.697	6.51
403.06	6.61
403.424	6.42
403.787	6.53
404.151	6.73
404.514	6.69
404.878	6.41
405.241	6.44
405.604	6.32
405.968	6.54
406.331	6.59
406.694	6.55
407.057	6.32
407.42	6.46
407.783	6.6
408.146	6.51
408.509	6.65
408.872	6.55
409.235	6.81
409.598	6.53
409.961	6.59
410.323	6.37
410.686	6.42
411.049	6.75
411.411	6.61
411.774	6.61
412.136	6.63
412.499	6.67
412.861	6.33
413.223	6.58
413.586	6.39
413.948	6.74
414.31	6.84
414.672	6.61
415.035	6.73
415.397	6.65
415.759	6.53
416.121	6.71
416.483	6.71
416.845	6.68
417.206	6.75
417.568	6.62
417.93	6.63
418.292	6.62
418.653	6.56
419.015	6.56
419.377	6.7
419.738	6.71
420.1	6.63
420.461	6.55
420.822	6.6
421.184	6.67
421.545	6.66
421.906	6.7
422.267	6.64
422.629	6.55
422.99	6.44
423.351	6.6
423.712	6.63
424.073	6.76
424.434	6.83
424.795	6.67
425.155	6.56
425.516	6.57
425.877	6.68
426.238	6.68
426.598	6.73
426.959	6.76
427.32	6.61
427.68	6.62
428.041	6.88
428.401	6.79
428.761	6.88
429.122	6.8
429.482	6.87
429.842	6.82
430.202	7.1
430.563	6.87
430.923	6.93
431.283	6.89
431.643	7.03
432.003	6.91
432.363	7.03
432.722	6.89
433.082	6.85
433.442	7.01
433.802	6.83
434.161	6.87
434.521	6.87
434.881	6.97
435.24	6.81
435.6	6.95
435.959	6.92
436.319	7.1
436.678	7.21
437.037	6.96
437.396	7.05
437.756	6.98
438.115	7.02
438.474	7.1
438.833	6.97
439.192	6.91
439.551	7
439.91	7.1
440.269	6.88
440.628	6.99
440.987	7.16
441.345	7.07
441.704	6.85
442.063	7.06
442.421	7.09
442.78	7.07
443.138	7.05
443.497	6.96
443.855	7.18
444.214	7.06
444.572	7.34
444.93	7.19
445.288	7.16
445.647	7.03
446.005	7.07
446.363	7.13
446.721	7.18
447.079	6.92
447.437	7.07
447.795	7.15
448.153	7.06
448.51	7.03
448.868	7.02
449.226	7.08
449.584	7.06
449.941	7.15
450.299	7.19
450.656	7.18
451.014	7.18
451.371	7.18
451.729	7.32
452.086	7.38
452.443	7.39
452.801	7.36
453.158	7.54
453.515	7.3
453.872	7.28
454.229	7.17
454.586	7.21
454.943	7.3
455.3	7.41
455.657	7.32
456.014	7.33
456.371	7.54
456.727	7.6
457.084	7.51
457.441	7.51
457.797	7.49
458.154	7.56
458.51	7.33
458.867	7.46
459.223	7.45
459.58	7.54
459.936	7.27
460.292	7.43
460.648	7.29
461.005	7.34
461.361	7.33
461.717	7.41
462.073	7.34
462.429	7.45
462.785	7.59
463.141	7.46
463.496	7.54
463.852	7.69
464.208	7.55
464.564	7.59
464.919	7.56
465.275	7.57
465.631	7.85
465.986	7.76
466.342	7.4
466.697	7.53
467.052	7.72
467.408	7.68
467.763	7.58
468.118	7.5
468.473	7.62
468.829	7.6
469.184	7.81
469.539	7.57
469.894	7.73
470.249	7.65
470.603	7.83
470.958	7.79
471.313	7.93
471.668	7.85
472.023	7.76
472.377	7.62
472.732	7.86
473.086	7.67
473.441	7.65
473.795	7.99
474.15	7.73
474.504	8.02
474.859	7.74
475.213	7.85
475.567	7.78
475.921	8.09
476.275	8
476.63	7.87
476.984	7.78
477.338	7.98
477.692	7.82
478.045	8
478.399	7.91
478.753	7.98
479.107	7.96
479.461	7.91
479.814	7.85
480.168	7.98
480.521	8.1
480.875	8.01
481.228	7.94
481.582	7.85
481.935	8.06
482.289	7.86
482.642	8.07
482.995	7.99
483.348	7.78
483.701	7.93
484.055	7.82
484.408	7.85
484.761	7.75
485.114	7.56
485.466	7.59
485.819	7.64
486.172	7.62
486.525	7.69
486.878	7.78
487.23	7.89
487.583	7.89
487.936	7.88
488.288	7.9
488.641	7.79
488.993	7.79
489.345	7.76
489.698	7.82
490.05	7.79
490.402	7.85
490.754	8.01
491.107	7.95
491.459	8.05
491.811	8.08
492.163	8.13
492.515	8.04
492.866	7.94
493.218	7.92
493.57	7.99
493.922	8.02
494.274	8.11
494.625	8.25
494.977	8.23
495.328	8.29
495.68	8.32
496.031	8.33
496.383	8.43
496.734	8.43
497.086	8.5
497.437	8.47
497.788	8.49
498.139	8.51
498.49	8.36
498.842	8.51
499.193	8.32
499.544	8.46
499.894	8.38
500.245	8.56
500.596	8.52
500.947	8.52
501.298	8.58
501.648	8.61
501.999	8.62
502.35	8.51
502.7	8.77
503.051	8.75
503.401	8.79
503.752	8.71
504.102	8.67
504.452	8.63
504.803	8.66
505.153	8.78
505.503	8.7
505.853	8.82
506.203	8.86
506.553	8.8
506.903	8.85
507.253	8.78
507.603	8.78
507.953	8.71
508.303	8.9
508.652	8.74
509.002	8.86
509.352	8.87
509.701	8.85
510.051	9.02
510.4	8.94
510.75	8.83
511.099	8.72
511.449	8.95
511.798	8.85
512.147	8.81
512.496	9.03
512.846	8.89
513.195	8.94
513.544	9.07
513.893	8.95
514.242	8.99
514.591	8.97
514.939	9.03
515.288	9.16
515.637	9.16
515.986	9.12
516.334	9.23
516.683	9.25
517.032	9.37
517.38	9.06
517.729	9.16
518.077	9.2
518.426	9.43
518.774	9.26
519.122	9.22
519.47	9.21
519.819	9.24
520.167	9.19
520.515	9.27
520.863	9.27
521.211	9.31
521.559	9.32
521.907	9.43
522.255	9.3
522.602	9.54
522.95	9.56
523.298	9.5
523.645	9.53
523.993	9.59
524.341	9.59
524.688	9.52
525.036	9.51
525.383	9.61
525.73	9.7
526.078	9.69
526.425	9.58
526.772	9.54
527.119	9.58
527.466	9.6
527.814	9.61
528.161	9.61
528.508	9.69
528.854	9.59
529.201	9.52
529.548	9.53
529.895	9.38
530.242	9.39
530.588	9.46
530.935	9.5
531.282	9.43
531.628	9.55
531.975	9.6
532.321	9.74
532.667	9.84
533.014	9.94
533.36	9.92
533.706	9.9
534.052	9.95
534.399	9.91
534.745	9.75
535.091	9.77
535.437	9.79
535.783	9.96
536.129	9.97
536.474	10.06
536.82	10.19
537.166	10.08
537.512	10.16
537.857	10.09
538.203	10.13
538.549	10.09
538.894	10.2
539.239	10.2
539.585	10.32
539.93	10.3
540.276	10.42
540.621	10.54
540.966	10.54
541.311	10.55
541.656	10.37
542.001	10.37
542.346	10.38
542.691	10.14
543.036	10.18
543.381	10.16
543.726	10.25
544.071	10.31
544.415	10.33
544.76	10.42
545.105	10.46
545.449	10.57
545.794	10.55
546.138	10.62
546.483	10.76
546.827	10.68
547.171	10.79
547.516	10.85
547.86	10.82
548.204	10.88
548.548	10.83
548.892	10.9
549.236	10.84
549.58	10.93
549.924	11.04
550.268	11.14
550.612	11.21
550.956	11.26
551.3	11.31
551.643	11.22
551.987	11.49
552.33	11.41
552.674	11.45
553.017	11.51
553.361	11.55
553.704	11.4
554.048	11.32
554.391	11.56
554.734	11.29
555.077	11.53
555.42	11.44
555.764	11.45
556.107	11.56
556.45	11.6
556.793	11.71
557.135	11.65
557.478	11.72
557.821	11.81
558.164	11.73
558.507	11.63
558.849	11.94
559.192	11.88
559.534	11.7
559.877	11.89
560.219	11.77
560.562	11.75
560.904	11.96
561.246	12.23
561.589	12.15
561.931	12.01
562.273	12
562.615	12
562.957	12.1
563.299	12.2
563.641	12.13
563.983	12.14
564.325	12.06
564.667	12.21
565.008	12.26
565.35	12.33
565.692	12.32
566.033	12.22
566.375	12.44
566.716	12.2
567.058	12.36
567.399	12.38
567.741	12.65
568.082	12.36
568.423	12.42
568.764	12.55
569.105	12.65
569.447	12.7
569.788	12.41
570.129	12.55
570.47	12.75
570.811	12.78
571.151	12.86
571.492	12.77
571.833	12.7
572.174	12.86
572.514	12.8
572.855	12.98
573.195	12.86
573.536	12.98
573.876	12.83
574.217	12.83
574.557	12.87
574.898	12.96
575.238	13.09
575.578	13.17
575.918	13.16
576.258	13.29
576.598	13.11
576.938	13.05
577.278	13.29
577.618	13.18
577.958	13.4
578.298	13.31
578.638	13.41
578.977	13.58
579.317	13.63
579.657	13.37
579.996	13.7
580.336	13.54
580.675	13.72
581.014	13.71
581.354	13.82
581.693	13.71
582.032	13.89
582.372	13.8
582.711	13.89
583.05	13.71
583.389	14.02
583.728	14.09
584.067	13.9
584.406	13.94
584.745	14.01
585.083	14.22
585.422	14.24
585.761	14.05
586.1	14.18
586.438	13.96
586.777	14.04
587.115	14.31
587.454	14.28
587.792	14.34
588.13	14.34
588.469	14.32
588.807	14.7
589.145	14.46
589.483	14.23
589.821	14.37
590.159	14.4
590.497	14.61
590.835	14.54
591.173	14.62
591.511	14.78
591.849	14.53
592.187	14.46
592.524	14.95
592.862	14.48
593.2	14.86
593.537	14.78
593.875	14.66
594.212	15.11
594.55	14.78
594.887	14.84
595.224	15.16
595.561	14.95
595.899	15.01
596.236	15.23
596.573	14.77
596.91	14.98
597.247	15.15
597.584	15.09
597.921	15.2
598.258	15.17
598.594	14.85
598.931	14.86
599.268	15.03
599.604	15.11
599.941	15.42
600.277	15.32
600.614	15.32
600.95	15.27
601.287	15.21
601.623	15.15
601.959	15.53
602.296	15.49
602.632	15.62
602.968	15.57
603.304	15.63
603.64	15.55
603.976	15.44
604.312	15.77
604.648	15.51
604.984	15.69
605.319	15.65
605.655	15.62
605.991	15.67
606.326	15.62
606.662	15.61
606.998	15.73
607.333	15.8
607.668	15.92
608.004	16.01
608.339	15.94
608.674	16.14
609.01	16.26
609.345	16.15
609.68	15.96
610.015	16.11
610.35	16.23
610.685	16.17
611.02	16.19
611.355	16.19
611.689	16.22
612.024	16.24
612.359	16.41
612.694	16.43
613.028	16.28
613.363	16.33
613.697	16.5
614.032	16.72
614.366	16.54
614.7	16.74
615.035	16.65
615.369	16.97
615.703	16.81
616.037	16.65
616.371	16.64
616.705	16.97
617.039	17.02
617.373	16.73
617.707	16.92
618.041	16.99
618.375	16.56
618.709	17.08
619.042	16.77
619.376	17.14
619.71	17.03
620.043	17.5
620.377	17.09
620.71	17.37
621.043	17.3
621.377	17.23
621.71	17.38
622.043	17.63
622.376	16.92
622.709	17.61
623.043	17.35
623.376	17.22
623.709	17.5
624.041	17.31
624.374	17.87
624.707	17.64
625.04	17.42
625.373	17.39
625.705	17.67
626.038	17.76
626.37	17.41
626.703	17.7
627.035	17.65
627.368	17.61
627.7	17.77
628.032	17.54
628.365	17.65
628.697	17.95
629.029	17.62
629.361	17.88
629.693	17.93
630.025	17.97
630.357	17.71
630.689	17.86
631.021	18.1
631.353	17.77
631.684	18.15
632.016	17.55
632.348	17.9
632.679	18.25
633.011	18.2
633.342	18.55
633.674	17.99
634.005	18.46
634.336	18.5
634.668	18.32
634.999	18.49
635.33	18.46
635.661	18.4
635.992	18.11
636.323	18.21
636.654	18.8
636.985	18.45
637.316	18.36
637.647	18.63
637.977	18.56
638.308	18.85
638.639	18.35
638.969	18.29
639.3	18.38
639.63	18.91
639.961	18.81
640.291	18.66
640.622	19.2
640.952	19.2
641.282	18.5
641.612	18.7
641.943	18.5
642.273	18.66
642.603	19.33
642.933	19.43
643.263	18.97
643.592	19.57
643.922	19.49
644.252	19.64
644.582	19.12
644.911	19.63
645.241	19.32
645.571	19.4
645.9	19.43
646.23	19.48
646.559	19.03
646.888	19.39
647.218	19.4
647.547	19.63
647.876	19.84
648.205	19.71
648.534	19.63
648.863	19.37
649.192	19.74
649.521	19.62
649.85	19.59
650.179	19.59
650.508	19.95
650.837	19.91
651.165	19.71
651.494	19.73
651.822	20
652.151	19.77
652.479	20.19
652.808	19.89
653.136	19.66
653.465	19.66
653.793	19.63
654.121	19.65
654.449	19.52
654.777	19.73
655.105	19.94
655.433	20.24
655.761	19.85
656.089	20.11
656.417	20.2
656.745	20.69
657.073	20.05
657.4	20.29
657.728	20.29
658.056	20.32
658.383	20.14
658.711	20.01
659.038	19.94
659.365	20.78
659.693	20.14
660.02	20.11
660.347	20.31
660.674	20.1
661.001	20.13
661.329	20.5
661.656	19.7
661.982	19.89
662.309	20.41
662.636	20.63
662.963	20.52
663.29	20.45
663.616	20.56
663.943	20.44
664.27	20.65
664.596	20.47
664.923	21.13
665.249	20.9
665.576	20.59
665.902	20.65
666.228	20.87
666.554	21.02
666.881	20.61
667.207	20.77
667.533	20.6
667.859	20.97
668.185	20.73
668.511	21.1
668.837	21.2
669.162	21.27
669.488	20.9
669.814	20.9
670.139	20.58
670.465	21.98
670.791	20.64
671.116	21.16
671.442	20.69
671.767	21.28
672.092	21.14
672.418	21.32
672.743	21.03
673.068	20.68
673.393	21.06
673.718	20.55
674.043	21.1
674.368	21.04
674.693	21.75
675.018	21.64
675.343	21.72
675.667	21.2
675.992	21.98
676.317	20.79
676.641	21.5
676.966	21.68
677.29	21.1
677.615	21.09
677.939	22.08
678.264	20.89
678.588	22.25
678.912	22.19
679.236	21.51
679.56	21.36
679.885	21.5
680.209	22.37
680.532	21.46
680.856	21.17
681.18	22.21
681.504	21.65
681.828	21.65
682.152	21.64
682.475	21.66
682.799	21.63
