Data from 0139_crown_Reflection__3__196.txt Node

Date: Mon Aug 28 20:20:13 CDT 2023
User: ToomeyLab
Spectrometer: FLMS14357
Trigger mode: 0
Integration Time (sec): 1.000000E-2
Scans to average: 100
Electric dark correction enabled: true
Nonlinearity correction enabled: false
Boxcar width: 0
XAxis mode: Wavelengths
Number of Pixels in Spectrum: 2048
>>>>>Begin Spectral Data<<<<<
189.047	44.22
189.435	44.22
189.823	44.22
190.211	39.21
190.599	262.77
190.987	77.73
191.375	-187.61
191.763	147.04
192.151	148.12
192.538	67.83
192.926	164.91
193.314	-281.21
193.702	-156.76
194.089	101.03
194.477	123.72
194.864	22.44
195.252	-1011.35
195.639	-250.27
196.027	161.62
196.414	177.19
196.801	34.3
197.189	51
197.576	85.55
197.963	1843.8
198.351	-1.2
198.738	-6.61
199.125	-16.96
199.512	-14.5
199.899	-27.62
200.286	-29.68
200.673	-6.22
201.06	2.93
201.447	-68.55
201.833	-35.49
202.22	-21.58
202.607	0.27
202.994	-34.09
203.38	16.82
203.767	-41.01
204.154	-29.12
204.54	-63.82
204.927	-8.83
205.313	7
205.699	-44.98
206.086	6.49
206.472	-15.44
206.858	-43.69
207.245	-61.05
207.631	8.59
208.017	-26.53
208.403	15.33
208.789	-5.77
209.175	-97.19
209.561	3.57
209.947	12.19
210.333	-39.42
210.719	-8.58
211.105	16.94
211.491	-0.02
211.876	3.02
212.262	-32.02
212.648	2.72
213.034	24.97
213.419	17.86
213.805	-4.35
214.19	-45.93
214.576	9.42
214.961	-11.71
215.346	-40.43
215.732	-20.27
216.117	-42.96
216.502	-28.31
216.888	-86.25
217.273	-32.24
217.658	-4.36
218.043	-20.45
218.428	4
218.813	-33.15
219.198	-9.02
219.583	-13.59
219.968	1.99
220.353	-7.1
220.738	-10.86
221.122	0.26
221.507	-13.17
221.892	-2.52
222.276	4.71
222.661	-10.91
223.046	-5.94
223.43	-7.47
223.815	-2.03
224.199	5.19
224.583	-1.99
224.968	-0.96
225.352	-2.28
225.736	5.31
226.121	-12.61
226.505	-1.54
226.889	12.31
227.273	6.36
227.657	0.75
228.041	0.02
228.425	3.26
228.809	0.05
229.193	1.98
229.577	2.2
229.961	-1.2
230.344	1.48
230.728	1.58
231.112	0.62
231.495	2.02
231.879	0.95
232.263	1.04
232.646	0.99
233.03	2.05
233.413	3.85
233.797	0.64
234.18	0.52
234.563	-0.7
234.946	1.74
235.33	1.7
235.713	-2.74
236.096	2.72
236.479	1.41
236.862	1.73
237.245	-1.05
237.628	-0.27
238.011	3.94
238.394	1.64
238.777	4.52
239.16	0.81
239.543	-0.32
239.925	4.54
240.308	-0.52
240.691	0.68
241.073	-1.48
241.456	1.62
241.838	0.22
242.221	2.78
242.603	2.46
242.986	1.57
243.368	1.35
243.75	1.42
244.133	0.83
244.515	1.42
244.897	1.83
245.279	1.68
245.661	0.82
246.043	1.38
246.425	0.92
246.807	1.65
247.189	0.95
247.571	0.8
247.953	1.88
248.335	1.36
248.717	1.3
249.098	1.48
249.48	1.6
249.862	1.57
250.243	1.39
250.625	1.73
251.006	1.45
251.388	2.13
251.769	1.98
252.151	1.43
252.532	1.35
252.913	2.08
253.295	0.31
253.676	1.42
254.057	1.2
254.438	0.9
254.819	1.31
255.2	1.35
255.581	1.53
255.962	1.88
256.343	2.4
256.724	0.46
257.105	0.16
257.486	1.89
257.867	0.43
258.247	1.31
258.628	1.9
259.009	-0.75
259.389	0.12
259.77	1.6
260.15	0.47
260.531	0.39
260.911	1.21
261.292	1.48
261.672	1.49
262.052	1.23
262.432	1.36
262.813	1.27
263.193	0.94
263.573	0.44
263.953	1.59
264.333	0.71
264.713	0.63
265.093	1.66
265.473	1.19
265.853	-0.32
266.233	1.1
266.612	1.65
266.992	0.03
267.372	-0.15
267.752	1.69
268.131	2.01
268.511	0.56
268.89	1.27
269.27	0.56
269.649	1.3
270.029	1.38
270.408	1.71
270.787	1.28
271.167	1.29
271.546	0.83
271.925	0.97
272.304	1.23
272.683	1.61
273.062	1.13
273.441	1.53
273.82	1.25
274.199	0.75
274.578	1.07
274.957	1.31
275.336	1.52
275.715	1.75
276.093	0.92
276.472	1.11
276.851	0.61
277.229	1.07
277.608	1.34
277.986	0.56
278.365	1.54
278.743	0.89
279.122	0.78
279.5	1.22
279.878	0.27
280.257	1.1
280.635	1.41
281.013	1.22
281.391	1.34
281.769	0.82
282.147	1.55
282.525	1.84
282.903	1.07
283.281	1.04
283.659	1.73
284.037	1.63
284.415	1.12
284.792	1.42
285.17	0.45
285.548	0.63
285.925	1.57
286.303	1.17
286.68	1.52
287.058	1.09
287.435	1
287.813	1.13
288.19	1.32
288.567	1.46
288.945	1.23
289.322	1.11
289.699	1.46
290.076	1.76
290.453	1.6
290.83	0.39
291.207	0.64
291.584	1.42
291.961	1.65
292.338	1.24
292.715	1.1
293.092	1.18
293.469	1.32
293.845	1.27
294.222	1.26
294.599	1.04
294.975	1.01
295.352	0.79
295.728	1.37
296.105	1.05
296.481	1.37
296.858	1.79
297.234	1.2
297.61	1.05
297.986	1.07
298.363	1.41
298.739	1.07
299.115	0.7
299.491	1.36
299.867	1.24
300.243	1.37
300.619	1.13
300.995	1.15
301.371	0.53
301.746	1.22
302.122	1.16
302.498	1.1
302.874	1.26
303.249	1.04
303.625	1.24
304	1.23
304.376	1.48
304.751	1.05
305.127	1.09
305.502	1.66
305.878	1.38
306.253	0.91
306.628	1.16
307.003	1.25
307.378	1.76
307.754	1.43
308.129	0.85
308.504	1.5
308.879	1.01
309.254	1.41
309.629	1.15
310.003	1.12
310.378	0.88
310.753	1.49
311.128	1.01
311.502	1.31
311.877	0.72
312.252	0.98
312.626	1.49
313.001	1.25
313.375	1.51
313.75	1.01
314.124	1.14
314.498	1.52
314.873	1.26
315.247	1.3
315.621	1
315.995	1.28
316.369	1.6
316.743	0.05
317.117	1.46
317.491	0.68
317.865	0.81
318.239	1.25
318.613	1.11
318.987	0.55
319.361	0.93
319.734	1.75
320.108	1.75
320.482	1.32
320.855	1.44
321.229	1.21
321.602	1.46
321.976	0.66
322.349	1.02
322.723	0.9
323.096	1.78
323.469	0.84
323.843	0.81
324.216	0.82
324.589	1.17
324.962	1.42
325.335	1.43
325.708	0.7
326.081	1.25
326.454	1.56
326.827	1.46
327.2	1.23
327.573	0.86
327.945	1.74
328.318	1.84
328.691	0.93
329.063	0.93
329.436	0.8
329.809	1.7
330.181	0.99
330.553	0.75
330.926	1.45
331.298	1.34
331.671	0.64
332.043	1.51
332.415	1.88
332.787	1.11
333.159	1.16
333.532	1.82
333.904	1.27
334.276	0.61
334.648	0.95
335.02	1.63
335.391	1.13
335.763	1.17
336.135	1.54
336.507	1.25
336.879	1.59
337.25	1.65
337.622	1.12
337.993	1.18
338.365	1.31
338.736	1.54
339.108	0.64
339.479	0.76
339.851	1.54
340.222	1.36
340.593	1.01
340.964	1.46
341.336	0.96
341.707	0.99
342.078	1.18
342.449	1.23
342.82	1.47
343.191	0.66
343.562	1.04
343.933	0.94
344.303	0.91
344.674	1.39
345.045	1.24
345.416	1.57
345.786	2.25
346.157	1.53
346.527	0.89
346.898	1.37
347.268	1.02
347.639	1.07
348.009	1.13
348.38	1.7
348.75	1.44
349.12	1.28
349.49	1.06
349.861	1.19
350.231	0.79
350.601	1.31
350.971	1.61
351.341	1.67
351.711	0.91
352.081	1.38
352.45	1.06
352.82	1.39
353.19	2.18
353.56	1.39
353.929	1.53
354.299	0.63
354.669	1.5
355.038	1.06
355.408	1.34
355.777	1.28
356.147	1.33
356.516	1.39
356.885	1.35
357.254	1.04
357.624	1.24
357.993	1.87
358.362	1.14
358.731	1.35
359.1	1.67
359.469	1.62
359.838	1
360.207	1.63
360.576	1.73
360.945	1.43
361.314	1.39
361.682	0.83
362.051	1.45
362.42	1.43
362.788	1.32
363.157	1.25
363.525	1.28
363.894	1.35
364.262	1.52
364.631	1.18
364.999	1.48
365.367	1.28
365.735	1.39
366.104	1.24
366.472	1.17
366.84	1.24
367.208	1.35
367.576	0.8
367.944	1.33
368.312	1.36
368.68	1.48
369.048	1.49
369.416	1.11
369.783	1.33
370.151	1.32
370.519	1.56
370.886	1.35
371.254	1.01
371.621	1.18
371.989	1.46
372.356	1.45
372.724	1.69
373.091	1.35
373.458	1.06
373.826	1.49
374.193	1.39
374.56	1.35
374.927	1.11
375.294	1.28
375.661	1.37
376.028	1.06
376.395	1.08
376.762	1.65
377.129	1.19
377.496	1.19
377.863	1.46
378.229	1.09
378.596	1.31
378.963	1.69
379.329	1.66
379.696	1.28
380.062	1.38
380.429	1.4
380.795	1.48
381.161	1.41
381.528	1.94
381.894	1.34
382.26	1.53
382.626	1.46
382.993	1.72
383.359	1.51
383.725	1.49
384.091	1.45
384.457	1.36
384.823	1.7
385.188	1.48
385.554	1.43
385.92	1.33
386.286	1.69
386.651	1.29
387.017	1.82
387.383	1.51
387.748	1.52
388.114	1.3
388.479	1.07
388.845	1.36
389.21	1.2
389.575	1.65
389.94	1.38
390.306	1.55
390.671	1.51
391.036	1.42
391.401	1.52
391.766	1.6
392.131	1.57
392.496	1.05
392.861	1.43
393.226	1.51
393.591	1.31
393.956	1.46
394.32	1.52
394.685	1.21
395.05	1.6
395.414	1.29
395.779	1.32
396.143	1.19
396.508	1.18
396.872	1.37
397.236	1.25
397.601	1.28
397.965	1.52
398.329	1.76
398.694	1.59
399.058	1.39
399.422	1.51
399.786	1.42
400.15	1.81
400.514	1.48
400.878	1.42
401.242	1.57
401.605	1.62
401.969	1.54
402.333	1.46
402.697	1.51
403.06	1.63
403.424	1.78
403.787	1.16
404.151	1.22
404.514	1.4
404.878	1.3
405.241	1.59
405.604	1.46
405.968	1.22
406.331	1.68
406.694	1.61
407.057	1.61
407.42	1.45
407.783	1.43
408.146	1.29
408.509	1.66
408.872	1.31
409.235	1.54
409.598	1.48
409.961	1.43
410.323	1.4
410.686	1.51
411.049	1.8
411.411	1.72
411.774	1.59
412.136	1.39
412.499	1.55
412.861	1.41
413.223	1.54
413.586	1.48
413.948	1.5
414.31	1.47
414.672	1.45
415.035	1.62
415.397	1.21
415.759	1.51
416.121	1.67
416.483	1.37
416.845	1.54
417.206	1.75
417.568	1.71
417.93	1.22
418.292	1.5
418.653	1.44
419.015	1.42
419.377	1.31
419.738	1.61
420.1	1.41
420.461	1.6
420.822	1.57
421.184	1.62
421.545	1.46
421.906	1.49
422.267	1.5
422.629	1.42
422.99	1.43
423.351	1.45
423.712	1.41
424.073	1.53
424.434	1.53
424.795	1.38
425.155	1.44
425.516	1.56
425.877	1.35
426.238	1.35
426.598	1.41
426.959	1.44
427.32	1.49
427.68	1.5
428.041	1.42
428.401	1.62
428.761	1.49
429.122	1.41
429.482	1.43
429.842	1.58
430.202	1.47
430.563	1.65
430.923	1.64
431.283	1.38
431.643	1.31
432.003	1.5
432.363	1.66
432.722	1.6
433.082	1.54
433.442	1.45
433.802	1.47
434.161	1.58
434.521	1.54
434.881	1.38
435.24	1.56
435.6	1.44
435.959	1.51
436.319	1.48
436.678	1.4
437.037	1.44
437.396	1.48
437.756	1.62
438.115	1.58
438.474	1.8
438.833	1.45
439.192	1.65
439.551	1.38
439.91	1.57
440.269	1.53
440.628	1.44
440.987	1.42
441.345	1.45
441.704	1.5
442.063	1.56
442.421	1.55
442.78	1.58
443.138	1.48
443.497	1.45
443.855	1.49
444.214	1.55
444.572	1.58
444.93	1.6
445.288	1.48
445.647	1.61
446.005	1.67
446.363	1.64
446.721	1.52
447.079	1.41
447.437	1.34
447.795	1.42
448.153	1.51
448.51	1.5
448.868	1.5
449.226	1.46
449.584	1.47
449.941	1.41
450.299	1.49
450.656	1.49
451.014	1.5
451.371	1.46
451.729	1.39
452.086	1.45
452.443	1.56
452.801	1.55
453.158	1.65
453.515	1.46
453.872	1.44
454.229	1.49
454.586	1.64
454.943	1.59
455.3	1.61
455.657	1.67
456.014	1.59
456.371	1.36
456.727	1.49
457.084	1.37
457.441	1.58
457.797	1.47
458.154	1.62
458.51	1.73
458.867	1.45
459.223	1.55
459.58	1.47
459.936	1.64
460.292	1.61
460.648	1.48
461.005	1.4
461.361	1.44
461.717	1.5
462.073	1.54
462.429	1.49
462.785	1.5
463.141	1.58
463.496	1.65
463.852	1.55
464.208	1.61
464.564	1.54
464.919	1.6
465.275	1.67
465.631	1.44
465.986	1.59
466.342	1.43
466.697	1.41
467.052	1.57
467.408	1.67
467.763	1.35
468.118	1.46
468.473	1.54
468.829	1.5
469.184	1.29
469.539	1.6
469.894	1.45
470.249	1.51
470.603	1.66
470.958	1.45
471.313	1.54
471.668	1.32
472.023	1.58
472.377	1.46
472.732	1.58
473.086	1.47
473.441	1.57
473.795	1.53
474.15	1.53
474.504	1.36
474.859	1.5
475.213	1.49
475.567	1.49
475.921	1.6
476.275	1.48
476.63	1.68
476.984	1.65
477.338	1.52
477.692	1.53
478.045	1.64
478.399	1.61
478.753	1.5
479.107	1.52
479.461	1.48
479.814	1.58
480.168	1.57
480.521	1.48
480.875	1.51
481.228	1.42
481.582	1.48
481.935	1.47
482.289	1.62
482.642	1.69
482.995	1.6
483.348	1.61
483.701	1.51
484.055	1.52
484.408	1.45
484.761	1.56
485.114	1.44
485.466	1.41
485.819	1.39
486.172	1.39
486.525	1.44
486.878	1.46
487.23	1.48
487.583	1.54
487.936	1.61
488.288	1.6
488.641	1.54
488.993	1.49
489.345	1.47
489.698	1.45
490.05	1.43
490.402	1.43
490.754	1.51
491.107	1.48
491.459	1.54
491.811	1.54
492.163	1.56
492.515	1.53
492.866	1.61
493.218	1.44
493.57	1.48
493.922	1.41
494.274	1.49
494.625	1.45
494.977	1.59
495.328	1.61
495.68	1.63
496.031	1.57
496.383	1.48
496.734	1.38
497.086	1.67
497.437	1.62
497.788	1.65
498.139	1.56
498.49	1.47
498.842	1.45
499.193	1.41
499.544	1.53
499.894	1.56
500.245	1.57
500.596	1.6
500.947	1.59
501.298	1.74
501.648	1.55
501.999	1.53
502.35	1.49
502.7	1.5
503.051	1.59
503.401	1.7
503.752	1.52
504.102	1.44
504.452	1.55
504.803	1.7
505.153	1.44
505.503	1.46
505.853	1.62
506.203	1.57
506.553	1.5
506.903	1.6
507.253	1.54
507.603	1.55
507.953	1.59
508.303	1.77
508.652	1.5
509.002	1.6
509.352	1.41
509.701	1.48
510.051	1.47
510.4	1.59
510.75	1.58
511.099	1.59
511.449	1.6
511.798	1.57
512.147	1.65
512.496	1.62
512.846	1.48
513.195	1.56
513.544	1.65
513.893	1.57
514.242	1.53
514.591	1.56
514.939	1.47
515.288	1.59
515.637	1.62
515.986	1.58
516.334	1.66
516.683	1.64
517.032	1.68
517.38	1.66
517.729	1.65
518.077	1.47
518.426	1.64
518.774	1.55
519.122	1.57
519.47	1.58
519.819	1.56
520.167	1.5
520.515	1.61
520.863	1.46
521.211	1.48
521.559	1.59
521.907	1.63
522.255	1.49
522.602	1.55
522.95	1.73
523.298	1.67
523.645	1.63
523.993	1.5
524.341	1.64
524.688	1.71
525.036	1.6
525.383	1.57
525.73	1.51
526.078	1.72
526.425	1.62
526.772	1.61
527.119	1.56
527.466	1.56
527.814	1.47
528.161	1.48
528.508	1.5
528.854	1.56
529.201	1.61
529.548	1.53
529.895	1.58
530.242	1.49
530.588	1.42
530.935	1.4
531.282	1.46
531.628	1.45
531.975	1.52
532.321	1.6
532.667	1.59
533.014	1.57
533.36	1.55
533.706	1.66
534.052	1.55
534.399	1.47
534.745	1.6
535.091	1.56
535.437	1.48
535.783	1.54
536.129	1.5
536.474	1.51
536.82	1.52
537.166	1.57
537.512	1.59
537.857	1.62
538.203	1.58
538.549	1.58
538.894	1.54
539.239	1.5
539.585	1.57
539.93	1.62
540.276	1.62
540.621	1.61
540.966	1.47
541.311	1.67
541.656	1.68
542.001	1.63
542.346	1.63
542.691	1.52
543.036	1.49
543.381	1.53
543.726	1.52
544.071	1.52
544.415	1.6
544.76	1.57
545.105	1.58
545.449	1.52
545.794	1.65
546.138	1.54
546.483	1.56
546.827	1.56
547.171	1.55
547.516	1.59
547.86	1.66
548.204	1.55
548.548	1.54
548.892	1.56
549.236	1.41
549.58	1.54
549.924	1.57
550.268	1.58
550.612	1.78
550.956	1.77
551.3	1.63
551.643	1.64
551.987	1.41
552.33	1.7
552.674	1.57
553.017	1.6
553.361	1.68
553.704	1.71
554.048	1.73
554.391	1.62
554.734	1.63
555.077	1.6
555.42	1.59
555.764	1.71
556.107	1.56
556.45	1.58
556.793	1.6
557.135	1.78
557.478	1.45
557.821	1.77
558.164	1.75
558.507	1.63
558.849	1.81
559.192	1.79
559.534	1.49
559.877	1.76
560.219	1.72
560.562	1.54
560.904	1.72
561.246	1.52
561.589	1.65
561.931	1.77
562.273	1.55
562.615	1.62
562.957	1.81
563.299	1.84
563.641	1.46
563.983	1.77
564.325	1.76
564.667	1.53
565.008	1.53
565.35	1.63
565.692	1.79
566.033	1.57
566.375	1.65
566.716	1.66
567.058	1.59
567.399	1.46
567.741	1.64
568.082	1.61
568.423	1.66
568.764	1.64
569.105	1.76
569.447	1.74
569.788	1.75
570.129	1.54
570.47	1.71
570.811	1.64
571.151	1.38
571.492	1.61
571.833	1.62
572.174	1.69
572.514	1.54
572.855	1.55
573.195	1.56
573.536	1.69
573.876	1.51
574.217	1.64
574.557	1.69
574.898	1.78
575.238	1.64
575.578	1.63
575.918	1.73
576.258	1.75
576.598	1.71
576.938	1.64
577.278	1.63
577.618	1.58
577.958	1.64
578.298	1.77
578.638	1.61
578.977	1.62
579.317	1.56
579.657	1.54
579.996	1.53
580.336	1.7
580.675	1.89
581.014	1.87
581.354	1.7
581.693	1.63
582.032	1.81
582.372	1.78
582.711	2.04
583.05	1.48
583.389	1.69
583.728	1.6
584.067	1.58
584.406	1.41
584.745	1.37
585.083	1.64
585.422	1.63
585.761	1.77
586.1	1.9
586.438	1.52
586.777	1.53
587.115	1.98
587.454	1.7
587.792	1.48
588.13	1.98
588.469	1.65
588.807	1.53
589.145	1.64
589.483	1.49
589.821	1.71
590.159	1.84
590.497	1.73
590.835	1.69
591.173	1.63
591.511	1.38
591.849	1.71
592.187	1.68
592.524	1.63
592.862	1.63
593.2	1.58
593.537	1.55
593.875	1.93
594.212	1.78
594.55	1.68
594.887	1.6
595.224	1.67
595.561	1.61
595.899	1.27
596.236	1.86
596.573	1.9
596.91	1.55
597.247	1.69
597.584	1.64
597.921	1.79
598.258	1.51
598.594	1.67
598.931	1.46
599.268	1.66
599.604	1.64
599.941	1.74
600.277	1.62
600.614	1.83
600.95	1.73
601.287	1.81
601.623	1.79
601.959	1.82
602.296	1.6
602.632	1.72
602.968	1.61
603.304	1.74
603.64	1.39
603.976	1.77
604.312	1.66
604.648	1.41
604.984	1.41
605.319	1.85
605.655	1.75
605.991	1.79
606.326	1.78
606.662	1.7
606.998	1.7
607.333	1.71
607.668	1.74
608.004	1.86
608.339	1.88
608.674	1.56
609.01	1.74
609.345	1.97
609.68	1.66
610.015	1.77
610.35	1.82
610.685	1.87
611.02	1.63
611.355	2.04
611.689	1.65
612.024	1.82
612.359	1.87
612.694	1.71
613.028	1.74
613.363	1.71
613.697	1.59
614.032	1.72
614.366	1.49
614.7	2.07
615.035	1.81
615.369	1.95
615.703	1.86
616.037	1.37
616.371	1.53
616.705	1.53
617.039	1.53
617.373	1.68
617.707	1.6
618.041	1.96
618.375	1.81
618.709	1.86
619.042	1.65
619.376	1.59
619.71	1.46
620.043	2.04
620.377	1.72
620.71	1.74
621.043	1.9
621.377	1.84
621.71	1.27
622.043	1.2
622.376	2.02
622.709	1.39
623.043	1.76
623.376	1.94
623.709	1.73
624.041	1.88
624.374	1.7
624.707	1.25
625.04	1.3
625.373	1.49
625.705	1.83
626.038	1.6
626.37	1.77
626.703	2.03
627.035	1.58
627.368	2.26
627.7	1.84
628.032	1.67
628.365	1.43
628.697	1.76
629.029	1.64
629.361	1.78
629.693	1.85
630.025	1.88
630.357	1.62
630.689	2.06
631.021	1.72
631.353	1.69
631.684	1.97
632.016	1.47
632.348	1.76
632.679	1.85
633.011	1.74
633.342	1.46
633.674	1.89
634.005	1.91
634.336	1.79
634.668	1.62
634.999	1.85
635.33	1.74
635.661	1.6
635.992	1.47
636.323	2.01
636.654	1.61
636.985	1.46
637.316	1.65
637.647	1.89
637.977	1.62
638.308	2.02
638.639	1.57
638.969	2.07
639.3	1.82
639.63	1.65
639.961	1.63
640.291	1.99
640.622	1.61
640.952	1.5
641.282	1.74
641.612	1.8
641.943	1.7
642.273	2.32
642.603	1.49
642.933	1.5
643.263	1.99
643.592	1.58
643.922	1.77
644.252	1.73
644.582	1.77
644.911	1.52
645.241	2.11
645.571	1.64
645.9	1.6
646.23	1.44
646.559	1.69
646.888	1.92
647.218	1.18
647.547	2.07
647.876	1.95
648.205	1.55
648.534	1.71
648.863	1.33
649.192	1.94
649.521	1.77
649.85	1.73
650.179	1.82
650.508	2.03
650.837	1.6
651.165	1.72
651.494	1.86
651.822	1.33
652.151	1.4
652.479	2.16
652.808	1.82
653.136	1.92
653.465	1.72
653.793	1.99
654.121	1.92
654.449	1.56
654.777	1.56
655.105	2.13
655.433	1.38
655.761	1.15
656.089	1.68
656.417	1.4
656.745	1.92
657.073	1.7
657.4	1.78
657.728	1.99
658.056	1.79
658.383	2.08
658.711	2.33
659.038	2.03
659.365	1.89
659.693	1.38
660.02	1.93
660.347	2.23
660.674	1.99
661.001	2.1
661.329	1.7
661.656	1.97
661.982	2.08
662.309	1.88
662.636	1.92
662.963	2.4
663.29	1.93
663.616	1.97
663.943	2.19
664.27	2.16
664.596	1.63
664.923	1.96
665.249	1.82
665.576	1.4
665.902	1.9
666.228	1.67
666.554	1.84
666.881	1.44
667.207	1.49
667.533	1.79
667.859	1.35
668.185	1.41
668.511	2.02
668.837	1.12
669.162	1.9
669.488	1.46
669.814	1.61
670.139	1.99
670.465	2.03
670.791	2.04
671.116	1.87
671.442	1.64
671.767	1.27
672.092	1.81
672.418	1.63
672.743	1.87
673.068	1.77
673.393	1.94
673.718	1.1
674.043	1.33
674.368	1.87
674.693	2.06
675.018	1.96
675.343	1.6
675.667	1.86
675.992	2
676.317	1.32
676.641	1.61
676.966	1.95
677.29	1.54
677.615	2.55
677.939	2.14
678.264	1.47
678.588	2.14
678.912	2.32
679.236	1.53
679.56	1.9
679.885	2.19
680.209	1.34
680.532	2.31
680.856	1.71
681.18	2.43
681.504	1.76
681.828	2.14
682.152	1.49
682.475	1.46
682.799	2.24
683.122	1.67
683.446	1.38
683.769	2.61
684.093	1.77
684.416	2.31
684.739	1.71
685.062	2.35
685.386	1.61
685.709	2.09
686.032	1.48
686.355	1.68
686.678	1.69
687.001	1.95
687.324	1.79
687.646	1.58
687.969	1.89
688.292	2.43
688.614	1.84
688.937	1.66
689.26	1.98
689.582	1.34
689.904	1.6
690.227	2.46
690.549	1.63
690.871	2.37
691.194	1.87
691.516	1.64
