Data from 0139_crown_Reflection__1__194.txt Node

Date: Mon Aug 28 20:19:50 CDT 2023
User: ToomeyLab
Spectrometer: FLMS14357
Trigger mode: 0
Integration Time (sec): 1.000000E-2
Scans to average: 100
Electric dark correction enabled: true
Nonlinearity correction enabled: false
Boxcar width: 0
XAxis mode: Wavelengths
Number of Pixels in Spectrum: 2048
>>>>>Begin Spectral Data<<<<<
189.047	75.86
189.435	75.86
189.823	75.86
190.211	-155.67
190.599	-28.31
190.987	40.56
191.375	-398.97
191.763	165.36
192.151	13.11
192.538	30.82
192.926	272.79
193.314	-550.34
193.702	235.68
194.089	11.34
194.477	5.03
194.864	130.13
195.252	-665.29
195.639	163.71
196.027	148.02
196.414	31.4
196.801	123.94
197.189	19.54
197.576	192.75
197.963	2221.9
198.351	-9.59
198.738	9.27
199.125	32.77
199.512	-18.01
199.899	-2.68
200.286	-2.3
200.673	38.74
201.06	-10.64
201.447	-60.73
201.833	-6.27
202.22	19.51
202.607	-8.31
202.994	15.47
203.38	23.56
203.767	35.56
204.154	-6.34
204.54	-38.09
204.927	-69.78
205.313	24.37
205.699	-30.08
206.086	43.09
206.472	12.27
206.858	-8.17
207.245	20.83
207.631	41.51
208.017	-7.37
208.403	1.99
208.789	-5.96
209.175	-42.12
209.561	8.49
209.947	1.69
210.333	-16.89
210.719	-5.18
211.105	-6.65
211.491	-36.39
211.876	28.04
212.262	-11.36
212.648	-0.56
213.034	-20.55
213.419	-29.26
213.805	24.18
214.19	-8.58
214.576	13.19
214.961	-2.83
215.346	4.12
215.732	12.72
216.117	-47.78
216.502	-22.86
216.888	-48.71
217.273	-29.28
217.658	5.51
218.043	-4.29
218.428	-3.91
218.813	4.3
219.198	14.29
219.583	0.57
219.968	16.71
220.353	-24.25
220.738	13.76
221.122	-1.04
221.507	12.89
221.892	6.1
222.276	0.32
222.661	-13.77
223.046	-9.28
223.43	12.41
223.815	14.83
224.199	14.5
224.583	-9.96
224.968	-0.11
225.352	11.75
225.736	11.94
226.121	3.21
226.505	1.77
226.889	8.25
227.273	9.37
227.657	2.37
228.041	5.42
228.425	5.24
228.809	0.94
229.193	3.38
229.577	7.61
229.961	4.85
230.344	5.77
230.728	4.53
231.112	4.31
231.495	5.22
231.879	5.11
232.263	4.01
232.646	5.49
233.03	4.46
233.413	5.8
233.797	4.16
234.18	2.88
234.563	3.29
234.946	7.26
235.33	5.09
235.713	2.69
236.096	4.59
236.479	4.9
236.862	5.02
237.245	4.38
237.628	2.98
238.011	5.83
238.394	6.11
238.777	4.88
239.16	1.84
239.543	2.77
239.925	5.63
240.308	2.95
240.691	0.77
241.073	4.02
241.456	5.49
241.838	3.86
242.221	5.6
242.603	5.79
242.986	5.43
243.368	4.76
243.75	4.26
244.133	4.49
244.515	4.17
244.897	4.32
245.279	4.66
245.661	3.67
246.043	3.5
246.425	3.95
246.807	5.07
247.189	3
247.571	3.87
247.953	4.01
248.335	4.42
248.717	4.03
249.098	4.2
249.48	4.12
249.862	4.06
250.243	4.32
250.625	4.06
251.006	4
251.388	4.26
251.769	4.67
252.151	4.16
252.532	2.98
252.913	4.15
253.295	2.83
253.676	4.05
254.057	3.87
254.438	4.05
254.819	3.95
255.2	3.76
255.581	4.49
255.962	4.68
256.343	4.13
256.724	2.3
257.105	2.39
257.486	3.31
257.867	2.89
258.247	4.08
258.628	4.28
259.009	3.73
259.389	3.7
259.77	3.56
260.15	3.73
260.531	3.69
260.911	3.7
261.292	3.85
261.672	3.57
262.052	3.46
262.432	3.57
262.813	3.7
263.193	3.51
263.573	3.05
263.953	4
264.333	3.2
264.713	3.78
265.093	3.59
265.473	3.96
265.853	3.72
266.233	3.13
266.612	3.76
266.992	3.8
267.372	2.9
267.752	3.92
268.131	4.21
268.511	3.58
268.89	3.64
269.27	3.61
269.649	3.43
270.029	4.27
270.408	3.65
270.787	4.27
271.167	3.35
271.546	3.07
271.925	3.22
272.304	3.19
272.683	3.74
273.062	3.44
273.441	3.55
273.82	3.25
274.199	2.91
274.578	3.07
274.957	3.45
275.336	3.9
275.715	3.68
276.093	3.23
276.472	2.65
276.851	3.05
277.229	3.71
277.608	3.61
277.986	3.16
278.365	3.67
278.743	2.98
279.122	3.02
279.5	3.51
279.878	2.53
280.257	3.65
280.635	3.3
281.013	3.34
281.391	3.08
281.769	2.99
282.147	3.05
282.525	3.38
282.903	3.29
283.281	3.18
283.659	3.88
284.037	3.45
284.415	3.15
284.792	3.67
285.17	2.86
285.548	3.18
285.925	3.58
286.303	3.58
286.68	3.38
287.058	3.37
287.435	3.28
287.813	3.1
288.19	3.44
288.567	3.01
288.945	3.27
289.322	3.18
289.699	3.71
290.076	3.14
290.453	3.91
290.83	3.13
291.207	2.81
291.584	3.32
291.961	3.68
292.338	2.93
292.715	3.12
293.092	3.44
293.469	3.2
293.845	2.78
294.222	2.72
294.599	2.91
294.975	3.56
295.352	3.3
295.728	3.32
296.105	3.08
296.481	3.45
296.858	2.97
297.234	3.04
297.61	3.11
297.986	2.94
298.363	3.43
298.739	3.05
299.115	2.71
299.491	3.48
299.867	3.23
300.243	3.45
300.619	3.13
300.995	3.46
301.371	3.15
301.746	3.38
302.122	2.94
302.498	3.03
302.874	3.53
303.249	3.1
303.625	3.03
304	2.98
304.376	3.46
304.751	2.77
305.127	3.17
305.502	2.93
305.878	3.01
306.253	3.16
306.628	3.13
307.003	3.44
307.378	3.02
307.754	3.4
308.129	2.48
308.504	3.54
308.879	3.36
309.254	3.38
309.629	2.67
310.003	2.47
310.378	2.81
310.753	3.06
311.128	3.39
311.502	3.72
311.877	3.16
312.252	3.26
312.626	3.06
313.001	2.95
313.375	3.24
313.75	3.19
314.124	3.31
314.498	3.34
314.873	3.56
315.247	3.31
315.621	3.32
315.995	3.32
316.369	2.98
316.743	2.5
317.117	3.11
317.491	2.52
317.865	2.58
318.239	3.27
318.613	3.51
318.987	3.03
319.361	3.62
319.734	2.87
320.108	3.27
320.482	3.55
320.855	2.51
321.229	2.91
321.602	3.01
321.976	2.7
322.349	2.85
322.723	2.67
323.096	3.57
323.469	2.85
323.843	3.1
324.216	2.96
324.589	3.22
324.962	3.44
325.335	3.22
325.708	2.79
326.081	3.49
326.454	3.18
326.827	3.01
327.2	3.15
327.573	2.72
327.945	3.18
328.318	3.27
328.691	3.08
329.063	2.86
329.436	2.69
329.809	3.57
330.181	2.57
330.553	2.46
330.926	3.19
331.298	3.08
331.671	3.31
332.043	2.61
332.415	3.32
332.787	3.29
333.159	2.5
333.532	3.7
333.904	3
334.276	2.81
334.648	2.98
335.02	3.55
335.391	3.45
335.763	3.21
336.135	3.52
336.507	3.23
336.879	2.19
337.25	2.98
337.622	2.9
337.993	3.23
338.365	3.19
338.736	3.45
339.108	2.64
339.479	2.44
339.851	3.26
340.222	3.31
340.593	2.98
340.964	3.28
341.336	2.89
341.707	2.89
342.078	2.75
342.449	2.82
342.82	3.3
343.191	3.36
343.562	2.53
343.933	3.25
344.303	2.96
344.674	3.09
345.045	2.8
345.416	3.31
345.786	3.33
346.157	3.2
346.527	2.91
346.898	3.07
347.268	3.01
347.639	2.8
348.009	3.29
348.38	3.52
348.75	3.28
349.12	3.57
349.49	3.4
349.861	3.01
350.231	2.7
350.601	3.36
350.971	3.37
351.341	2.76
351.711	3.17
352.081	3.12
352.45	3.14
352.82	3.16
353.19	3.58
353.56	3.67
353.929	3.31
354.299	3.31
354.669	3.38
355.038	3.33
355.408	3.21
355.777	3.01
356.147	3.37
356.516	3.7
356.885	3.24
357.254	3.18
357.624	3.32
357.993	3.26
358.362	3.25
358.731	3.43
359.1	3.26
359.469	3.47
359.838	3.15
360.207	3.46
360.576	3.89
360.945	3.35
361.314	3.11
361.682	2.93
362.051	3.27
362.42	3.06
362.788	3.21
363.157	3.37
363.525	3.07
363.894	3.38
364.262	3.41
364.631	3.16
364.999	3.3
365.367	3.35
365.735	3.32
366.104	3.27
366.472	3.09
366.84	3.38
367.208	3.13
367.576	2.77
367.944	3.52
368.312	3.34
368.68	3.17
369.048	3.14
369.416	3.47
369.783	2.98
370.151	3.57
370.519	3.41
370.886	3.33
371.254	3.2
371.621	3.2
371.989	3.33
372.356	2.93
372.724	3.82
373.091	3.26
373.458	3.1
373.826	3.64
374.193	3.21
374.56	3.75
374.927	3.19
375.294	3.11
375.661	3.37
376.028	3.09
376.395	3.06
376.762	3.93
377.129	3.49
377.496	3.45
377.863	3.63
378.229	3.49
378.596	3.31
378.963	3.32
379.329	3.35
379.696	3.33
380.062	3.24
380.429	3.23
380.795	3.51
381.161	3.29
381.528	3.55
381.894	3.3
382.26	3.44
382.626	3.65
382.993	3.43
383.359	3.62
383.725	3.61
384.091	3.47
384.457	3.17
384.823	3.26
385.188	3.66
385.554	3.16
385.92	3.38
386.286	3.6
386.651	3.52
387.017	3.34
387.383	3.59
387.748	3.41
388.114	3.13
388.479	3.27
388.845	3.55
389.21	3.29
389.575	3.57
389.94	3.3
390.306	3.43
390.671	3.45
391.036	3.49
391.401	3.68
391.766	3.79
392.131	3.34
392.496	3.36
392.861	3.19
393.226	3.59
393.591	3.24
393.956	3.35
394.32	3.23
394.685	3.4
395.05	3.44
395.414	3.28
395.779	3.47
396.143	3.43
396.508	3.17
396.872	3.44
397.236	3.58
397.601	3.34
397.965	3.56
398.329	3.55
398.694	3.46
399.058	3.51
399.422	3.49
399.786	3.53
400.15	3.51
400.514	3.3
400.878	3.26
401.242	3.35
401.605	3.53
401.969	3.33
402.333	3.39
402.697	3.29
403.06	3.43
403.424	3.51
403.787	3.24
404.151	3.04
404.514	3.33
404.878	3.52
405.241	3.63
405.604	3.42
405.968	3.28
406.331	3.39
406.694	3.39
407.057	3.49
407.42	3.42
407.783	3.41
408.146	3.41
408.509	3.42
408.872	3.32
409.235	3.39
409.598	3.31
409.961	3.19
410.323	3.37
410.686	3.58
411.049	3.73
411.411	3.34
411.774	3.5
412.136	3.5
412.499	3.63
412.861	3.4
413.223	3.42
413.586	3.35
413.948	3.55
414.31	3.54
414.672	3.52
415.035	3.19
415.397	3.32
415.759	3.49
416.121	3.51
416.483	3.39
416.845	3.4
417.206	3.52
417.568	3.62
417.93	3.4
418.292	3.64
418.653	3.33
419.015	3.43
419.377	3.27
419.738	3.53
420.1	3.26
420.461	3.51
420.822	3.49
421.184	3.4
421.545	3.4
421.906	3.41
422.267	3.44
422.629	3.3
422.99	3.31
423.351	3.44
423.712	3.33
424.073	3.33
424.434	3.39
424.795	3.36
425.155	3.44
425.516	3.48
425.877	3.27
426.238	3.28
426.598	3.3
426.959	3.39
427.32	3.32
427.68	3.38
428.041	3.36
428.401	3.46
428.761	3.31
429.122	3.33
429.482	3.29
429.842	3.49
430.202	3.47
430.563	3.41
430.923	3.49
431.283	3.33
431.643	3.22
432.003	3.45
432.363	3.36
432.722	3.52
433.082	3.33
433.442	3.45
433.802	3.37
434.161	3.44
434.521	3.43
434.881	3.22
435.24	3.23
435.6	3.39
435.959	3.37
436.319	3.54
436.678	3.36
437.037	3.36
437.396	3.5
437.756	3.36
438.115	3.42
438.474	3.56
438.833	3.49
439.192	3.44
439.551	3.21
439.91	3.55
440.269	3.28
440.628	3.32
440.987	3.4
441.345	3.32
441.704	3.42
442.063	3.32
442.421	3.37
442.78	3.46
443.138	3.3
443.497	3.28
443.855	3.46
444.214	3.45
444.572	3.37
444.93	3.3
445.288	3.5
445.647	3.44
446.005	3.58
446.363	3.46
446.721	3.42
447.079	3.38
447.437	3.27
447.795	3.23
448.153	3.4
448.51	3.32
448.868	3.36
449.226	3.29
449.584	3.32
449.941	3.41
450.299	3.36
450.656	3.34
451.014	3.37
451.371	3.42
451.729	3.28
452.086	3.49
452.443	3.5
452.801	3.39
453.158	3.52
453.515	3.37
453.872	3.39
454.229	3.5
454.586	3.46
454.943	3.3
455.3	3.32
455.657	3.4
456.014	3.46
456.371	3.28
456.727	3.44
457.084	3.39
457.441	3.44
457.797	3.26
458.154	3.37
458.51	3.66
458.867	3.28
459.223	3.35
459.58	3.19
459.936	3.39
460.292	3.36
460.648	3.29
461.005	3.26
461.361	3.37
461.717	3.32
462.073	3.23
462.429	3.28
462.785	3.33
463.141	3.31
463.496	3.49
463.852	3.36
464.208	3.3
464.564	3.17
464.919	3.38
465.275	3.38
465.631	3.41
465.986	3.35
466.342	3.47
466.697	3.15
467.052	3.49
467.408	3.38
467.763	3.19
468.118	3.39
468.473	3.4
468.829	3.36
469.184	3.26
469.539	3.25
469.894	3.31
470.249	3.28
470.603	3.4
470.958	3.27
471.313	3.43
471.668	3.28
472.023	3.32
472.377	3.3
472.732	3.46
473.086	3.29
473.441	3.43
473.795	3.28
474.15	3.53
474.504	3.45
474.859	3.24
475.213	3.47
475.567	3.31
475.921	3.44
476.275	3.4
476.63	3.46
476.984	3.47
477.338	3.56
477.692	3.3
478.045	3.41
478.399	3.28
478.753	3.16
479.107	3.28
479.461	3.25
479.814	3.43
480.168	3.35
480.521	3.26
480.875	3.32
481.228	3.33
481.582	3.19
481.935	3.21
482.289	3.28
482.642	3.45
482.995	3.38
483.348	3.28
483.701	3.3
484.055	3.17
484.408	3.21
484.761	3.23
485.114	3.19
485.466	3.1
485.819	3.05
486.172	2.98
486.525	3.06
486.878	3.07
487.23	3.18
487.583	3.2
487.936	3.23
488.288	3.26
488.641	3.2
488.993	3.2
489.345	3.15
489.698	3.15
490.05	3.13
490.402	3.1
490.754	3.14
491.107	3.17
491.459	3.23
491.811	3.25
492.163	3.27
492.515	3.2
492.866	3.28
493.218	3.13
493.57	3.16
493.922	3.07
494.274	3.11
494.625	3.18
494.977	3.28
495.328	3.29
495.68	3.28
496.031	3.3
496.383	3.17
496.734	3.24
497.086	3.34
497.437	3.35
497.788	3.27
498.139	3.19
498.49	3.2
498.842	3.24
499.193	3.17
499.544	3.28
499.894	3.23
500.245	3.26
500.596	3.34
500.947	3.28
501.298	3.34
501.648	3.16
501.999	3.23
502.35	3.18
502.7	3.25
503.051	3.32
503.401	3.26
503.752	3.35
504.102	3.2
504.452	3.25
504.803	3.34
505.153	3.22
505.503	3.13
505.853	3.15
506.203	3.24
506.553	3.22
506.903	3.29
507.253	3.36
507.603	3.2
507.953	3.29
508.303	3.23
508.652	3.26
509.002	3.34
509.352	3.19
509.701	3.15
510.051	3.25
510.4	3.21
510.75	3.18
511.099	3.3
511.449	3.15
511.798	3.22
512.147	3.14
512.496	3.21
512.846	3.19
513.195	3.25
513.544	3.37
513.893	3.26
514.242	3.25
514.591	3.23
514.939	3.16
515.288	3.22
515.637	3.16
515.986	3.15
516.334	3.31
516.683	3.27
517.032	3.3
517.38	3.3
517.729	3.17
518.077	3.19
518.426	3.24
518.774	3.24
519.122	3.21
519.47	3.18
519.819	3.14
520.167	3.11
520.515	3.18
520.863	3.06
521.211	3.14
521.559	3.15
521.907	3.21
522.255	3.12
522.602	3.15
522.95	3.23
523.298	3.15
523.645	3.25
523.993	3.3
524.341	3.29
524.688	3.24
525.036	3.17
525.383	3.32
525.73	3.27
526.078	3.38
526.425	3.16
526.772	3.25
527.119	3.15
527.466	3.08
527.814	3.11
528.161	3.15
528.508	3.14
528.854	3.15
529.201	3.17
529.548	3.07
529.895	3.13
530.242	3
530.588	3
530.935	2.96
531.282	3.02
531.628	3.02
531.975	3.08
532.321	3.09
532.667	3.12
533.014	3.14
533.36	3.2
533.706	3.15
534.052	3.19
534.399	3.17
534.745	3.16
535.091	3.1
535.437	3.09
535.783	3.09
536.129	3.11
536.474	3.12
536.82	3.18
537.166	3.15
537.512	3.15
537.857	3.26
538.203	3.07
538.549	3.11
538.894	3.09
539.239	3.07
539.585	3.12
539.93	3.17
540.276	3.18
540.621	3.21
540.966	3.15
541.311	3.31
541.656	3.27
542.001	3.18
542.346	3.18
542.691	3.07
543.036	3.02
543.381	3.03
543.726	3
544.071	3.06
544.415	3.04
544.76	3.08
545.105	3.1
545.449	3.07
545.794	3.17
546.138	3.18
546.483	3.17
546.827	3.12
547.171	3.15
547.516	3.06
547.86	3.16
548.204	3.28
548.548	3.15
548.892	3.06
549.236	3.02
549.58	3.16
549.924	3.15
550.268	3.19
550.612	3.18
550.956	3.31
551.3	3.22
551.643	3.45
551.987	3.11
552.33	3.27
552.674	3.23
553.017	3.32
553.361	3.02
553.704	3.13
554.048	3.17
554.391	3.16
554.734	3.24
555.077	3.2
555.42	3.13
555.764	3.28
556.107	3.13
556.45	3.13
556.793	3.11
557.135	3.15
557.478	3.33
557.821	3.26
558.164	3.47
558.507	3.13
558.849	3.44
559.192	3.14
559.534	3.05
559.877	3.19
560.219	3.26
560.562	3.22
560.904	3.41
561.246	3
561.589	3.23
561.931	3.33
562.273	3.12
562.615	3.22
562.957	3.3
563.299	3.31
563.641	3.21
563.983	3.19
564.325	3.24
564.667	3.14
565.008	3.12
565.35	3.23
565.692	3.39
566.033	3
566.375	3.22
566.716	3.13
567.058	3.14
567.399	3.14
567.741	3.31
568.082	3.06
568.423	3.09
568.764	3.16
569.105	3.28
569.447	3.21
569.788	3.22
570.129	3.1
570.47	3.13
570.811	3.25
571.151	3.07
571.492	3.3
571.833	3.19
572.174	3.16
572.514	3.16
572.855	2.95
573.195	3.19
573.536	3.3
573.876	3.07
574.217	3.08
574.557	3.05
574.898	3.21
575.238	3.07
575.578	2.93
575.918	3.17
576.258	3.12
576.598	3.18
576.938	3.11
577.278	3.21
577.618	3.09
577.958	3.23
578.298	3.24
578.638	3.07
578.977	3.16
579.317	2.99
579.657	3.14
579.996	3.09
580.336	3.05
580.675	3.13
581.014	3.35
581.354	3.13
581.693	3.25
582.032	3.37
582.372	3.15
582.711	3.32
583.05	3.18
583.389	3.22
583.728	3.26
584.067	3.21
584.406	3.14
584.745	3.03
585.083	3.21
585.422	3.05
585.761	3.1
586.1	3.25
586.438	2.95
586.777	2.98
587.115	3.24
587.454	3.26
587.792	3.3
588.13	3.44
588.469	3.14
588.807	3.22
589.145	3.1
589.483	3.25
589.821	3.14
590.159	3.47
590.497	3.34
590.835	3.42
591.173	2.95
591.511	3.06
591.849	3.14
592.187	3.21
592.524	3.31
592.862	3.3
593.2	3.02
593.537	3.16
593.875	3.33
594.212	3.43
594.55	3.36
594.887	3.15
595.224	3.15
595.561	3.14
595.899	2.97
596.236	3.29
596.573	3.21
596.91	3.26
597.247	3.13
597.584	3.27
597.921	3.32
598.258	3.1
598.594	3.16
598.931	3.01
599.268	3.16
599.604	3.24
599.941	3.17
600.277	3.09
600.614	3.32
600.95	3.29
601.287	3.2
601.623	3.46
601.959	3.12
602.296	3.42
602.632	3.35
602.968	3.28
603.304	2.85
603.64	3.12
603.976	3.14
604.312	3.08
604.648	3.04
604.984	2.96
605.319	3.29
605.655	3.15
605.991	3.31
606.326	3.12
606.662	3.27
606.998	3.13
607.333	3.22
607.668	3.3
608.004	3.32
608.339	3.24
608.674	3.02
609.01	3.1
609.345	3.48
609.68	3
610.015	3.25
610.35	3.37
610.685	3.38
611.02	2.87
611.355	3.24
611.689	2.92
612.024	3.13
612.359	3.25
612.694	3.14
613.028	3.21
613.363	3.19
613.697	3.11
614.032	3.45
614.366	3.25
614.7	3.29
615.035	3.37
615.369	3.31
615.703	3.04
616.037	3.01
616.371	3.19
616.705	3.34
617.039	3.44
617.373	3.16
617.707	3.13
618.041	3.1
618.375	3.12
618.709	3.3
619.042	3.37
619.376	3.03
619.71	3.34
620.043	3.12
620.377	3.55
620.71	3.22
621.043	3.38
621.377	3.49
621.71	3.55
622.043	3.05
622.376	3.18
622.709	3.08
623.043	3.2
623.376	3.44
623.709	3.61
624.041	3.12
624.374	3.19
624.707	2.9
625.04	3.11
625.373	3.08
625.705	3.49
626.038	2.75
626.37	3.51
626.703	3.47
627.035	3.27
627.368	3.31
627.7	3.33
628.032	3.38
628.365	2.97
628.697	3.29
629.029	3.29
629.361	3.36
629.693	3.21
630.025	3.19
630.357	3.21
630.689	3.31
631.021	3.75
631.353	3.19
631.684	3.77
632.016	2.97
632.348	3.01
632.679	3.38
633.011	3.26
633.342	3.23
633.674	3.25
634.005	3.22
634.336	2.81
634.668	3.67
634.999	3.59
635.33	3.36
635.661	3.3
635.992	3.11
636.323	3.48
636.654	3
636.985	3
637.316	3.14
637.647	3.09
637.977	3.36
638.308	3.68
638.639	2.92
638.969	3.29
639.3	3.3
639.63	3.11
639.961	3.2
640.291	3.37
640.622	3.29
640.952	3.37
641.282	3.27
641.612	2.82
641.943	3.23
642.273	3.62
642.603	3.17
642.933	2.96
643.263	3.66
643.592	3.31
643.922	3.35
644.252	3.32
644.582	3.26
644.911	3.23
645.241	3.26
645.571	2.97
645.9	3.13
646.23	3.58
646.559	2.52
646.888	3.61
647.218	2.99
647.547	3.49
647.876	3.35
648.205	3.37
648.534	3.57
648.863	2.91
649.192	3.37
649.521	3.43
649.85	3.87
650.179	3.62
650.508	3.32
650.837	3.38
651.165	3.25
651.494	3.61
651.822	3.16
652.151	3.15
652.479	3.6
652.808	3.01
653.136	3.19
653.465	3.36
653.793	3.88
654.121	3.31
654.449	3.34
654.777	2.87
655.105	3.15
655.433	3.25
655.761	2.94
656.089	3.49
656.417	2.83
656.745	3.39
657.073	3.01
657.4	3.51
657.728	3.69
658.056	3.4
658.383	3.3
658.711	3.39
659.038	3.53
659.365	3.7
659.693	3.23
660.02	3.38
660.347	3.75
660.674	3.29
661.001	3.82
661.329	3.33
661.656	3.43
661.982	3.42
662.309	3.76
662.636	3.04
662.963	3.44
663.29	3.17
663.616	3.14
663.943	3.57
664.27	3.61
664.596	3.28
664.923	3.87
665.249	3.28
665.576	3.41
665.902	2.85
666.228	3.27
666.554	3.61
666.881	3.48
667.207	3.39
667.533	3.53
667.859	2.52
668.185	3.14
668.511	3.72
668.837	2.39
669.162	3.45
669.488	3.46
669.814	3.28
670.139	3.09
670.465	3.27
670.791	3.49
671.116	3.17
671.442	3.02
671.767	2.75
672.092	3.23
672.418	3.29
672.743	3.66
673.068	3.24
673.393	3.94
673.718	2.63
674.043	3.44
674.368	3.27
674.693	3.8
675.018	4.16
675.343	3.43
675.667	3.54
675.992	3.72
676.317	3.21
676.641	4.11
676.966	3.29
677.29	3.25
677.615	4.1
677.939	3.13
678.264	3.3
678.588	3.58
678.912	4.03
679.236	2.81
679.56	2.75
679.885	3.58
680.209	3.45
680.532	3.57
680.856	3.22
681.18	3.68
681.504	3.07
681.828	3.33
682.152	3.7
682.475	3.42
682.799	3.58
683.122	3.49
683.446	3.62
683.769	3.87
684.093	3.77
684.416	3.71
684.739	3.07
685.062	3.63
685.386	3.1
685.709	3.76
686.032	3.34
686.355	3.22
686.678	3.71
687.001	3.35
687.324	3.65
687.646	3.27
687.969	3.31
688.292	4.07
688.614	3.44
688.937	4.34
689.26	3.44
689.582	3.27
689.904	3.64
690.227	4.32
690.549	3.29
690.871	3.76
691.194	3.38
691.516	3.9
691.838	4.04
692.16	3.45
692.482	3.16
