Data from 0139_forehead_Reflection__4__192.txt Node

Date: Mon Aug 28 20:19:04 CDT 2023
User: ToomeyLab
Spectrometer: FLMS14357
Trigger mode: 0
Integration Time (sec): 1.000000E-2
Scans to average: 100
Electric dark correction enabled: true
Nonlinearity correction enabled: false
Boxcar width: 0
XAxis mode: Wavelengths
Number of Pixels in Spectrum: 2048
>>>>>Begin Spectral Data<<<<<
189.047	67.25
189.435	67.25
189.823	67.25
190.211	-157.71
190.599	124.49
190.987	101.92
191.375	197.29
191.763	107.91
192.151	198.72
192.538	95.09
192.926	186.67
193.314	-53.91
193.702	1724.86
194.089	-3.46
194.477	90.51
194.864	-77.42
195.252	-376.65
195.639	-131.42
196.027	96.05
196.414	114.37
196.801	196.11
197.189	9.83
197.576	268.45
197.963	-1396.35
198.351	74.12
198.738	60.28
199.125	13.44
199.512	26.71
199.899	26.13
200.286	18.02
200.673	34.85
201.06	-9.46
201.447	51.64
201.833	19.25
202.22	71.66
202.607	3.03
202.994	38.73
203.38	45.44
203.767	0.07
204.154	28.19
204.54	-30.17
204.927	51.33
205.313	40.99
205.699	-14.79
206.086	64.4
206.472	-23.14
206.858	5.84
207.245	24.25
207.631	51.45
208.017	16.78
208.403	47.77
208.789	42.83
209.175	-6.33
209.561	33.68
209.947	20.35
210.333	38.35
210.719	50.11
211.105	43.82
211.491	8.17
211.876	49.42
212.262	24.02
212.648	26.93
213.034	18.1
213.419	7.58
213.805	13.4
214.19	18.83
214.576	23.73
214.961	-23.71
215.346	-0.07
215.732	41.46
216.117	26.12
216.502	-25.6
216.888	3.61
217.273	36.73
217.658	35.39
218.043	3.09
218.428	16.74
218.813	22.03
219.198	16.14
219.583	40.46
219.968	41.9
220.353	8.54
220.738	33.01
221.122	10.79
221.507	23.11
221.892	1.17
222.276	13.73
222.661	2.49
223.046	17.88
223.43	18.04
223.815	16.1
224.199	20.08
224.583	12.05
224.968	21.46
225.352	12.03
225.736	2.67
226.121	11.61
226.505	12.6
226.889	9.61
227.273	8.74
227.657	16.4
228.041	9.54
228.425	6.28
228.809	10.49
229.193	6.16
229.577	6.55
229.961	3.33
230.344	5.73
230.728	4.85
231.112	5.36
231.495	5.63
231.879	6.39
232.263	5.16
232.646	3.77
233.03	6.39
233.413	9.57
233.797	6.16
234.18	7.11
234.563	4.84
234.946	8.63
235.33	6.98
235.713	5.18
236.096	7.54
236.479	5.91
236.862	5.42
237.245	5.24
237.628	6.12
238.011	6.67
238.394	6.95
238.777	7.75
239.16	5.41
239.543	3.18
239.925	7
240.308	2.89
240.691	3.27
241.073	3.54
241.456	3.74
241.838	4.39
242.221	6.48
242.603	5.77
242.986	5.93
243.368	4.79
243.75	5.14
244.133	5.02
244.515	4.75
244.897	5.54
245.279	4.99
245.661	5.08
246.043	5.6
246.425	4.84
246.807	6.68
247.189	4.34
247.571	4.74
247.953	5.54
248.335	5.28
248.717	4.94
249.098	4.78
249.48	4.89
249.862	5.03
250.243	5.02
250.625	5.78
251.006	5.07
251.388	5.56
251.769	6.09
252.151	5.3
252.532	5.95
252.913	5.84
253.295	5.01
253.676	4.93
254.057	4.9
254.438	4.64
254.819	5.34
255.2	6.18
255.581	5.46
255.962	6.05
256.343	6.45
256.724	4.71
257.105	6.01
257.486	5.86
257.867	5.47
258.247	6.17
258.628	6.43
259.009	4.82
259.389	4.34
259.77	5.84
260.15	5
260.531	4.41
260.911	5.7
261.292	5.1
261.672	5.07
262.052	4.86
262.432	4.95
262.813	4.98
263.193	4.97
263.573	4.35
263.953	4.72
264.333	4.77
264.713	5.27
265.093	5.76
265.473	5.62
265.853	5.02
266.233	4.38
266.612	6.26
266.992	4.89
267.372	5.17
267.752	5.38
268.131	5.95
268.511	4.47
268.89	5.15
269.27	4.85
269.649	5.07
270.029	5.25
270.408	5.5
270.787	5.37
271.167	5.17
271.546	4.68
271.925	5.52
272.304	5.33
272.683	5.3
273.062	5.28
273.441	5.15
273.82	5.08
274.199	4.5
274.578	4.81
274.957	5.14
275.336	5.27
275.715	5.18
276.093	5.24
276.472	5.05
276.851	5.17
277.229	5.07
277.608	4.97
277.986	5.04
278.365	5.38
278.743	4.9
279.122	4.55
279.5	4.41
279.878	4.59
280.257	4.3
280.635	5.14
281.013	5.41
281.391	5.53
281.769	5.25
282.147	5.26
282.525	5.06
282.903	5.42
283.281	5.12
283.659	5.84
284.037	5.34
284.415	5.13
284.792	5.47
285.17	4.9
285.548	4.76
285.925	5.2
286.303	5.35
286.68	5.57
287.058	5.4
287.435	4.93
287.813	4.97
288.19	5.4
288.567	5.37
288.945	5.67
289.322	5.81
289.699	5.27
290.076	6.03
290.453	5.64
290.83	5.06
291.207	5.08
291.584	5.97
291.961	5.83
292.338	5.54
292.715	5.25
293.092	5.86
293.469	5.35
293.845	5.7
294.222	6.05
294.599	5.87
294.975	5.8
295.352	5.52
295.728	6.16
296.105	6.4
296.481	6.04
296.858	5.95
297.234	5.86
297.61	5.81
297.986	5.94
298.363	6.14
298.739	6.27
299.115	5.77
299.491	6.19
299.867	6.29
300.243	6.68
300.619	6.29
300.995	6.5
301.371	6.15
301.746	7.03
302.122	6.35
302.498	6.26
302.874	6.76
303.249	6.64
303.625	6.27
304	6.93
304.376	6.68
304.751	6.92
305.127	6.9
305.502	7.31
305.878	7.2
306.253	6.84
306.628	7.17
307.003	7.53
307.378	6.98
307.754	6.97
308.129	7.33
308.504	7.66
308.879	7.54
309.254	7.74
309.629	7.58
310.003	7.89
310.378	7.76
310.753	8.12
311.128	8.04
311.502	8.02
311.877	7.88
312.252	8.12
312.626	8.18
313.001	8.04
313.375	8.1
313.75	8.15
314.124	8.12
314.498	8.37
314.873	8.69
315.247	8.38
315.621	8.29
315.995	8.66
316.369	8.94
316.743	7.49
317.117	8.46
317.491	8.41
317.865	8.18
318.239	8.39
318.613	9.15
318.987	9.49
319.361	8.85
319.734	9.2
320.108	9.01
320.482	9.21
320.855	9.4
321.229	9.64
321.602	9.64
321.976	9.01
322.349	9.52
322.723	9.27
323.096	9.69
323.469	9.69
323.843	9.84
324.216	9.76
324.589	10.1
324.962	10.38
325.335	9.41
325.708	9.85
326.081	9.96
326.454	9.8
326.827	10.54
327.2	9.89
327.573	9.95
327.945	10.54
328.318	10.79
328.691	10.13
329.063	10.09
329.436	10.31
329.809	10.52
330.181	10.3
330.553	10.47
330.926	10.63
331.298	10.68
331.671	10.34
332.043	10.55
332.415	11.57
332.787	11.09
333.159	10.68
333.532	11.14
333.904	11.04
334.276	10.91
334.648	11.34
335.02	11.53
335.391	11.81
335.763	11.27
336.135	11.73
336.507	11.79
336.879	10.9
337.25	12.02
337.622	11.22
337.993	11.62
338.365	11.74
338.736	11.7
339.108	10.87
339.479	10.95
339.851	11.93
340.222	12.13
340.593	11.71
340.964	12.14
341.336	12.01
341.707	11.69
342.078	12.06
342.449	12.31
342.82	12.35
343.191	12.54
343.562	12.19
343.933	12.19
344.303	12.55
344.674	12.55
345.045	12.65
345.416	12.61
345.786	12.88
346.157	12.72
346.527	12.25
346.898	12.64
347.268	12.52
347.639	12.64
348.009	12.56
348.38	12.74
348.75	12.97
349.12	12.95
349.49	13.18
349.861	12.3
350.231	12.85
350.601	13.55
350.971	13.53
351.341	13.71
351.711	13.54
352.081	13.65
352.45	13.42
352.82	13.68
353.19	13.59
353.56	13.93
353.929	13.45
354.299	13.72
354.669	13.33
355.038	13.92
355.408	13.66
355.777	13.81
356.147	13.67
356.516	14.51
356.885	13.97
357.254	14.09
357.624	13.95
357.993	14.12
358.362	13.97
358.731	14.3
359.1	14.39
359.469	14.51
359.838	14.38
360.207	14.19
360.576	14.6
360.945	14.96
361.314	14.42
361.682	14.8
362.051	14.95
362.42	14.62
362.788	14.71
363.157	14.77
363.525	14.52
363.894	15.02
364.262	14.82
364.631	14.63
364.999	15.07
365.367	14.99
365.735	14.93
366.104	15.18
366.472	15.17
366.84	15.18
367.208	15.18
367.576	14.94
367.944	15.66
368.312	15.87
368.68	15.31
369.048	15.6
369.416	15.49
369.783	15.66
370.151	16.08
370.519	15.85
370.886	15.92
371.254	15.77
371.621	15.89
371.989	15.95
372.356	16.1
372.724	16.22
373.091	16.22
373.458	16.04
373.826	16.31
374.193	16.07
374.56	16.4
374.927	16.05
375.294	16.25
375.661	16.24
376.028	16.19
376.395	16.22
376.762	17.32
377.129	16.65
377.496	16.32
377.863	16.86
378.229	16.76
378.596	17.01
378.963	17.22
379.329	17.01
379.696	17.24
380.062	17.06
380.429	17.3
380.795	17.07
381.161	17.41
381.528	17.31
381.894	17.24
382.26	17.66
382.626	17.84
382.993	17.46
383.359	17.43
383.725	17.55
384.091	17.49
384.457	17.54
384.823	17.74
385.188	17.74
385.554	17.38
385.92	17.85
386.286	17.94
386.651	18.15
387.017	18.33
387.383	18.21
387.748	17.97
388.114	18.07
388.479	18.24
388.845	18.22
389.21	18.26
389.575	18.66
389.94	18.43
390.306	18.71
390.671	18.21
391.036	18.4
391.401	18.89
391.766	19.03
392.131	18.77
392.496	18.44
392.861	18.76
393.226	19.03
393.591	18.76
393.956	19.11
394.32	18.94
394.685	18.97
395.05	19.26
395.414	19.1
395.779	19.23
396.143	19.27
396.508	19.08
396.872	19.5
397.236	19.37
397.601	19.22
397.965	19.49
398.329	19.3
398.694	19.82
399.058	19.65
399.422	19.8
399.786	19.67
400.15	20.07
400.514	19.97
400.878	19.88
401.242	19.99
401.605	19.86
401.969	20.02
402.333	19.9
402.697	19.96
403.06	20.4
403.424	20.35
403.787	20.13
404.151	20.22
404.514	20.62
404.878	20.33
405.241	20.56
405.604	20.36
405.968	20.26
406.331	20.55
406.694	20.65
407.057	20.78
407.42	20.5
407.783	20.58
408.146	20.71
408.509	21.19
408.872	20.79
409.235	20.85
409.598	20.79
409.961	20.94
410.323	21.53
410.686	21.21
411.049	21.43
411.411	21.41
411.774	21.21
412.136	21.04
412.499	21.39
412.861	21.34
413.223	21.29
413.586	21.38
413.948	21.62
414.31	21.66
414.672	21.66
415.035	21.89
415.397	21.87
415.759	21.82
416.121	22.11
416.483	21.99
416.845	22.04
417.206	21.83
417.568	22.12
417.93	21.83
418.292	22.26
418.653	22.03
419.015	22.07
419.377	21.96
419.738	22.23
420.1	22.04
420.461	22.22
420.822	22.24
421.184	22.18
421.545	22.21
421.906	22.11
422.267	22.33
422.629	22.24
422.99	22.11
423.351	22.06
423.712	22.01
424.073	22.18
424.434	22.37
424.795	22.32
425.155	22.51
425.516	22.44
425.877	22.41
426.238	22.46
426.598	22.5
426.959	22.62
427.32	22.66
427.68	22.89
428.041	22.82
428.401	22.8
428.761	22.9
429.122	23.12
429.482	23.32
429.842	23.44
430.202	23.4
430.563	23.45
430.923	23.63
431.283	23.67
431.643	23.58
432.003	23.61
432.363	23.88
432.722	23.88
433.082	23.8
433.442	24.02
433.802	23.84
434.161	24.06
434.521	24
434.881	24.08
435.24	24.11
435.6	24.05
435.959	24.14
436.319	24.05
436.678	24.06
437.037	24.14
437.396	24.38
437.756	24.33
438.115	24.45
438.474	24.72
438.833	24.56
439.192	24.68
439.551	24.55
439.91	24.85
440.269	24.68
440.628	24.69
440.987	24.67
441.345	24.81
441.704	24.86
442.063	24.7
442.421	24.81
442.78	24.88
443.138	24.77
443.497	24.79
443.855	24.88
444.214	25
444.572	25.02
444.93	25.27
445.288	25.18
445.647	25.24
446.005	25.28
446.363	25.63
446.721	25.53
447.079	25.31
447.437	25.27
447.795	25.3
448.153	25.36
448.51	25.38
448.868	25.34
449.226	25.28
449.584	25.21
449.941	25.52
450.299	25.71
450.656	25.66
451.014	25.86
451.371	25.87
451.729	26.01
452.086	26.07
452.443	26.36
452.801	26.27
453.158	26.41
453.515	26.5
453.872	26.46
454.229	26.64
454.586	26.68
454.943	26.62
455.3	26.62
455.657	26.65
456.014	26.64
456.371	26.78
456.727	26.75
457.084	26.7
457.441	26.88
457.797	26.76
458.154	26.93
458.51	27.22
458.867	26.95
459.223	27.09
459.58	27.09
459.936	27.16
460.292	27.18
460.648	27.18
461.005	27.14
461.361	27.27
461.717	27.06
462.073	27.16
462.429	26.87
462.785	27.01
463.141	27.1
463.496	27.24
463.852	27.44
464.208	27.45
464.564	27.5
464.919	27.84
465.275	27.91
465.631	27.86
465.986	28.16
466.342	28.15
466.697	27.88
467.052	27.93
467.408	28.31
467.763	28.12
468.118	28.15
468.473	28.43
468.829	28.19
469.184	28.17
469.539	28.37
469.894	28.39
470.249	28.31
470.603	28.56
470.958	28.39
471.313	28.7
471.668	28.61
472.023	28.69
472.377	28.75
472.732	28.83
473.086	28.67
473.441	28.81
473.795	28.65
474.15	29.14
474.504	28.92
474.859	28.87
475.213	29.17
475.567	29.05
475.921	29.42
476.275	29.14
476.63	29.31
476.984	29.22
477.338	29.51
477.692	29.58
478.045	29.7
478.399	29.48
478.753	29.54
479.107	29.59
479.461	29.54
479.814	29.72
480.168	29.72
480.521	29.77
480.875	29.73
481.228	29.65
481.582	29.75
481.935	30
482.289	30.01
482.642	29.86
482.995	29.89
483.348	29.87
483.701	29.96
484.055	29.85
484.408	29.75
484.761	29.73
485.114	29.57
485.466	29.3
485.819	29.38
486.172	29.37
486.525	29.27
486.878	29.1
487.23	29.02
487.583	29.19
487.936	29.51
488.288	29.78
488.641	29.97
488.993	29.94
489.345	29.91
489.698	29.88
490.05	29.79
490.402	29.84
490.754	29.89
491.107	29.84
491.459	29.93
491.811	30.32
492.163	30.49
492.515	30.59
492.866	30.77
493.218	30.56
493.57	30.58
493.922	30.49
494.274	30.46
494.625	30.34
494.977	30.53
495.328	30.61
495.68	30.88
496.031	31.25
496.383	31.37
496.734	31.36
497.086	31.71
497.437	31.86
497.788	31.75
498.139	31.84
498.49	31.82
498.842	31.83
499.193	31.81
499.544	31.76
499.894	31.81
500.245	31.83
500.596	32.06
500.947	32.04
501.298	32.24
501.648	32.16
501.999	32.33
502.35	32.33
502.7	32.2
503.051	32.61
503.401	32.59
503.752	32.5
504.102	32.68
504.452	32.94
504.803	32.9
505.153	32.66
505.503	32.66
505.853	33.07
506.203	33.08
506.553	32.8
506.903	33.16
507.253	33.04
507.603	33.07
507.953	33.09
508.303	33.2
508.652	33.31
509.002	33.31
509.352	33.26
509.701	33.23
510.051	33.33
510.4	33.25
510.75	33.35
511.099	33.26
511.449	33.28
511.798	33.36
512.147	33.44
512.496	33.54
512.846	33.59
513.195	33.66
513.544	33.79
513.893	33.68
514.242	33.84
514.591	33.89
514.939	33.84
515.288	33.86
515.637	33.83
515.986	33.97
516.334	34.15
516.683	34.17
517.032	34.17
517.38	34.35
517.729	34.55
518.077	34.48
518.426	34.4
518.774	34.47
519.122	34.56
519.47	34.42
519.819	34.48
520.167	34.23
520.515	34.39
520.863	34.25
521.211	34.27
521.559	34.39
521.907	34.23
522.255	34.33
522.602	34.64
522.95	34.79
523.298	34.74
523.645	34.99
523.993	34.98
524.341	35.22
524.688	35.09
525.036	35.07
525.383	35.33
525.73	35.3
526.078	35.51
526.425	35.39
526.772	35.43
527.119	35.21
527.466	35.16
527.814	34.99
528.161	35.06
528.508	34.96
528.854	35.07
529.201	35.26
529.548	35.17
529.895	35.25
530.242	35.18
530.588	35.13
530.935	35.09
531.282	35.01
531.628	34.79
531.975	34.67
532.321	34.81
532.667	35.14
533.014	35.47
533.36	35.56
533.706	35.85
534.052	35.84
534.399	35.79
534.745	35.96
535.091	35.91
535.437	35.82
535.783	35.91
536.129	35.7
536.474	35.73
536.82	35.78
537.166	35.94
537.512	36.11
537.857	36.38
538.203	36.57
538.549	36.46
538.894	36.56
539.239	36.44
539.585	36.55
539.93	36.39
540.276	36.79
540.621	36.69
540.966	36.89
541.311	37.3
541.656	37.2
542.001	37.57
542.346	37.37
542.691	37.14
543.036	37.08
543.381	36.88
543.726	36.75
544.071	36.86
544.415	36.72
544.76	36.57
545.105	36.83
545.449	36.94
545.794	37.07
546.138	37.23
546.483	37.42
546.827	37.54
547.171	37.56
547.516	37.81
547.86	37.92
548.204	37.98
548.548	38.03
548.892	37.89
549.236	37.8
549.58	38.12
549.924	38.02
550.268	38.17
550.612	38.13
550.956	38.29
551.3	38.37
551.643	38.68
551.987	38.68
552.33	38.88
552.674	38.82
553.017	38.95
553.361	38.9
553.704	38.95
554.048	39.11
554.391	39.03
554.734	39.24
555.077	39.07
555.42	39.1
555.764	39.16
556.107	39.18
556.45	39.24
556.793	39.28
557.135	39.49
557.478	39.65
557.821	39.39
558.164	39.67
558.507	39.81
558.849	39.77
559.192	39.88
559.534	39.78
559.877	39.91
560.219	39.8
560.562	39.94
560.904	40.26
561.246	40.11
561.589	40.04
561.931	40.25
562.273	40.31
562.615	40.24
562.957	40.33
563.299	40.33
563.641	40.4
563.983	40.16
564.325	40.58
564.667	40.22
565.008	40.49
565.35	40.49
565.692	40.91
566.033	40.81
566.375	40.72
566.716	40.94
567.058	40.52
567.399	40.76
567.741	40.74
568.082	41.05
568.423	40.86
568.764	40.85
569.105	40.88
569.447	40.84
569.788	40.69
570.129	40.93
570.47	41.16
570.811	41.27
571.151	41.11
571.492	41.3
571.833	41.28
572.174	41.58
572.514	41.54
572.855	41.45
573.195	41.65
573.536	41.44
573.876	41.33
574.217	41.7
574.557	41.68
574.898	41.45
575.238	41.68
575.578	41.33
575.918	41.46
576.258	41.85
576.598	41.94
576.938	42.03
577.278	41.87
577.618	41.93
577.958	41.96
578.298	41.79
578.638	42.14
578.977	42.25
579.317	42.16
579.657	42.39
579.996	42.17
580.336	42.32
580.675	42.45
581.014	42.68
581.354	42.83
581.693	42.77
582.032	42.78
582.372	42.71
582.711	42.85
583.05	42.81
583.389	42.86
583.728	42.66
584.067	43.03
584.406	43.11
584.745	43.01
585.083	42.85
585.422	43.18
585.761	42.97
586.1	43.88
586.438	43.43
586.777	43.39
587.115	43.5
587.454	43.56
587.792	43.59
588.13	43.52
588.469	43.5
588.807	43.86
589.145	43.74
589.483	43.76
589.821	43.85
590.159	43.58
590.497	44.13
590.835	43.58
591.173	43.79
591.511	43.74
591.849	44.06
592.187	44.27
592.524	44.25
592.862	44.25
593.2	43.94
593.537	44.29
593.875	44.49
594.212	44.47
594.55	44.19
594.887	44.24
595.224	44.61
595.561	44.42
595.899	44.71
596.236	44.65
596.573	44.79
596.91	44.84
597.247	44.65
597.584	44.59
597.921	44.92
598.258	44.95
598.594	44.95
598.931	44.7
599.268	44.94
599.604	44.92
599.941	44.82
600.277	44.56
600.614	44.63
600.95	44.79
601.287	45.28
601.623	45.26
601.959	45.13
602.296	45.18
602.632	45.48
602.968	45.19
603.304	45.27
603.64	45.32
603.976	45.61
604.312	45.82
604.648	45.66
604.984	45.04
605.319	45.95
605.655	45.65
605.991	45.44
606.326	45.58
606.662	45.87
606.998	45.61
607.333	45.65
607.668	45.58
608.004	45.48
608.339	45.67
608.674	45.44
609.01	45.74
609.345	46.1
609.68	46.08
610.015	46.35
610.35	46.33
610.685	46.47
611.02	46.34
611.355	46.61
611.689	46.29
612.024	46.3
612.359	46.17
612.694	46.38
613.028	46.26
613.363	46.13
613.697	46.53
614.032	46.25
614.366	46.48
614.7	47.35
615.035	46.5
615.369	46.98
615.703	47.22
616.037	46.9
616.371	46.85
616.705	47.16
617.039	47.3
617.373	46.96
617.707	47.07
618.041	47.2
618.375	47.42
618.709	47.29
619.042	47.8
619.376	47.24
619.71	47.51
620.043	47.27
620.377	47.72
620.71	47.81
621.043	47.76
621.377	47.81
621.71	47.16
622.043	47.56
622.376	47.68
622.709	47.88
623.043	48.22
623.376	47.88
623.709	48.14
624.041	48.34
624.374	48.49
624.707	47.94
625.04	48.31
625.373	48.09
625.705	48.21
626.038	48.36
626.37	48.4
626.703	48.56
627.035	48.73
627.368	48.87
627.7	48.17
628.032	48.36
628.365	48.39
628.697	48.55
629.029	48.51
629.361	48.3
629.693	48.23
630.025	48.61
630.357	48.37
630.689	48.73
631.021	48.82
631.353	49.05
631.684	49.3
632.016	49.2
632.348	48.63
632.679	48.6
633.011	48.73
633.342	48.2
633.674	48.78
634.005	49.17
634.336	49.12
634.668	49.51
634.999	49.47
635.33	49.15
635.661	49.66
635.992	49.89
636.323	50.15
636.654	49.16
636.985	49.63
637.316	49.4
637.647	49.72
637.977	49.66
638.308	49.84
638.639	49.69
638.969	49.59
639.3	49.12
639.63	49.63
639.961	49.86
640.291	49.92
640.622	50.05
640.952	49.57
641.282	50.03
641.612	50.18
641.943	49.74
642.273	50.35
642.603	49.99
642.933	50.02
643.263	50.37
643.592	50.79
643.922	50.52
644.252	50.14
644.582	50.4
644.911	50.6
645.241	50.41
645.571	49.94
645.9	50.37
646.23	50.83
646.559	50.37
646.888	50.68
647.218	50.31
647.547	50.52
647.876	51.49
648.205	50.64
648.534	50.37
648.863	51.22
649.192	50.65
649.521	51.62
649.85	51.28
650.179	50.91
650.508	50.33
650.837	50.73
651.165	51.49
651.494	51.67
651.822	51.15
652.151	50.88
652.479	50.83
652.808	50.98
653.136	51.55
653.465	51.31
653.793	51.01
654.121	51.48
654.449	51.51
654.777	51.22
655.105	51.48
655.433	51.14
655.761	51
656.089	51.47
656.417	51.32
656.745	51.18
657.073	51.7
657.4	51.68
657.728	51.63
658.056	51.9
658.383	51.97
658.711	51.91
659.038	52.33
659.365	52.29
659.693	50.97
660.02	52.04
660.347	52.08
660.674	52.39
661.001	52.56
661.329	52.2
661.656	52.15
661.982	52.25
662.309	52.18
662.636	52.45
662.963	52.34
663.29	52.3
663.616	51.98
663.943	52.52
664.27	52.78
664.596	52.43
664.923	53.05
665.249	52.82
665.576	52.7
665.902	52.53
666.228	52.27
666.554	52.88
666.881	52.67
667.207	53.02
667.533	52.45
667.859	52.5
668.185	52.49
668.511	52.86
668.837	52.76
669.162	53.3
