Data from 0139_chest_Reflection__1__184.txt Node

Date: Mon Aug 28 20:16:06 CDT 2023
User: ToomeyLab
Spectrometer: FLMS14357
Trigger mode: 0
Integration Time (sec): 1.000000E-2
Scans to average: 100
Electric dark correction enabled: true
Nonlinearity correction enabled: false
Boxcar width: 0
XAxis mode: Wavelengths
Number of Pixels in Spectrum: 2048
>>>>>Begin Spectral Data<<<<<
189.047	-72.16
189.435	-72.16
189.823	-72.16
190.211	13.73
190.599	30.77
190.987	76.7
191.375	253.42
191.763	120.17
192.151	-163.23
192.538	81.03
192.926	-1.94
193.314	-54.32
193.702	1308.11
194.089	67.26
194.477	-188.58
194.864	55.61
195.252	-277.16
195.639	177.53
196.027	191.37
196.414	140.63
196.801	104.31
197.189	75.32
197.576	-142.54
197.963	-2134.31
198.351	3.76
198.738	15.1
199.125	13.42
199.512	-14.07
199.899	-20.5
200.286	11.75
200.673	-7.79
201.06	-8.82
201.447	-14.77
201.833	-29.3
202.22	8.25
202.607	25.37
202.994	17.77
203.38	-11.97
203.767	8.92
204.154	-26.44
204.54	-9.46
204.927	-4.07
205.313	39.12
205.699	-38.99
206.086	28.15
206.472	-16.16
206.858	7.9
207.245	-4.18
207.631	-7.5
208.017	-21.71
208.403	-2.97
208.789	-3.21
209.175	-16.86
209.561	-47.57
209.947	-12.84
210.333	19.79
210.719	0.75
211.105	6.39
211.491	-5.88
211.876	9.36
212.262	-13.14
212.648	-0.75
213.034	7.62
213.419	-9.28
213.805	5.15
214.19	-0.48
214.576	15.45
214.961	2.77
215.346	-34.68
215.732	9.21
216.117	-24.87
216.502	-15.89
216.888	3.1
217.273	-37.46
217.658	25.1
218.043	-0.55
218.428	-21.51
218.813	-7.37
219.198	-16.96
219.583	5.02
219.968	36.96
220.353	0.12
220.738	28.59
221.122	7.04
221.507	12.39
221.892	-20.41
222.276	3.21
222.661	7.02
223.046	-17.16
223.43	-5.89
223.815	-0.95
224.199	-0.87
224.583	1.28
224.968	7.61
225.352	15.83
225.736	5.67
226.121	-0.59
226.505	0.97
226.889	0.8
227.273	11.74
227.657	1.78
228.041	4.47
228.425	2.88
228.809	3.65
229.193	1.2
229.577	3.93
229.961	-1.35
230.344	1.67
230.728	1.22
231.112	1.18
231.495	1.25
231.879	1.51
232.263	1.38
232.646	0.89
233.03	2.63
233.413	5.55
233.797	1.91
234.18	1.14
234.563	1.09
234.946	5.14
235.33	0.48
235.713	-0.54
236.096	0.46
236.479	1.95
236.862	2.77
237.245	2.56
237.628	-0.16
238.011	2.19
238.394	1.99
238.777	3.84
239.16	0.23
239.543	0.12
239.925	2.5
240.308	1.91
240.691	0.79
241.073	-1.84
241.456	0.31
241.838	2.05
242.221	2.71
242.603	1.81
242.986	1.87
243.368	1.19
243.75	1.4
244.133	1.09
244.515	1.29
244.897	2.02
245.279	2.05
245.661	1.4
246.043	1.1
246.425	0.99
246.807	1.56
247.189	0.96
247.571	0.83
247.953	1.62
248.335	1.59
248.717	1.54
249.098	1.47
249.48	1.65
249.862	2.07
250.243	1.07
250.625	2.06
251.006	1.69
251.388	1.71
251.769	2.32
252.151	1.09
252.532	1.71
252.913	1.41
253.295	0.42
253.676	1.45
254.057	1.37
254.438	1.61
254.819	1.39
255.2	2.51
255.581	1.45
255.962	1.19
256.343	2.7
256.724	0.82
257.105	1.36
257.486	1.96
257.867	1.47
258.247	1.25
258.628	2.86
259.009	0.58
259.389	0.31
259.77	1.21
260.15	0.55
260.531	0.99
260.911	1.33
261.292	1.57
261.672	1.46
262.052	1.42
262.432	1.71
262.813	1.81
263.193	1.52
263.573	1.1
263.953	1.66
264.333	0.81
264.713	1.14
265.093	1.4
265.473	1.59
265.853	1.86
266.233	0.43
266.612	1.65
266.992	1.77
267.372	1.14
267.752	1.93
268.131	2.08
268.511	1.14
268.89	1.65
269.27	1.13
269.649	1.81
270.029	1.96
270.408	1.85
270.787	1.79
271.167	1.44
271.546	1.03
271.925	1.48
272.304	2.1
272.683	1.3
273.062	1.34
273.441	1.61
273.82	1.36
274.199	0.88
274.578	1.61
274.957	1.69
275.336	1.69
275.715	1.66
276.093	1.44
276.472	1.05
276.851	1.63
277.229	2.12
277.608	1.29
277.986	1.13
278.365	1.61
278.743	1.47
279.122	1.38
279.5	0.9
279.878	0.87
280.257	1.31
280.635	1.96
281.013	1.47
281.391	1.17
281.769	1.25
282.147	0.96
282.525	1.78
282.903	1.36
283.281	1.99
283.659	1.77
284.037	1.7
284.415	1.47
284.792	1.81
285.17	1.34
285.548	1.21
285.925	1.62
286.303	1.28
286.68	1.61
287.058	1.57
287.435	1.23
287.813	1.13
288.19	1.9
288.567	1.71
288.945	1.72
289.322	1.38
289.699	1.67
290.076	1.93
290.453	1.83
290.83	0.82
291.207	1.26
291.584	1.62
291.961	1.92
292.338	1.28
292.715	1.18
293.092	1.85
293.469	1.27
293.845	1.12
294.222	1.32
294.599	1.51
294.975	1.8
295.352	1.48
295.728	1.76
296.105	1.77
296.481	1.48
296.858	1.93
297.234	1.95
297.61	1.67
297.986	1.51
298.363	2.21
298.739	1.54
299.115	1.54
299.491	1.63
299.867	1.81
300.243	1.51
300.619	1.79
300.995	1.97
301.371	1.31
301.746	1.86
302.122	1.16
302.498	1.66
302.874	2.15
303.249	1.42
303.625	1.63
304	1.54
304.376	1.71
304.751	1.11
305.127	1.63
305.502	1.87
305.878	1.4
306.253	1.57
306.628	1.84
307.003	1.96
307.378	1.72
307.754	1.97
308.129	1.36
308.504	2.04
308.879	1.73
309.254	1.85
309.629	1.76
310.003	2.4
310.378	2
310.753	1.73
311.128	1.57
311.502	2.26
311.877	2
312.252	2.01
312.626	2.03
313.001	1.75
313.375	2.04
313.75	1.74
314.124	1.62
314.498	1.91
314.873	2.22
315.247	1.74
315.621	1.21
315.995	2.06
316.369	2.05
316.743	1.48
317.117	2.03
317.491	1.36
317.865	1.39
318.239	1.7
318.613	1.92
318.987	1.91
319.361	2.11
319.734	1.78
320.108	1.73
320.482	2.35
320.855	1.37
321.229	1.72
321.602	2.03
321.976	2.18
322.349	1.76
322.723	1.61
323.096	1.82
323.469	2.02
323.843	1.37
324.216	1.99
324.589	1.87
324.962	2.01
325.335	2.53
325.708	1.8
326.081	1.69
326.454	1.74
326.827	2.11
327.2	1.43
327.573	2.32
327.945	2.43
328.318	2.12
328.691	1.55
329.063	1.51
329.436	1.28
329.809	2.37
330.181	1.06
330.553	1.96
330.926	2.41
331.298	2.53
331.671	2.17
332.043	1.59
332.415	2.55
332.787	1.79
333.159	1.88
333.532	2.53
333.904	2.03
334.276	1.07
334.648	2.28
335.02	2.21
335.391	2.33
335.763	1.67
336.135	2.06
336.507	1.84
336.879	1.09
337.25	1.97
337.622	1.79
337.993	2.09
338.365	1.9
338.736	2.2
339.108	1.33
339.479	1.21
339.851	2.23
340.222	2.48
340.593	2.17
340.964	2.08
341.336	1.36
341.707	1.84
342.078	1.49
342.449	2.04
342.82	1.95
343.191	2.11
343.562	1.82
343.933	1.8
344.303	1.83
344.674	2.2
345.045	2.2
345.416	2
345.786	2.39
346.157	2.07
346.527	1.65
346.898	2.07
347.268	1.87
347.639	1.67
348.009	1.51
348.38	2
348.75	2.04
349.12	2.26
349.49	2.14
349.861	1.74
350.231	1.61
350.601	2.51
350.971	2.46
351.341	2.05
351.711	2.14
352.081	2.21
352.45	1.93
352.82	1.76
353.19	2.43
353.56	1.97
353.929	2.01
354.299	1.73
354.669	2.21
355.038	2.26
355.408	1.89
355.777	1.89
356.147	2.19
356.516	2.11
356.885	1.88
357.254	2.02
357.624	2.13
357.993	2.13
358.362	2.01
358.731	1.97
359.1	2.16
359.469	2.25
359.838	2
360.207	1.88
360.576	2.09
360.945	2.15
361.314	1.71
361.682	1.69
362.051	2.24
362.42	1.92
362.788	2.06
363.157	2.16
363.525	1.88
363.894	2
364.262	1.85
364.631	1.8
364.999	2.23
365.367	1.95
365.735	2.02
366.104	1.89
366.472	1.7
366.84	2.05
367.208	2.01
367.576	1.93
367.944	2.43
368.312	2.24
368.68	2.02
369.048	1.94
369.416	2.24
369.783	1.82
370.151	2.31
370.519	2
370.886	1.69
371.254	2.01
371.621	1.79
371.989	1.77
372.356	1.78
372.724	2.18
373.091	2.1
373.458	1.94
373.826	2.36
374.193	2.08
374.56	2.21
374.927	1.89
375.294	2.18
375.661	2.17
376.028	1.9
376.395	1.74
376.762	2.33
377.129	2.3
377.496	1.81
377.863	2.39
378.229	1.92
378.596	2.62
378.963	2.23
379.329	2.47
379.696	2.26
380.062	2.23
380.429	1.97
380.795	2.42
381.161	2.29
381.528	2.43
381.894	2.15
382.26	2.2
382.626	2.46
382.993	2.09
383.359	2.26
383.725	2.5
384.091	2.07
384.457	2.07
384.823	2.02
385.188	2.16
385.554	2.13
385.92	2.15
386.286	2.48
386.651	2.29
387.017	2.32
387.383	2.08
387.748	2.09
388.114	1.96
388.479	2.08
388.845	2.31
389.21	2.27
389.575	2.16
389.94	2.37
390.306	2.36
390.671	1.98
391.036	2.04
391.401	2.4
391.766	2.58
392.131	2.06
392.496	2.03
392.861	2.03
393.226	2.4
393.591	2.05
393.956	2.02
394.32	2.07
394.685	2.29
395.05	2.31
395.414	2.15
395.779	2.3
396.143	2.17
396.508	2.07
396.872	2.25
397.236	2.16
397.601	2.05
397.965	2.27
398.329	2.24
398.694	2.47
399.058	2.31
399.422	2.4
399.786	2.3
400.15	2.77
400.514	2.29
400.878	2.16
401.242	2.36
401.605	2.37
401.969	2.04
402.333	2.09
402.697	2.14
403.06	2.15
403.424	2.28
403.787	2.4
404.151	2.18
404.514	2.21
404.878	2.17
405.241	2.47
405.604	2.29
405.968	2.17
406.331	2.26
406.694	2.26
407.057	2.51
407.42	2.19
407.783	2.26
408.146	2.15
408.509	2.32
408.872	2.27
409.235	2.26
409.598	2.35
409.961	2.13
410.323	2.57
410.686	2.57
411.049	2.63
411.411	2.43
411.774	2.5
412.136	2.22
412.499	2.27
412.861	2.25
413.223	2.1
413.586	2.08
413.948	2.44
414.31	2.24
414.672	2.36
415.035	2.34
415.397	2.46
415.759	2.39
416.121	2.46
416.483	2.3
416.845	2.49
417.206	2.39
417.568	2.62
417.93	2.23
418.292	2.44
418.653	2.31
419.015	2.31
419.377	2.25
419.738	2.39
420.1	2.27
420.461	2.44
420.822	2.34
421.184	2.32
421.545	2.31
421.906	2.3
422.267	2.32
422.629	2.26
422.99	2.28
423.351	2.29
423.712	2.23
424.073	2.33
424.434	2.41
424.795	2.27
425.155	2.24
425.516	2.26
425.877	2.26
426.238	2.22
426.598	2.31
426.959	2.26
427.32	2.36
427.68	2.37
428.041	2.22
428.401	2.29
428.761	2.32
429.122	2.25
429.482	2.31
429.842	2.43
430.202	2.38
430.563	2.46
430.923	2.39
431.283	2.39
431.643	2.46
432.003	2.46
432.363	2.6
432.722	2.32
433.082	2.49
433.442	2.52
433.802	2.43
434.161	2.39
434.521	2.32
434.881	2.3
435.24	2.45
435.6	2.41
435.959	2.51
436.319	2.47
436.678	2.43
437.037	2.34
437.396	2.39
437.756	2.39
438.115	2.58
438.474	2.69
438.833	2.5
439.192	2.51
439.551	2.33
439.91	2.5
440.269	2.52
440.628	2.35
440.987	2.42
441.345	2.32
441.704	2.39
442.063	2.44
442.421	2.49
442.78	2.45
443.138	2.45
443.497	2.4
443.855	2.54
444.214	2.43
444.572	2.52
444.93	2.54
445.288	2.47
445.647	2.61
446.005	2.68
446.363	2.6
446.721	2.53
447.079	2.48
447.437	2.36
447.795	2.43
448.153	2.51
448.51	2.43
448.868	2.48
449.226	2.36
449.584	2.37
449.941	2.55
450.299	2.58
450.656	2.44
451.014	2.4
451.371	2.58
451.729	2.46
452.086	2.51
452.443	2.73
452.801	2.56
453.158	2.67
453.515	2.52
453.872	2.53
454.229	2.58
454.586	2.7
454.943	2.53
455.3	2.55
455.657	2.5
456.014	2.66
456.371	2.47
456.727	2.57
457.084	2.52
457.441	2.7
457.797	2.6
458.154	2.75
458.51	2.67
458.867	2.39
459.223	2.57
459.58	2.43
459.936	2.59
460.292	2.7
460.648	2.61
461.005	2.57
461.361	2.58
461.717	2.47
462.073	2.54
462.429	2.47
462.785	2.57
463.141	2.54
463.496	2.83
463.852	2.71
464.208	2.71
464.564	2.59
464.919	2.69
465.275	2.9
465.631	2.7
465.986	2.79
466.342	2.7
466.697	2.46
467.052	2.59
467.408	2.66
467.763	2.79
468.118	2.53
468.473	2.57
468.829	2.57
469.184	2.51
469.539	2.69
469.894	2.74
470.249	2.66
470.603	2.62
470.958	2.6
471.313	2.79
471.668	2.75
472.023	2.64
472.377	2.74
472.732	2.83
473.086	2.78
473.441	2.87
473.795	2.82
474.15	2.79
474.504	2.81
474.859	2.73
475.213	2.75
475.567	2.79
475.921	2.96
476.275	2.72
476.63	2.97
476.984	2.88
477.338	2.91
477.692	2.83
478.045	2.97
478.399	2.73
478.753	2.68
479.107	2.62
479.461	2.83
479.814	2.98
480.168	2.76
480.521	2.87
480.875	2.79
481.228	2.66
481.582	2.77
481.935	2.8
482.289	2.79
482.642	2.9
482.995	2.82
483.348	2.7
483.701	2.82
484.055	2.75
484.408	2.71
484.761	2.62
485.114	2.67
485.466	2.63
485.819	2.53
486.172	2.51
486.525	2.58
486.878	2.63
487.23	2.78
487.583	2.86
487.936	2.86
488.288	2.87
488.641	2.75
488.993	2.78
489.345	2.68
489.698	2.69
490.05	2.63
490.402	2.64
490.754	2.78
491.107	2.83
491.459	2.82
491.811	2.87
492.163	2.91
492.515	2.95
492.866	2.9
493.218	2.71
493.57	2.77
493.922	2.63
494.274	2.74
494.625	2.76
494.977	2.95
495.328	2.98
495.68	3
496.031	3.06
496.383	2.96
496.734	2.94
497.086	3.05
497.437	3.17
497.788	2.96
498.139	2.96
498.49	2.87
498.842	2.91
499.193	2.86
499.544	2.95
499.894	2.98
500.245	3.02
500.596	2.98
500.947	3.01
501.298	3.12
501.648	2.94
501.999	3.06
502.35	3
502.7	3.1
503.051	3.05
503.401	3.12
503.752	3.08
504.102	3.09
504.452	3.16
504.803	3.11
505.153	3.12
505.503	2.99
505.853	3.08
506.203	3.18
506.553	3.16
506.903	3.17
507.253	3.21
507.603	3.11
507.953	3.12
508.303	3.25
508.652	3.08
509.002	3.17
509.352	3.09
509.701	3.04
510.051	3.04
510.4	3.07
510.75	3.08
511.099	3.06
511.449	3.07
511.798	3.06
512.147	3.19
512.496	3.11
512.846	3.2
513.195	3.26
513.544	3.21
513.893	3.24
514.242	3.29
514.591	3.29
514.939	3.05
515.288	3.24
515.637	3.29
515.986	3.16
516.334	3.26
516.683	3.32
517.032	3.25
517.38	3.29
517.729	3.32
518.077	3.27
518.426	3.18
518.774	3.33
519.122	3.32
519.47	3.27
519.819	3.21
520.167	3.24
520.515	3.3
520.863	3.08
521.211	3.22
521.559	3.26
521.907	3.37
522.255	3.34
522.602	3.42
522.95	3.44
523.298	3.37
523.645	3.37
523.993	3.39
524.341	3.45
524.688	3.45
525.036	3.47
525.383	3.41
525.73	3.5
526.078	3.55
526.425	3.5
526.772	3.38
527.119	3.29
527.466	3.24
527.814	3.27
528.161	3.22
528.508	3.26
528.854	3.35
529.201	3.48
529.548	3.32
529.895	3.33
530.242	3.21
530.588	3.16
530.935	3.11
531.282	3.22
531.628	3.26
531.975	3.43
532.321	3.48
532.667	3.49
533.014	3.52
533.36	3.5
533.706	3.54
534.052	3.5
534.399	3.49
534.745	3.5
535.091	3.39
535.437	3.35
535.783	3.36
536.129	3.44
536.474	3.56
536.82	3.6
537.166	3.69
537.512	3.59
537.857	3.66
538.203	3.62
538.549	3.47
538.894	3.45
539.239	3.48
539.585	3.62
539.93	3.69
540.276	3.69
540.621	3.79
540.966	3.71
541.311	3.84
541.656	3.73
542.001	3.73
542.346	3.8
542.691	3.58
543.036	3.49
543.381	3.51
543.726	3.5
544.071	3.59
544.415	3.68
544.76	3.7
545.105	3.8
545.449	3.77
545.794	3.89
546.138	3.78
546.483	3.87
546.827	3.91
547.171	3.84
547.516	3.79
547.86	3.88
548.204	3.92
548.548	3.86
548.892	3.79
549.236	3.81
549.58	3.83
549.924	3.88
550.268	4.04
550.612	4.1
550.956	4.13
551.3	4.16
551.643	4.19
551.987	3.98
552.33	4.13
552.674	4.16
553.017	4.15
553.361	4.2
553.704	4.14
554.048	4.13
554.391	4.06
554.734	4.19
555.077	4.16
555.42	4.07
555.764	4.17
556.107	4.14
556.45	4.18
556.793	4.35
557.135	4.33
557.478	4.34
557.821	4.18
558.164	4.48
558.507	4.32
558.849	4.34
559.192	4.24
559.534	4.2
559.877	4.41
560.219	4.39
560.562	4.32
560.904	4.56
561.246	4.45
561.589	4.16
561.931	4.45
562.273	4.27
562.615	4.3
562.957	4.63
563.299	4.46
563.641	4.46
563.983	4.41
564.325	4.46
564.667	4.39
565.008	4.33
565.35	4.82
565.692	4.64
566.033	4.58
566.375	4.62
566.716	4.58
567.058	4.64
567.399	4.5
567.741	4.68
568.082	4.55
568.423	4.64
568.764	4.45
569.105	4.63
569.447	4.66
569.788	4.69
570.129	4.69
570.47	4.85
570.811	4.75
571.151	4.51
571.492	4.66
571.833	4.87
572.174	4.91
572.514	4.7
572.855	4.73
573.195	4.9
573.536	4.9
573.876	4.69
574.217	4.81
574.557	4.83
574.898	5
575.238	4.92
575.578	4.79
575.918	4.82
576.258	4.95
576.598	5.03
576.938	4.86
577.278	4.88
577.618	4.92
577.958	5.04
578.298	5.09
578.638	4.91
578.977	5.16
579.317	5.08
579.657	5.04
579.996	5.09
580.336	5.13
580.675	5.22
581.014	5.36
581.354	5.49
581.693	5.36
582.032	5.31
582.372	5.27
582.711	5.54
583.05	5.41
583.389	5.44
583.728	5.29
584.067	5.4
584.406	5.37
584.745	5.32
585.083	5.37
585.422	5.44
585.761	5.34
586.1	5.46
586.438	5.44
586.777	5.32
587.115	5.72
587.454	5.76
587.792	5.71
588.13	5.75
588.469	5.52
588.807	5.46
589.145	5.62
589.483	5.65
589.821	5.39
590.159	5.8
590.497	5.66
590.835	5.76
591.173	5.69
591.511	5.74
591.849	5.64
592.187	5.78
592.524	5.78
592.862	5.82
593.2	5.69
593.537	5.85
593.875	6.02
594.212	5.98
594.55	6.14
594.887	5.7
595.224	6.13
595.561	5.57
595.899	5.4
596.236	6.02
596.573	6.04
596.91	6.01
597.247	6.03
597.584	5.82
597.921	6.02
598.258	6.03
598.594	5.96
598.931	5.94
599.268	6.1
599.604	5.96
599.941	6.1
600.277	6.13
600.614	6.37
600.95	6.29
601.287	6.26
601.623	6.34
601.959	6.13
602.296	6.2
602.632	6.28
602.968	6.38
603.304	6.41
603.64	6.11
603.976	6.37
604.312	6.33
604.648	6.19
604.984	6.3
605.319	6.47
605.655	6.43
605.991	6.46
606.326	6.32
606.662	6.27
606.998	6.43
607.333	6.32
607.668	6.37
608.004	6.56
608.339	6.57
608.674	6.43
609.01	6.79
609.345	6.91
609.68	6.71
610.015	6.61
610.35	6.81
610.685	6.83
611.02	6.72
611.355	6.83
611.689	6.47
612.024	6.69
612.359	6.69
612.694	6.95
613.028	6.99
613.363	6.84
613.697	6.69
614.032	7.13
614.366	6.75
614.7	6.76
615.035	6.98
615.369	7.03
615.703	6.95
616.037	7.03
616.371	6.83
616.705	6.91
617.039	7.12
617.373	7.08
617.707	7.07
618.041	7.15
618.375	7.13
618.709	7.19
619.042	7.42
619.376	6.95
619.71	6.88
620.043	6.99
620.377	7.43
620.71	7.21
621.043	7.51
621.377	7.51
621.71	7.67
622.043	6.96
622.376	7.65
622.709	7.51
623.043	7.51
623.376	7.64
623.709	7.7
624.041	7.7
624.374	7.59
624.707	7.03
625.04	7.28
625.373	7.57
625.705	7.65
626.038	7.28
626.37	7.72
626.703	7.73
627.035	7.77
627.368	8.17
627.7	7.77
628.032	7.72
628.365	7.52
628.697	7.64
629.029	7.7
629.361	7.86
629.693	7.42
630.025	7.85
630.357	7.93
630.689	8.2
631.021	8.05
631.353	8.08
631.684	8.07
632.016	7.83
632.348	7.96
632.679	8.11
633.011	8.22
633.342	7.93
633.674	8.31
634.005	7.98
634.336	8.02
634.668	8.05
634.999	8.15
635.33	8.3
635.661	8.45
635.992	8.2
636.323	8.23
636.654	8.1
636.985	7.98
637.316	8.21
637.647	8.22
637.977	8.43
638.308	8.41
638.639	8.32
638.969	8.64
639.3	8.28
639.63	8.17
639.961	8.97
640.291	8.41
640.622	8.11
640.952	8.08
641.282	8.33
641.612	8.44
641.943	8.63
642.273	8.86
642.603	8.33
642.933	8.46
643.263	9.07
643.592	8.6
643.922	8.83
644.252	8.43
644.582	8.76
644.911	9.03
645.241	9.22
645.571	9.2
645.9	8.84
646.23	8.69
646.559	8.82
646.888	9.15
647.218	8.5
647.547	8.67
647.876	9.24
648.205	8.95
648.534	9.25
648.863	9.15
649.192	9.49
649.521	9.33
649.85	9.02
650.179	9.06
650.508	9.03
650.837	8.82
651.165	8.75
651.494	9.3
651.822	8.97
652.151	9.18
652.479	9.89
652.808	9.22
653.136	9.05
653.465	9.55
653.793	9.67
654.121	9.41
654.449	9.26
654.777	9.06
655.105	9.27
655.433	9.37
655.761	9.43
656.089	9.58
656.417	9.02
656.745	9.78
657.073	9.39
657.4	9.93
657.728	9.86
658.056	9.53
658.383	9.25
658.711	9.39
659.038	9.7
659.365	9.92
659.693	9.44
660.02	9.64
660.347	9.91
660.674	9.51
661.001	10.07
661.329	9.55
661.656	9.64
661.982	9.67
662.309	10.15
662.636	9.64
662.963	10.29
663.29	10.43
663.616	10.09
663.943	10.07
664.27	9.72
664.596	9.94
664.923	10.13
665.249	10.49
665.576	10.27
665.902	10.35
666.228	9.99
666.554	10.23
666.881	10.17
667.207	10.15
667.533	10.11
667.859	9.82
668.185	9.69
668.511	10.12
668.837	9.42
669.162	10.45
669.488	10.15
669.814	10.75
670.139	11.03
670.465	10.47
670.791	10.41
671.116	10.52
671.442	10.47
671.767	9.89
672.092	10.52
672.418	10.7
672.743	11.19
673.068	10.13
673.393	11.08
673.718	9.87
674.043	10.64
674.368	10.57
674.693	10.9
675.018	11.37
675.343	10.72
675.667	11.43
675.992	10.88
676.317	10.64
676.641	10.91
676.966	10.62
677.29	10.89
677.615	11.42
677.939	11.25
678.264	10.96
678.588	11.21
678.912	11.3
679.236	10.39
679.56	10.67
679.885	11.01
680.209	10.61
680.532	11.21
680.856	10.88
681.18	10.83
681.504	10.78
681.828	11.31
682.152	11.29
682.475	11.17
682.799	11.07
683.122	11.29
683.446	11.36
683.769	11.57
684.093	11.27
684.416	11.77
684.739	11.13
685.062	11.41
685.386	11.22
685.709	11.55
686.032	10.96
686.355	11.53
686.678	11.48
687.001	11.17
687.324	11.72
687.646	11.26
687.969	11.36
688.292	11.95
688.614	12.18
688.937	12.02
689.26	11.59
689.582	10.53
689.904	11.81
690.227	12.38
