Data from 0139_crown_Reflection__4__197.txt Node

Date: Mon Aug 28 20:20:35 CDT 2023
User: ToomeyLab
Spectrometer: FLMS14357
Trigger mode: 0
Integration Time (sec): 1.000000E-2
Scans to average: 100
Electric dark correction enabled: true
Nonlinearity correction enabled: false
Boxcar width: 0
XAxis mode: Wavelengths
Number of Pixels in Spectrum: 2048
>>>>>Begin Spectral Data<<<<<
189.047	-44.03
189.435	-44.03
189.823	-44.03
190.211	-233.86
190.599	69.17
190.987	-37.22
191.375	-617.81
191.763	180.69
192.151	10.07
192.538	86.82
192.926	162.9
193.314	413.17
193.702	642.16
194.089	73.66
194.477	31.36
194.864	-118.28
195.252	-136.77
195.639	54.36
196.027	193.04
196.414	169.27
196.801	29.13
197.189	17.47
197.576	-108.46
197.963	925.55
198.351	-27.68
198.738	45.01
199.125	-12.06
199.512	-14.61
199.899	-9.65
200.286	-7.77
200.673	-50.4
201.06	-46.35
201.447	-80.06
201.833	-2.6
202.22	-21.04
202.607	-12.14
202.994	11.77
203.38	-19.47
203.767	-19.6
204.154	2.94
204.54	-20.97
204.927	-13.9
205.313	23.64
205.699	-22.52
206.086	50.87
206.472	-0.86
206.858	28.86
207.245	38.42
207.631	42.35
208.017	5.26
208.403	4.7
208.789	-25.25
209.175	-11.61
209.561	21.25
209.947	-2.3
210.333	13.25
210.719	1.57
211.105	27.48
211.491	4.57
211.876	16.68
212.262	-3.8
212.648	-20.92
213.034	-4.6
213.419	2.89
213.805	20.28
214.19	-20.8
214.576	7.3
214.961	10.73
215.346	-8.4
215.732	8.94
216.117	-29.88
216.502	-14.23
216.888	-58.52
217.273	-21.61
217.658	36.42
218.043	-10.83
218.428	-7.02
218.813	-8.62
219.198	13.17
219.583	22.4
219.968	22.09
220.353	10.13
220.738	12.17
221.122	8.55
221.507	-4.69
221.892	-11.07
222.276	4.66
222.661	-14.71
223.046	-22.01
223.43	-4.23
223.815	2.91
224.199	18.48
224.583	-0.03
224.968	8.41
225.352	14.02
225.736	3.62
226.121	8.7
226.505	6.49
226.889	10.49
227.273	12.97
227.657	7.39
228.041	2.69
228.425	6.04
228.809	5.01
229.193	9.83
229.577	6.14
229.961	6.21
230.344	7.54
230.728	7.15
231.112	6.31
231.495	7.48
231.879	7.02
232.263	5.67
232.646	6.41
233.03	7.86
233.413	9.44
233.797	7.18
234.18	4.69
234.563	3.51
234.946	8.57
235.33	3.4
235.713	4.4
236.096	6.26
236.479	6.26
236.862	7.5
237.245	6.05
237.628	7.08
238.011	9.03
238.394	9.87
238.777	7.27
239.16	5.51
239.543	4.17
239.925	7.83
240.308	3.24
240.691	4.1
241.073	3.97
241.456	5.86
241.838	4.69
242.221	6.38
242.603	6.53
242.986	6.82
243.368	5.51
243.75	5.03
244.133	5.93
244.515	5.74
244.897	6.27
245.279	6.59
245.661	5.13
246.043	5.56
246.425	5.75
246.807	5.99
247.189	4.99
247.571	6.35
247.953	5.39
248.335	5.25
248.717	5.65
249.098	5.44
249.48	5.62
249.862	5.85
250.243	5.47
250.625	5.5
251.006	5.22
251.388	5.28
251.769	5.93
252.151	5.38
252.532	3.81
252.913	5.22
253.295	4
253.676	4.93
254.057	5.32
254.438	5.26
254.819	5.38
255.2	5.8
255.581	4.64
255.962	5.65
256.343	5.7
256.724	5.05
257.105	4.73
257.486	4.63
257.867	5.37
258.247	3.84
258.628	5.96
259.009	3.92
259.389	3.97
259.77	5.47
260.15	4.53
260.531	4.46
260.911	5.35
261.292	5.32
261.672	4.9
262.052	4.69
262.432	5.1
262.813	4.74
263.193	4.7
263.573	4.18
263.953	4.69
264.333	4.53
264.713	4.91
265.093	5.6
265.473	4.78
265.853	4.35
266.233	4.37
266.612	4.61
266.992	4
267.372	4.81
267.752	5.04
268.131	5.56
268.511	4.44
268.89	4.67
269.27	4.16
269.649	4.3
270.029	4.95
270.408	5.06
270.787	4.67
271.167	3.91
271.546	4.4
271.925	4.32
272.304	4.72
272.683	5.09
273.062	4.37
273.441	5.09
273.82	4.65
274.199	4.32
274.578	4.7
274.957	4.88
275.336	4.33
275.715	4.74
276.093	3.9
276.472	4.29
276.851	4.41
277.229	4.27
277.608	4.87
277.986	4.12
278.365	4.63
278.743	4.75
279.122	4.39
279.5	4.34
279.878	3.53
280.257	4.64
280.635	3.91
281.013	4.61
281.391	4.39
281.769	4.4
282.147	4.39
282.525	4.55
282.903	4.22
283.281	4.53
283.659	5.21
284.037	4.63
284.415	4.23
284.792	4.89
285.17	3.98
285.548	3.69
285.925	4.55
286.303	4.45
286.68	4.49
287.058	4.43
287.435	3.91
287.813	3.72
288.19	4.64
288.567	4.85
288.945	4.49
289.322	4.16
289.699	4.4
290.076	4.64
290.453	4.34
290.83	3.39
291.207	4.2
291.584	3.95
291.961	4.05
292.338	4.03
292.715	4.04
293.092	4.59
293.469	4.09
293.845	4.1
294.222	4.42
294.599	3.75
294.975	4.42
295.352	4.06
295.728	4.08
296.105	4.71
296.481	4.29
296.858	4.49
297.234	4.3
297.61	4.19
297.986	4.15
298.363	4.49
298.739	4.2
299.115	4.1
299.491	4.54
299.867	4.34
300.243	4.16
300.619	4.08
300.995	4.87
301.371	3.66
301.746	4.58
302.122	4.09
302.498	4.19
302.874	4.33
303.249	4.23
303.625	3.88
304	4.04
304.376	3.94
304.751	4.28
305.127	3.95
305.502	4.29
305.878	4.02
306.253	3.49
306.628	4.07
307.003	3.92
307.378	4.47
307.754	4.35
308.129	4.18
308.504	4.36
308.879	4.12
309.254	4.14
309.629	3.69
310.003	3.56
310.378	4.03
310.753	3.76
311.128	4.34
311.502	4.09
311.877	4
312.252	4.52
312.626	4.44
313.001	4.25
313.375	3.9
313.75	4.3
314.124	4.13
314.498	4.16
314.873	4.34
315.247	4.15
315.621	3.2
315.995	4.6
316.369	4.21
316.743	3.67
317.117	3.91
317.491	3.77
317.865	3.76
318.239	3.46
318.613	4.35
318.987	3.76
319.361	3.76
319.734	3.69
320.108	4.24
320.482	3.97
320.855	3.46
321.229	3.93
321.602	3.89
321.976	3.78
322.349	4.32
322.723	4.07
323.096	4.25
323.469	4.19
323.843	3.76
324.216	3.88
324.589	3.7
324.962	3.3
325.335	3.92
325.708	4.17
326.081	3.92
326.454	4.45
326.827	4.35
327.2	4.1
327.573	3.79
327.945	4.57
328.318	4.27
328.691	3.32
329.063	3.68
329.436	3.73
329.809	4.39
330.181	4.06
330.553	3.85
330.926	4.05
331.298	4.33
331.671	3.32
332.043	4.13
332.415	4.52
332.787	3.58
333.159	3.59
333.532	4.73
333.904	4.36
334.276	3.66
334.648	3.47
335.02	4.06
335.391	3.95
335.763	3.72
336.135	4.2
336.507	3.64
336.879	3.42
337.25	4.4
337.622	3.65
337.993	4.64
338.365	3.72
338.736	4.61
339.108	3.72
339.479	3.78
339.851	4.2
340.222	3.98
340.593	4.28
340.964	4.1
341.336	3.84
341.707	3.73
342.078	4.06
342.449	4.11
342.82	4.32
343.191	4.08
343.562	4.08
343.933	4.29
344.303	3.91
344.674	4.14
345.045	3.86
345.416	4.29
345.786	4.68
346.157	4.34
346.527	3.29
346.898	3.82
347.268	4
347.639	3.56
348.009	4.08
348.38	4.22
348.75	4.09
349.12	4.49
349.49	4.14
349.861	3.79
350.231	3.87
350.601	4.5
350.971	4.43
351.341	3.98
351.711	4.38
352.081	4.2
352.45	4.33
352.82	4.59
353.19	4.64
353.56	4.56
353.929	4.38
354.299	3.83
354.669	4.21
355.038	4.56
355.408	4.11
355.777	3.84
356.147	4.19
356.516	4.58
356.885	4.32
357.254	4.16
357.624	4
357.993	4.06
358.362	3.91
358.731	4.25
359.1	4.36
359.469	4.5
359.838	4.17
360.207	4.41
360.576	4.44
360.945	4.55
361.314	3.93
361.682	3.98
362.051	4.64
362.42	4.18
362.788	4.03
363.157	4.39
363.525	4.07
363.894	4.35
364.262	4.14
364.631	4.15
364.999	4.29
365.367	4.34
365.735	4.24
366.104	4.09
366.472	4.19
366.84	4.17
367.208	4.19
367.576	4.31
367.944	4.59
368.312	4.74
368.68	4.28
369.048	4.44
369.416	4.33
369.783	4.5
370.151	4.41
370.519	4.25
370.886	4.39
371.254	4.5
371.621	4.31
371.989	4.35
372.356	4.38
372.724	4.75
373.091	4.48
373.458	4.39
373.826	4.52
374.193	4.35
374.56	4.48
374.927	4.09
375.294	4.4
375.661	4.8
376.028	4.15
376.395	4.42
376.762	4.77
377.129	4.22
377.496	4.31
377.863	4.68
378.229	4.06
378.596	4.33
378.963	4.64
379.329	4.75
379.696	4.21
380.062	4.22
380.429	4.07
380.795	4.51
381.161	4.55
381.528	4.46
381.894	4.69
382.26	4.39
382.626	4.69
382.993	4.54
383.359	4.57
383.725	4.65
384.091	4.47
384.457	4.46
384.823	4.24
385.188	4.63
385.554	4.46
385.92	4.18
386.286	4.6
386.651	4.23
387.017	4.61
387.383	4.58
387.748	4.29
388.114	4.28
388.479	4.53
388.845	4.26
389.21	4.34
389.575	4.63
389.94	4.45
390.306	4.78
390.671	4.41
391.036	4.43
391.401	4.97
391.766	4.84
392.131	4.58
392.496	4.25
392.861	4.45
393.226	4.75
393.591	4.34
393.956	4.72
394.32	4.45
394.685	4.4
395.05	4.88
395.414	4.56
395.779	4.45
396.143	4.18
396.508	4.3
396.872	4.77
397.236	4.56
397.601	4.53
397.965	4.57
398.329	4.33
398.694	4.76
399.058	4.62
399.422	4.58
399.786	4.59
400.15	4.78
400.514	4.53
400.878	4.51
401.242	4.43
401.605	4.69
401.969	4.44
402.333	4.5
402.697	4.33
403.06	4.37
403.424	4.59
403.787	4.6
404.151	4.17
404.514	4.48
404.878	4.39
405.241	4.61
405.604	4.72
405.968	4.32
406.331	4.59
406.694	4.35
407.057	4.49
407.42	4.41
407.783	4.27
408.146	4.3
408.509	4.69
408.872	4.5
409.235	4.41
409.598	4.45
409.961	4.44
410.323	4.62
410.686	4.79
411.049	4.69
411.411	4.64
411.774	4.76
412.136	4.56
412.499	4.49
412.861	4.67
413.223	4.47
413.586	4.4
413.948	4.59
414.31	4.62
414.672	4.5
415.035	4.55
415.397	4.52
415.759	4.61
416.121	4.61
416.483	4.44
416.845	4.51
417.206	4.79
417.568	4.53
417.93	4.47
418.292	4.69
418.653	4.55
419.015	4.66
419.377	4.28
419.738	4.5
420.1	4.46
420.461	4.58
420.822	4.55
421.184	4.62
421.545	4.45
421.906	4.35
422.267	4.48
422.629	4.42
422.99	4.38
423.351	4.41
423.712	4.36
424.073	4.5
424.434	4.57
424.795	4.47
425.155	4.38
425.516	4.46
425.877	4.34
426.238	4.32
426.598	4.35
426.959	4.49
427.32	4.44
427.68	4.5
428.041	4.42
428.401	4.56
428.761	4.44
429.122	4.44
429.482	4.67
429.842	4.72
430.202	4.46
430.563	4.69
430.923	4.8
431.283	4.34
431.643	4.48
432.003	4.61
432.363	4.7
432.722	4.61
433.082	4.52
433.442	4.68
433.802	4.76
434.161	4.45
434.521	4.5
434.881	4.39
435.24	4.5
435.6	4.46
435.959	4.51
436.319	4.54
436.678	4.35
437.037	4.55
437.396	4.49
437.756	4.43
438.115	4.72
438.474	4.72
438.833	4.59
439.192	4.58
439.551	4.28
439.91	4.53
440.269	4.47
440.628	4.46
440.987	4.49
441.345	4.32
441.704	4.42
442.063	4.39
442.421	4.54
442.78	4.5
443.138	4.36
443.497	4.41
443.855	4.43
444.214	4.53
444.572	4.41
444.93	4.44
445.288	4.4
445.647	4.5
446.005	4.65
446.363	4.59
446.721	4.39
447.079	4.41
447.437	4.31
447.795	4.4
448.153	4.5
448.51	4.37
448.868	4.49
449.226	4.37
449.584	4.38
449.941	4.5
450.299	4.46
450.656	4.48
451.014	4.33
451.371	4.46
451.729	4.32
452.086	4.4
452.443	4.75
452.801	4.48
453.158	4.58
453.515	4.4
453.872	4.42
454.229	4.65
454.586	4.56
454.943	4.47
455.3	4.49
455.657	4.56
456.014	4.54
456.371	4.57
456.727	4.66
457.084	4.42
457.441	4.52
457.797	4.52
458.154	4.45
458.51	4.64
458.867	4.37
459.223	4.55
459.58	4.52
459.936	4.45
460.292	4.58
460.648	4.57
461.005	4.3
461.361	4.43
461.717	4.33
462.073	4.39
462.429	4.38
462.785	4.44
463.141	4.51
463.496	4.67
463.852	4.44
464.208	4.46
464.564	4.63
464.919	4.67
465.275	4.73
465.631	4.43
465.986	4.6
466.342	4.62
466.697	4.33
467.052	4.46
467.408	4.55
467.763	4.46
468.118	4.49
468.473	4.38
468.829	4.43
469.184	4.46
469.539	4.45
469.894	4.45
470.249	4.41
470.603	4.64
470.958	4.43
471.313	4.51
471.668	4.35
472.023	4.53
472.377	4.56
472.732	4.56
473.086	4.58
473.441	4.48
473.795	4.48
474.15	4.66
474.504	4.45
474.859	4.46
475.213	4.6
475.567	4.52
475.921	4.59
476.275	4.52
476.63	4.62
476.984	4.6
477.338	4.5
477.692	4.53
478.045	4.55
478.399	4.46
478.753	4.21
479.107	4.34
479.461	4.41
479.814	4.53
480.168	4.53
480.521	4.47
480.875	4.41
481.228	4.44
481.582	4.48
481.935	4.33
482.289	4.39
482.642	4.43
482.995	4.35
483.348	4.42
483.701	4.49
484.055	4.31
484.408	4.26
484.761	4.3
485.114	4.16
485.466	4.16
485.819	4.02
486.172	4.01
486.525	4.07
486.878	4.14
487.23	4.26
487.583	4.33
487.936	4.37
488.288	4.31
488.641	4.24
488.993	4.21
489.345	4.16
489.698	4.11
490.05	4.1
490.402	4.12
490.754	4.23
491.107	4.28
491.459	4.29
491.811	4.36
492.163	4.4
492.515	4.31
492.866	4.41
493.218	4.21
493.57	4.13
493.922	4.1
494.274	4.15
494.625	4.24
494.977	4.38
495.328	4.44
495.68	4.41
496.031	4.52
496.383	4.28
496.734	4.24
497.086	4.52
497.437	4.42
497.788	4.47
498.139	4.3
498.49	4.28
498.842	4.34
499.193	4.31
499.544	4.33
499.894	4.32
500.245	4.34
500.596	4.33
500.947	4.38
501.298	4.51
501.648	4.34
501.999	4.34
502.35	4.39
502.7	4.38
503.051	4.44
503.401	4.37
503.752	4.37
504.102	4.48
504.452	4.36
504.803	4.52
505.153	4.37
505.503	4.15
505.853	4.3
506.203	4.31
506.553	4.29
506.903	4.46
507.253	4.47
507.603	4.34
507.953	4.46
508.303	4.5
508.652	4.41
509.002	4.43
509.352	4.32
509.701	4.27
510.051	4.22
510.4	4.29
510.75	4.32
511.099	4.38
511.449	4.36
511.798	4.28
512.147	4.26
512.496	4.25
512.846	4.26
513.195	4.38
513.544	4.39
513.893	4.33
514.242	4.3
514.591	4.27
514.939	4.18
515.288	4.37
515.637	4.32
515.986	4.27
516.334	4.42
516.683	4.37
517.032	4.5
517.38	4.39
517.729	4.35
518.077	4.37
518.426	4.21
518.774	4.29
519.122	4.46
519.47	4.21
519.819	4.15
520.167	4.23
520.515	4.19
520.863	4.12
521.211	4.19
521.559	4.24
521.907	4.3
522.255	4.2
522.602	4.35
522.95	4.34
523.298	4.36
523.645	4.44
523.993	4.22
524.341	4.37
524.688	4.27
525.036	4.35
525.383	4.35
525.73	4.26
526.078	4.41
526.425	4.26
526.772	4.34
527.119	4.23
527.466	4.1
527.814	4.1
528.161	4.07
528.508	4.13
528.854	4.16
529.201	4.23
529.548	4.17
529.895	4.1
530.242	4.07
530.588	3.91
530.935	3.88
531.282	3.95
531.628	4.03
531.975	4.1
532.321	4.16
532.667	4.23
533.014	4.21
533.36	4.3
533.706	4.24
534.052	4.17
534.399	4.2
534.745	4.17
535.091	4.09
535.437	4.04
535.783	4.08
536.129	4.1
536.474	4.18
536.82	4.18
537.166	4.27
537.512	4.28
537.857	4.25
538.203	4.11
538.549	4.11
538.894	4.14
539.239	4.04
539.585	4.23
539.93	4.2
540.276	4.26
540.621	4.25
540.966	4.18
541.311	4.34
541.656	4.27
542.001	4.26
542.346	4.27
542.691	4.03
543.036	4.05
543.381	3.94
543.726	3.96
544.071	4.07
544.415	4.1
544.76	4.14
545.105	4.15
545.449	4.09
545.794	4.24
546.138	4.17
546.483	4.15
546.827	4.18
547.171	4.19
547.516	4.18
547.86	4.19
548.204	4.26
548.548	4.25
548.892	4.02
549.236	4.12
549.58	4.06
549.924	4.14
550.268	4.26
550.612	4.21
550.956	4.34
551.3	4.27
551.643	4.32
551.987	4.16
552.33	4.25
552.674	4.25
553.017	4.27
553.361	4.33
553.704	4.18
554.048	4.3
554.391	4.14
554.734	4.28
555.077	4.03
555.42	4.19
555.764	4.24
556.107	4.21
556.45	4.27
556.793	4.2
557.135	4.23
557.478	4.3
557.821	4.37
558.164	4.49
558.507	4.33
558.849	4.32
559.192	4.06
559.534	4.23
559.877	4.27
560.219	4.37
560.562	4.19
560.904	4.27
561.246	4.05
561.589	4.29
561.931	4.26
562.273	4.25
562.615	4.13
562.957	4.25
563.299	4.34
563.641	4.21
563.983	4.26
564.325	4.22
564.667	4.08
565.008	3.98
565.35	4.49
565.692	4.36
566.033	4.14
566.375	4.02
566.716	4.32
567.058	4.29
567.399	4.03
567.741	4.27
568.082	4.15
568.423	4.16
568.764	3.98
569.105	4.33
569.447	4.09
569.788	4.2
570.129	4.07
570.47	4.21
570.811	4.15
571.151	3.99
571.492	4.15
571.833	4.28
572.174	4.17
572.514	4.06
572.855	4.13
573.195	4.24
573.536	4.15
573.876	4.1
574.217	4.06
574.557	4.13
574.898	4.26
575.238	4.08
575.578	4.04
575.918	4.31
576.258	4.23
576.598	4.14
576.938	4.09
577.278	4.17
577.618	4.14
577.958	4.02
578.298	4.27
578.638	4.15
578.977	4.29
579.317	4.08
579.657	3.98
579.996	4.08
580.336	4.18
580.675	4.29
581.014	4.51
581.354	4.15
581.693	4.08
582.032	4.22
582.372	4.4
582.711	4.39
583.05	4.17
583.389	4.05
583.728	4.38
584.067	4.24
584.406	4.13
584.745	4.26
585.083	4
585.422	4.22
585.761	4.2
586.1	4.38
586.438	4.27
586.777	4.06
587.115	4.31
587.454	4.19
587.792	4.22
588.13	4.38
588.469	4.29
588.807	4.2
589.145	4.14
589.483	4.2
589.821	4.23
590.159	4.31
590.497	4.36
590.835	4.34
591.173	4.02
591.511	4.14
591.849	4.27
592.187	4.11
592.524	4.24
592.862	4.31
593.2	3.96
593.537	4.27
593.875	4.36
594.212	4.26
594.55	4.54
594.887	4.05
595.224	4.23
595.561	4.1
595.899	3.84
596.236	4.16
596.573	4.21
596.91	4.18
597.247	4.34
597.584	4
597.921	4.11
598.258	4.12
598.594	4.04
598.931	4.01
599.268	4.22
599.604	4.04
599.941	4.04
600.277	4.05
600.614	4.22
600.95	4.15
601.287	4.29
601.623	4.27
601.959	4.14
602.296	4.14
602.632	4.09
602.968	3.95
603.304	4.03
603.64	4.17
603.976	4.3
604.312	4.29
604.648	3.93
604.984	3.95
605.319	4.23
605.655	4.15
605.991	4.25
606.326	4.24
606.662	3.95
606.998	3.99
607.333	3.93
607.668	4.05
608.004	4.23
608.339	4.21
608.674	3.95
609.01	4.04
609.345	4.43
609.68	4.3
610.015	4.26
610.35	4.33
610.685	4.1
611.02	3.97
611.355	4.41
611.689	3.9
612.024	4.22
612.359	4.03
612.694	4.19
613.028	4.05
613.363	4.09
613.697	3.96
614.032	4.19
614.366	4.03
614.7	4.17
615.035	4.09
615.369	4.23
615.703	4.23
616.037	3.92
616.371	3.92
616.705	4.14
617.039	3.91
617.373	4.2
617.707	3.98
618.041	4.2
618.375	4.28
618.709	4.4
619.042	4.46
619.376	4.08
619.71	3.85
620.043	4.27
620.377	4.47
620.71	3.99
621.043	3.88
621.377	4.15
621.71	4.24
622.043	3.96
622.376	4.21
622.709	3.65
623.043	4.2
623.376	4.59
623.709	4.43
624.041	4.32
624.374	3.73
624.707	3.36
625.04	3.86
625.373	3.9
625.705	4.35
626.038	4
626.37	4.31
626.703	3.89
627.035	4.51
627.368	4.18
627.7	4.32
628.032	4.11
628.365	3.76
628.697	3.93
629.029	4.12
629.361	4.06
629.693	3.98
630.025	4.08
630.357	3.89
630.689	4.24
631.021	4.29
631.353	4.1
631.684	4.53
632.016	3.7
632.348	3.97
632.679	4.13
633.011	4.12
633.342	3.93
633.674	4.21
634.005	4.05
634.336	3.57
634.668	4.38
634.999	4.05
635.33	4.03
635.661	4.21
635.992	3.87
636.323	4.22
636.654	3.9
636.985	3.88
637.316	4.21
637.647	4.31
637.977	4.14
638.308	4.44
638.639	3.92
638.969	4.41
639.3	3.99
639.63	3.79
639.961	4.8
640.291	4.02
640.622	4.35
640.952	4.08
641.282	4.29
641.612	4.34
641.943	4.41
642.273	4.65
642.603	3.9
642.933	3.45
643.263	4.24
643.592	3.87
643.922	4.12
644.252	3.89
644.582	4.13
644.911	4.44
645.241	4.53
645.571	3.73
645.9	4.41
646.23	3.82
646.559	4.29
646.888	4.37
647.218	3.75
647.547	3.95
647.876	4.25
648.205	4.41
648.534	4.13
648.863	3.88
649.192	3.92
649.521	4.3
649.85	4.46
650.179	4.29
650.508	4.48
650.837	3.77
651.165	4.01
651.494	3.88
651.822	4.16
652.151	4.21
652.479	4.8
652.808	4.08
653.136	4.16
653.465	4.43
653.793	4.3
654.121	4.48
654.449	4.17
654.777	3.97
655.105	4.42
655.433	3.99
655.761	4.03
656.089	4.32
656.417	3.67
656.745	4.5
657.073	4.03
657.4	4.38
657.728	4.34
658.056	4.36
658.383	3.98
658.711	4.04
659.038	4.28
659.365	4.57
659.693	4.08
660.02	4.18
660.347	4.78
660.674	4.01
661.001	4.45
661.329	4.05
661.656	4.29
661.982	4.03
662.309	4.3
662.636	4.28
662.963	4.1
663.29	4.24
663.616	4.27
663.943	4.34
664.27	4.47
664.596	4.25
664.923	4.77
665.249	4.64
665.576	4.1
665.902	4.02
666.228	4.29
666.554	3.99
666.881	4.16
667.207	4.19
667.533	4.53
667.859	3.79
668.185	4.15
668.511	3.88
668.837	3.88
669.162	4.76
669.488	3.77
669.814	4.54
670.139	4.66
670.465	4.37
670.791	4.23
671.116	4.45
671.442	4.24
671.767	3.59
672.092	4.44
672.418	4.31
672.743	4.79
673.068	4.21
673.393	4.33
673.718	3.36
674.043	3.93
674.368	3.99
674.693	4.64
675.018	4.92
675.343	4.37
675.667	5.6
675.992	4.69
676.317	4.02
676.641	4.46
676.966	4.34
677.29	3.81
677.615	4.55
677.939	4.62
678.264	3.6
678.588	4.33
678.912	4.24
679.236	3.66
679.56	3.32
679.885	4.23
680.209	3.5
680.532	4.38
680.856	4.51
681.18	4.03
681.504	4.17
681.828	3.89
682.152	3.86
682.475	4.41
682.799	4.09
683.122	4.33
683.446	4.28
683.769	4.4
684.093	4.44
684.416	4.44
684.739	4.36
685.062	4.76
685.386	4.19
685.709	4.77
686.032	4.15
686.355	4.05
686.678	4.39
687.001	3.77
687.324	4.3
687.646	4.32
687.969	3.89
688.292	4.57
688.614	4.63
688.937	4.28
689.26	4.17
689.582	3.37
689.904	4.81
690.227	5.02
690.549	3.64
690.871	4.82
691.194	4.19
691.516	4.15
691.838	4.83
692.16	4.19
692.482	4.21
