Data from 0139_chest_Reflection__4__187.txt Node

Date: Mon Aug 28 20:17:11 CDT 2023
User: ToomeyLab
Spectrometer: FLMS14357
Trigger mode: 0
Integration Time (sec): 1.000000E-2
Scans to average: 100
Electric dark correction enabled: true
Nonlinearity correction enabled: false
Boxcar width: 0
XAxis mode: Wavelengths
Number of Pixels in Spectrum: 2048
>>>>>Begin Spectral Data<<<<<
189.047	-65.49
189.435	-65.49
189.823	-65.49
190.211	-81.68
190.599	87.38
190.987	14.83
191.375	-139.87
191.763	112.9
192.151	-54.16
192.538	145.1
192.926	33
193.314	370.37
193.702	222.7
194.089	49.03
194.477	-348.89
194.864	-31.9
195.252	56.26
195.639	-137.31
196.027	132.21
196.414	57.79
196.801	53.56
197.189	2.84
197.576	-164.19
197.963	289.05
198.351	7.56
198.738	47.92
199.125	-27.93
199.512	-44.72
199.899	19.44
200.286	-4.25
200.673	20.46
201.06	-13.25
201.447	-96.93
201.833	-15.75
202.22	9.29
202.607	-20.42
202.994	37.87
203.38	13.47
203.767	-39.66
204.154	-68.36
204.54	-17.69
204.927	-78.45
205.313	12.14
205.699	8.07
206.086	25.69
206.472	-2.84
206.858	-25.54
207.245	10.44
207.631	22.2
208.017	-8.22
208.403	-6.81
208.789	-2.19
209.175	-78.76
209.561	3.19
209.947	-3.02
210.333	-9.17
210.719	-1.39
211.105	28.59
211.491	-31.23
211.876	23.87
212.262	-16.91
212.648	14.88
213.034	-23.8
213.419	-14.76
213.805	1.09
214.19	-15.59
214.576	27.3
214.961	-5.38
215.346	-29.66
215.732	29.06
216.117	-47.99
216.502	-22.47
216.888	-109.12
217.273	-11.47
217.658	-4.55
218.043	-17.77
218.428	4.89
218.813	-3.99
219.198	-5.6
219.583	-18.49
219.968	23.69
220.353	-35.92
220.738	5.91
221.122	-0.82
221.507	10.68
221.892	-28.73
222.276	-4.74
222.661	-11.57
223.046	-0.62
223.43	11.88
223.815	-2.28
224.199	1.33
224.583	-1.92
224.968	1.64
225.352	5.56
225.736	11.36
226.121	-6.79
226.505	-4.58
226.889	-3.61
227.273	6.84
227.657	-3.78
228.041	6.18
228.425	1.36
228.809	2.96
229.193	1.43
229.577	8.38
229.961	2.1
230.344	4.97
230.728	3.48
231.112	4.21
231.495	5.16
231.879	4.67
232.263	3.44
232.646	2.54
233.03	5.45
233.413	6.65
233.797	2.7
234.18	3.5
234.563	2.96
234.946	8.37
235.33	1.65
235.713	0.62
236.096	4.77
236.479	4.45
236.862	7.42
237.245	4.54
237.628	3.93
238.011	2.65
238.394	3.88
238.777	5.98
239.16	2.93
239.543	1.54
239.925	5.9
240.308	1.51
240.691	4.37
241.073	2.8
241.456	3.61
241.838	2.09
242.221	5.18
242.603	5.06
242.986	4.02
243.368	4.28
243.75	3.84
244.133	4.08
244.515	3.96
244.897	4.46
245.279	4.48
245.661	3.85
246.043	4.26
246.425	3.65
246.807	4.33
247.189	2.79
247.571	3.57
247.953	4.97
248.335	4.32
248.717	3.68
249.098	4.02
249.48	3.94
249.862	4.25
250.243	4.53
250.625	4.48
251.006	3.73
251.388	4.09
251.769	4.03
252.151	3.91
252.532	3.19
252.913	4.5
253.295	2.68
253.676	3.63
254.057	3.59
254.438	3.98
254.819	3.53
255.2	3.81
255.581	4.23
255.962	4.2
256.343	4.46
256.724	3.27
257.105	3.85
257.486	5.83
257.867	3.19
258.247	3.24
258.628	5.14
259.009	3.5
259.389	2.41
259.77	4.36
260.15	2.9
260.531	3.57
260.911	4.13
261.292	3.49
261.672	3.5
262.052	3.54
262.432	3.69
262.813	3.87
263.193	3.54
263.573	3.44
263.953	3.3
264.333	3.52
264.713	2.78
265.093	3.89
265.473	3.64
265.853	3.29
266.233	2.93
266.612	3.64
266.992	3.87
267.372	3.08
267.752	3.67
268.131	3.77
268.511	2.73
268.89	3.73
269.27	3.71
269.649	3.64
270.029	4.33
270.408	4.04
270.787	4.26
271.167	3.19
271.546	3.3
271.925	3.88
272.304	3.12
272.683	3.45
273.062	4.03
273.441	3.51
273.82	3.54
274.199	3.46
274.578	3.65
274.957	3.36
275.336	3.75
275.715	4.39
276.093	3.15
276.472	3.02
276.851	3.26
277.229	3.32
277.608	3.65
277.986	3.19
278.365	3.42
278.743	4.14
279.122	3.65
279.5	3.5
279.878	2.47
280.257	2.94
280.635	3.4
281.013	3.97
281.391	3.43
281.769	3.25
282.147	2.72
282.525	3.67
282.903	4.22
283.281	3.21
283.659	4.44
284.037	3.87
284.415	3.64
284.792	3.63
285.17	3.43
285.548	2.89
285.925	3.76
286.303	3.26
286.68	3.78
287.058	3.71
287.435	2.95
287.813	3.16
288.19	3.6
288.567	3.66
288.945	3.52
289.322	3.41
289.699	3.6
290.076	3.42
290.453	3.14
290.83	3.39
291.207	3.4
291.584	3.59
291.961	3.85
292.338	3.66
292.715	3.2
293.092	3.44
293.469	3.29
293.845	3.18
294.222	3.05
294.599	3.92
294.975	3.4
295.352	3.39
295.728	4.02
296.105	3.28
296.481	3.62
296.858	3.83
297.234	3.57
297.61	3.34
297.986	3.56
298.363	3.7
298.739	3.07
299.115	3.45
299.491	3.73
299.867	3.54
300.243	3.56
300.619	3.7
300.995	3.64
301.371	3.78
301.746	3.84
302.122	3.5
302.498	3.32
302.874	3.94
303.249	3.43
303.625	3.32
304	3.39
304.376	3.5
304.751	3.15
305.127	3.57
305.502	3.69
305.878	3.51
306.253	3.37
306.628	2.86
307.003	3.46
307.378	3.65
307.754	3.54
308.129	3.8
308.504	4.05
308.879	3.99
309.254	3.89
309.629	3.25
310.003	3.37
310.378	3.08
310.753	3.22
311.128	3.95
311.502	3.77
311.877	3.51
312.252	3.38
312.626	3.3
313.001	3.61
313.375	3.63
313.75	3.54
314.124	3.69
314.498	3.79
314.873	3.81
315.247	3.87
315.621	3.37
315.995	4.11
316.369	4.04
316.743	3.19
317.117	3.43
317.491	2.71
317.865	2.95
318.239	3.25
318.613	3.72
318.987	3.31
319.361	3.61
319.734	3.36
320.108	3.29
320.482	3.72
320.855	2.82
321.229	3.49
321.602	3.88
321.976	2.65
322.349	3.35
322.723	3.27
323.096	3.67
323.469	3.42
323.843	2.9
324.216	4.04
324.589	3.69
324.962	3.71
325.335	3.57
325.708	3.38
326.081	3.48
326.454	3.78
326.827	3.4
327.2	3.28
327.573	3.28
327.945	3.69
328.318	4.08
328.691	3.63
329.063	3.07
329.436	3.35
329.809	3.77
330.181	3.41
330.553	3.37
330.926	3.89
331.298	3.61
331.671	3.41
332.043	3.69
332.415	4.26
332.787	2.77
333.159	3.07
333.532	3.78
333.904	3.61
334.276	3.78
334.648	3.74
335.02	4.09
335.391	3.58
335.763	3.53
336.135	3.82
336.507	3.31
336.879	2.91
337.25	3.53
337.622	3
337.993	3.57
338.365	3.33
338.736	3.3
339.108	3.07
339.479	3.09
339.851	3.46
340.222	3.83
340.593	3.3
340.964	3.45
341.336	2.99
341.707	3.21
342.078	3.42
342.449	3.32
342.82	3.75
343.191	3.42
343.562	3.5
343.933	3.08
344.303	3.54
344.674	3.65
345.045	4.28
345.416	3.71
345.786	4.01
346.157	3.71
346.527	3.2
346.898	3.55
347.268	3.74
347.639	3.35
348.009	3.34
348.38	3.39
348.75	3.27
349.12	3.68
349.49	3.51
349.861	3.16
350.231	2.93
350.601	3.76
350.971	3.62
351.341	3.46
351.711	3.57
352.081	3.64
352.45	3.45
352.82	3.71
353.19	3.97
353.56	3.34
353.929	3.89
354.299	3.06
354.669	3.72
355.038	3.83
355.408	3.69
355.777	3.32
356.147	3.48
356.516	4.08
356.885	3.67
357.254	3.49
357.624	3.51
357.993	3.75
358.362	3.42
358.731	3.4
359.1	3.56
359.469	3.48
359.838	3.01
360.207	3.37
360.576	3.67
360.945	3.3
361.314	3.02
361.682	3.41
362.051	3.72
362.42	3.51
362.788	3.55
363.157	3.85
363.525	3.52
363.894	3.75
364.262	3.51
364.631	3.39
364.999	3.61
365.367	3.56
365.735	3.36
366.104	3.55
366.472	3.3
366.84	3.46
367.208	3.53
367.576	3.36
367.944	3.65
368.312	3.82
368.68	3.68
369.048	3.57
369.416	3.62
369.783	3.4
370.151	3.76
370.519	3.53
370.886	3.35
371.254	3.44
371.621	3.49
371.989	3.46
372.356	3.41
372.724	3.69
373.091	3.69
373.458	3.5
373.826	3.82
374.193	3.54
374.56	3.64
374.927	3.23
375.294	3.87
375.661	3.74
376.028	3.46
376.395	3.35
376.762	3.52
377.129	3.23
377.496	3.54
377.863	3.68
378.229	3.79
378.596	3.39
378.963	3.76
379.329	3.78
379.696	3.64
380.062	3.5
380.429	3.38
380.795	3.62
381.161	3.76
381.528	3.88
381.894	3.52
382.26	3.59
382.626	4.06
382.993	3.37
383.359	3.91
383.725	3.9
384.091	3.57
384.457	3.41
384.823	3.49
385.188	3.72
385.554	3.55
385.92	3.44
386.286	3.98
386.651	3.47
387.017	3.83
387.383	3.52
387.748	3.7
388.114	3.4
388.479	3.53
388.845	3.6
389.21	3.32
389.575	3.86
389.94	3.7
390.306	3.86
390.671	3.87
391.036	3.44
391.401	3.55
391.766	3.75
392.131	3.73
392.496	3.53
392.861	3.49
393.226	3.75
393.591	3.48
393.956	3.83
394.32	3.59
394.685	3.55
395.05	3.61
395.414	3.55
395.779	3.64
396.143	3.71
396.508	3.4
396.872	3.64
397.236	3.59
397.601	3.73
397.965	3.85
398.329	3.64
398.694	3.83
399.058	3.56
399.422	3.72
399.786	3.93
400.15	3.99
400.514	3.89
400.878	3.54
401.242	3.64
401.605	3.64
401.969	3.48
402.333	3.63
402.697	3.61
403.06	3.87
403.424	3.47
403.787	3.15
404.151	3.33
404.514	3.57
404.878	3.57
405.241	3.7
405.604	3.68
405.968	3.68
406.331	3.75
406.694	3.7
407.057	3.84
407.42	3.65
407.783	3.7
408.146	3.55
408.509	3.73
408.872	3.63
409.235	3.76
409.598	3.7
409.961	3.63
410.323	3.87
410.686	3.71
411.049	3.9
411.411	3.63
411.774	3.75
412.136	3.59
412.499	3.69
412.861	3.74
413.223	3.66
413.586	3.56
413.948	3.69
414.31	3.64
414.672	3.39
415.035	3.73
415.397	3.71
415.759	3.76
416.121	3.82
416.483	3.55
416.845	3.86
417.206	4.01
417.568	3.78
417.93	3.59
418.292	3.65
418.653	3.57
419.015	3.52
419.377	3.49
419.738	3.89
420.1	3.7
420.461	3.72
420.822	3.73
421.184	3.71
421.545	3.73
421.906	3.71
422.267	3.66
422.629	3.66
422.99	3.59
423.351	3.69
423.712	3.59
424.073	3.67
424.434	3.76
424.795	3.59
425.155	3.62
425.516	3.72
425.877	3.62
426.238	3.57
426.598	3.6
426.959	3.67
427.32	3.66
427.68	3.64
428.041	3.72
428.401	3.81
428.761	3.59
429.122	3.64
429.482	3.71
429.842	3.87
430.202	3.69
430.563	3.73
430.923	3.88
431.283	3.64
431.643	3.62
432.003	3.78
432.363	3.78
432.722	3.64
433.082	3.74
433.442	3.78
433.802	3.64
434.161	3.75
434.521	3.77
434.881	3.8
435.24	3.88
435.6	3.67
435.959	3.77
436.319	3.77
436.678	3.76
437.037	3.73
437.396	3.82
437.756	3.59
438.115	3.76
438.474	3.89
438.833	3.83
439.192	3.85
439.551	3.84
439.91	3.93
440.269	3.58
440.628	3.7
440.987	3.83
441.345	3.77
441.704	3.88
442.063	3.8
442.421	3.71
442.78	3.82
443.138	3.73
443.497	3.78
443.855	3.82
444.214	3.87
444.572	3.81
444.93	3.78
445.288	3.78
445.647	3.74
446.005	3.86
446.363	3.8
446.721	3.89
447.079	3.82
447.437	3.72
447.795	3.78
448.153	3.85
448.51	3.75
448.868	3.86
449.226	3.84
449.584	3.72
449.941	3.84
450.299	3.85
450.656	3.83
451.014	3.79
451.371	3.76
451.729	3.75
452.086	3.89
452.443	4.06
452.801	3.89
453.158	4.06
453.515	3.76
453.872	3.71
454.229	3.87
454.586	3.92
454.943	3.85
455.3	3.83
455.657	3.83
456.014	3.96
456.371	3.97
456.727	3.94
457.084	3.84
457.441	3.9
457.797	3.8
458.154	4.12
458.51	3.99
458.867	3.82
459.223	3.86
459.58	4.01
459.936	3.99
460.292	3.78
460.648	3.81
461.005	3.67
461.361	3.73
461.717	3.84
462.073	3.79
462.429	3.79
462.785	3.96
463.141	3.9
463.496	3.86
463.852	3.92
464.208	4.02
464.564	3.88
464.919	3.95
465.275	4.03
465.631	4
465.986	4.13
466.342	4.03
466.697	3.76
467.052	3.99
467.408	4.14
467.763	3.77
468.118	3.85
468.473	3.92
468.829	3.85
469.184	3.75
469.539	3.94
469.894	3.85
470.249	3.99
470.603	3.98
470.958	3.92
471.313	4.13
471.668	3.88
472.023	4.04
472.377	3.95
472.732	3.94
473.086	4.03
473.441	3.93
473.795	3.93
474.15	4.19
474.504	3.93
474.859	3.84
475.213	3.87
475.567	3.99
475.921	4.32
476.275	3.86
476.63	4.14
476.984	4.01
477.338	4.02
477.692	3.99
478.045	4.03
478.399	4.05
478.753	3.92
479.107	3.97
479.461	3.98
479.814	4.17
480.168	4.02
480.521	4.02
480.875	4
481.228	3.98
481.582	3.96
481.935	3.98
482.289	4.1
482.642	4.12
482.995	4.19
483.348	4.05
483.701	4
484.055	3.88
484.408	3.95
484.761	4
485.114	3.93
485.466	3.91
485.819	3.8
486.172	3.79
486.525	3.81
486.878	3.85
487.23	3.89
487.583	3.95
487.936	4.01
488.288	3.99
488.641	4.02
488.993	3.99
489.345	3.93
489.698	3.98
490.05	3.93
490.402	3.87
490.754	3.93
491.107	3.98
491.459	3.99
491.811	4.04
492.163	4.08
492.515	4.05
492.866	4.07
493.218	4.01
493.57	3.98
493.922	3.91
494.274	3.99
494.625	4.02
494.977	4.13
495.328	4.14
495.68	4.12
496.031	4.14
496.383	4.13
496.734	4.16
497.086	4.34
497.437	4.25
497.788	4.26
498.139	4.18
498.49	4.1
498.842	4.14
499.193	4.12
499.544	4.15
499.894	4.19
500.245	4.14
500.596	4.2
500.947	4.23
501.298	4.27
501.648	4.18
501.999	4.29
502.35	4.22
502.7	4.28
503.051	4.3
503.401	4.27
503.752	4.29
504.102	4.29
504.452	4.31
504.803	4.33
505.153	4.33
505.503	4.16
505.853	4.16
506.203	4.23
506.553	4.33
506.903	4.46
507.253	4.39
507.603	4.35
507.953	4.36
508.303	4.5
508.652	4.38
509.002	4.37
509.352	4.34
509.701	4.31
510.051	4.32
510.4	4.3
510.75	4.26
511.099	4.36
511.449	4.34
511.798	4.25
512.147	4.37
512.496	4.42
512.846	4.34
513.195	4.46
513.544	4.46
513.893	4.38
514.242	4.48
514.591	4.33
514.939	4.32
515.288	4.35
515.637	4.49
515.986	4.32
516.334	4.47
516.683	4.45
517.032	4.49
517.38	4.63
517.729	4.53
518.077	4.53
518.426	4.49
518.774	4.52
519.122	4.54
519.47	4.44
519.819	4.49
520.167	4.38
520.515	4.56
520.863	4.42
521.211	4.49
521.559	4.48
521.907	4.52
522.255	4.52
522.602	4.64
522.95	4.65
523.298	4.68
523.645	4.64
523.993	4.69
524.341	4.7
524.688	4.74
525.036	4.68
525.383	4.75
525.73	4.66
526.078	4.9
526.425	4.58
526.772	4.63
527.119	4.65
527.466	4.57
527.814	4.58
528.161	4.54
528.508	4.61
528.854	4.61
529.201	4.67
529.548	4.61
529.895	4.62
530.242	4.57
530.588	4.47
530.935	4.5
531.282	4.54
531.628	4.58
531.975	4.67
532.321	4.66
532.667	4.64
533.014	4.72
533.36	4.78
533.706	4.76
534.052	4.79
534.399	4.77
534.745	4.78
535.091	4.8
535.437	4.74
535.783	4.75
536.129	4.81
536.474	4.74
536.82	4.85
537.166	4.81
537.512	4.94
537.857	4.97
538.203	4.92
538.549	4.95
538.894	4.89
539.239	4.87
539.585	4.93
539.93	4.98
540.276	5
540.621	5.04
540.966	5.03
541.311	5.25
541.656	5.18
542.001	5.1
542.346	5.14
542.691	5.05
543.036	5.09
543.381	4.93
543.726	4.96
544.071	5.02
544.415	5.06
544.76	5
545.105	5.12
545.449	5.05
545.794	5.16
546.138	5.14
546.483	5.09
546.827	5.2
547.171	5.1
547.516	5.25
547.86	5.28
548.204	5.25
548.548	5.29
548.892	5.19
549.236	5.25
549.58	5.25
549.924	5.35
550.268	5.36
550.612	5.28
550.956	5.3
551.3	5.5
551.643	5.56
551.987	5.46
552.33	5.63
552.674	5.56
553.017	5.47
553.361	5.66
553.704	5.51
554.048	5.72
554.391	5.56
554.734	5.69
555.077	5.61
555.42	5.55
555.764	5.66
556.107	5.63
556.45	5.65
556.793	5.75
557.135	5.75
557.478	5.75
557.821	5.76
558.164	5.96
558.507	5.87
558.849	5.92
559.192	5.67
559.534	5.75
559.877	5.98
560.219	5.89
560.562	5.89
560.904	5.95
561.246	5.9
561.589	5.81
561.931	6.13
562.273	5.77
562.615	6.02
562.957	6.02
563.299	6.08
563.641	6
563.983	6.16
564.325	6.05
564.667	5.98
565.008	6.06
565.35	6.32
565.692	6.27
566.033	6.04
566.375	6.25
566.716	6.19
567.058	6.24
567.399	5.94
567.741	6.32
568.082	6.02
568.423	6.25
568.764	6.18
569.105	6.39
569.447	6.43
569.788	6.34
570.129	6.19
570.47	6.31
570.811	6.33
571.151	6.19
571.492	6.39
571.833	6.39
572.174	6.52
572.514	6.54
572.855	6.54
573.195	6.38
573.536	6.65
573.876	6.28
574.217	6.59
574.557	6.62
574.898	6.62
575.238	6.67
575.578	6.68
575.918	6.72
576.258	6.83
576.598	6.83
576.938	6.67
577.278	6.69
577.618	6.76
577.958	6.74
578.298	6.89
578.638	6.73
578.977	6.95
579.317	6.79
579.657	6.99
579.996	6.98
580.336	6.99
580.675	7.15
581.014	7.16
581.354	7.06
581.693	7.09
582.032	7.16
582.372	7.19
582.711	7.33
583.05	6.74
583.389	7.24
583.728	7.33
584.067	7.3
584.406	7.13
584.745	7.33
585.083	7.38
585.422	7.09
585.761	7.51
586.1	7.31
586.438	7.34
586.777	7.52
587.115	7.55
587.454	7.56
587.792	7.43
588.13	7.62
588.469	7.58
588.807	7.67
589.145	7.56
589.483	7.72
589.821	7.56
590.159	7.7
590.497	7.64
590.835	7.78
591.173	7.8
591.511	7.63
591.849	7.98
592.187	7.75
592.524	7.8
592.862	7.91
593.2	7.82
593.537	8.01
593.875	8.23
594.212	8.12
594.55	8.24
594.887	7.96
595.224	8.12
595.561	7.77
595.899	7.72
596.236	8.31
596.573	8.35
596.91	8.15
597.247	8.43
597.584	8.2
597.921	8.29
598.258	8.28
598.594	8.06
598.931	8.19
599.268	8.25
599.604	8.39
599.941	8.44
600.277	8.36
600.614	8.66
600.95	8.39
601.287	8.68
601.623	8.66
601.959	8.73
602.296	8.53
602.632	8.6
602.968	8.66
603.304	8.74
603.64	8.61
603.976	8.83
604.312	8.72
604.648	8.57
604.984	8.5
605.319	8.78
605.655	8.84
605.991	9.17
606.326	9.04
606.662	9.01
606.998	8.94
607.333	8.87
607.668	9.1
608.004	8.95
608.339	9.21
608.674	8.98
609.01	9.43
609.345	9.38
609.68	9.26
610.015	9.25
610.35	9.33
610.685	9.41
611.02	9.46
611.355	9.68
611.689	9.22
612.024	9.42
612.359	9.38
612.694	9.54
613.028	9.5
613.363	9.28
613.697	9.3
614.032	9.71
614.366	9.62
614.7	9.77
615.035	9.58
615.369	9.72
615.703	9.57
616.037	9.92
616.371	9.71
616.705	9.72
617.039	9.58
617.373	9.57
617.707	9.8
618.041	10
618.375	10.03
618.709	9.96
619.042	9.94
619.376	9.99
619.71	9.96
620.043	10.29
620.377	10.3
620.71	10.37
621.043	10.35
621.377	10.58
621.71	10.51
622.043	9.96
622.376	10.33
622.709	10.38
623.043	10.46
623.376	10.76
623.709	10.49
624.041	10.72
624.374	10.59
624.707	10.46
625.04	10.44
625.373	10.71
625.705	11.02
626.038	10.81
626.37	11.01
626.703	10.95
627.035	10.71
627.368	10.98
627.7	11.11
628.032	11.07
628.365	10.65
628.697	11.12
629.029	11.07
629.361	11.12
629.693	11
630.025	11.14
630.357	11.08
630.689	11.4
631.021	11.75
631.353	11.21
631.684	11.56
632.016	10.93
632.348	11.48
632.679	11.32
633.011	11.35
633.342	11.26
633.674	11.73
634.005	11.35
634.336	11.13
634.668	11.78
634.999	11.65
635.33	11.57
635.661	11.51
635.992	11.73
636.323	12.12
636.654	11.78
636.985	11.6
637.316	11.84
637.647	12.05
637.977	11.71
638.308	11.98
638.639	11.68
638.969	11.82
639.3	12
639.63	12.26
639.961	12.16
640.291	12.13
640.622	12.43
640.952	11.68
641.282	12.01
641.612	12.27
641.943	11.94
642.273	12.84
642.603	12.15
642.933	11.9
643.263	13.05
643.592	11.77
643.922	12.31
644.252	12.43
644.582	12.76
644.911	12.67
645.241	12.89
645.571	12.49
645.9	12.6
646.23	12.57
646.559	12.25
646.888	12.84
647.218	12.4
647.547	12.73
647.876	12.86
648.205	13.06
648.534	13.07
648.863	12.96
649.192	13.63
649.521	13.29
649.85	13.16
650.179	13.73
650.508	13.51
650.837	13.18
651.165	12.92
651.494	13.26
651.822	13.3
652.151	13.63
652.479	13.92
652.808	13.38
653.136	13.14
653.465	13.36
653.793	13.44
654.121	13.67
654.449	13.9
654.777	13.22
655.105	13.78
655.433	13.43
655.761	13.42
656.089	13.63
656.417	13.43
656.745	13.76
657.073	13.15
657.4	14.23
657.728	14.28
658.056	14.05
658.383	14.09
658.711	14.39
659.038	13.79
659.365	13.67
659.693	14.12
660.02	13.75
660.347	14.39
660.674	14.47
661.001	14.83
661.329	14.28
661.656	14.26
661.982	14.28
662.309	14.53
662.636	14.43
662.963	14.8
663.29	14.81
663.616	14.18
663.943	14.42
664.27	14.95
664.596	14.25
664.923	14.81
665.249	14.89
665.576	14.8
665.902	14.88
666.228	14.37
666.554	14.72
666.881	14.8
667.207	14.96
667.533	15.21
667.859	14.87
668.185	14.53
668.511	15.01
668.837	14.57
669.162	15.17
669.488	15.12
669.814	15.1
670.139	15.16
670.465	15.64
670.791	15.51
671.116	15.25
671.442	15.62
671.767	14.78
672.092	16.15
672.418	15.32
672.743	15.7
673.068	15.09
673.393	15.9
673.718	14.95
674.043	15.6
674.368	15.75
674.693	15.54
675.018	15.81
675.343	15.73
675.667	16.08
675.992	16.09
676.317	15.83
676.641	15.8
676.966	16.07
677.29	15.86
677.615	16.38
677.939	15.85
678.264	15.88
678.588	15.69
678.912	16.54
679.236	15.55
679.56	15.83
679.885	15.95
680.209	15.97
680.532	16.58
680.856	16.21
681.18	16.37
681.504	16.54
681.828	16.46
682.152	16.73
682.475	17.02
682.799	16.82
683.122	16.58
683.446	16.39
683.769	17.12
684.093	16.71
684.416	17.23
684.739	16.2
685.062	17.12
685.386	16.86
685.709	17.17
686.032	16.62
686.355	16.79
686.678	17.47
687.001	17.13
