Data from 0139_chest_Reflection__0__183.txt Node

Date: Mon Aug 28 20:15:49 CDT 2023
User: ToomeyLab
Spectrometer: FLMS14357
Trigger mode: 0
Integration Time (sec): 1.000000E-2
Scans to average: 100
Electric dark correction enabled: true
Nonlinearity correction enabled: false
Boxcar width: 0
XAxis mode: Wavelengths
Number of Pixels in Spectrum: 2048
>>>>>Begin Spectral Data<<<<<
189.047	299.54
189.435	299.54
189.823	299.54
190.211	56.43
190.599	49.6
190.987	17.43
191.375	-597.42
191.763	68.24
192.151	-4.28
192.538	71.33
192.926	395.74
193.314	121.54
193.702	1914.59
194.089	124.81
194.477	-59.83
194.864	-61.68
195.252	-203.1
195.639	14.3
196.027	156.44
196.414	90.26
196.801	-37.74
197.189	2.28
197.576	-2.42
197.963	448.18
198.351	-59.61
198.738	-3.69
199.125	-19.02
199.512	17.94
199.899	-17.3
200.286	9.89
200.673	35.79
201.06	1.91
201.447	-26.55
201.833	-7.67
202.22	18.72
202.607	24.54
202.994	6.56
203.38	-27.12
203.767	-19.06
204.154	-26.42
204.54	-19.61
204.927	-67.16
205.313	54.91
205.699	-22.23
206.086	-20.11
206.472	-1.61
206.858	12.12
207.245	44.01
207.631	58.02
208.017	-1.1
208.403	-5.36
208.789	17.3
209.175	-41.9
209.561	40.31
209.947	28.21
210.333	11.9
210.719	24.02
211.105	36.71
211.491	30.56
211.876	33.85
212.262	8.25
212.648	17.86
213.034	-10.41
213.419	-10.91
213.805	36.1
214.19	10.47
214.576	15.76
214.961	-23.1
215.346	-5.04
215.732	27.95
216.117	-35.88
216.502	14.63
216.888	-80.54
217.273	17.11
217.658	17.18
218.043	-1.94
218.428	18.94
218.813	-9.03
219.198	-8.74
219.583	-26.14
219.968	3.59
220.353	4.19
220.738	40.89
221.122	4.48
221.507	-16.46
221.892	-4.23
222.276	-4.84
222.661	-14.19
223.046	0.97
223.43	-6.94
223.815	17.44
224.199	2.15
224.583	-3.43
224.968	3.47
225.352	9.91
225.736	5.25
226.121	2.35
226.505	1.83
226.889	2.73
227.273	11.9
227.657	1.88
228.041	3.01
228.425	1.74
228.809	2.94
229.193	2.24
229.577	7.95
229.961	1.42
230.344	5.52
230.728	2.97
231.112	4.14
231.495	5.21
231.879	4.84
232.263	4.53
232.646	3.58
233.03	5.01
233.413	6.3
233.797	4.74
234.18	3.33
234.563	-0.04
234.946	6.92
235.33	4.48
235.713	2.61
236.096	5.75
236.479	5.33
236.862	4.47
237.245	4.32
237.628	4.99
238.011	6.18
238.394	5.28
238.777	7.12
239.16	5.06
239.543	2.5
239.925	7.43
240.308	3.75
240.691	2.29
241.073	3.46
241.456	3.88
241.838	3.99
242.221	5.81
242.603	3.68
242.986	5.1
243.368	5
243.75	3.48
244.133	4.23
244.515	4.22
244.897	5.1
245.279	4.85
245.661	4.36
246.043	4.68
246.425	4.81
246.807	4.19
247.189	3.67
247.571	4.29
247.953	4.54
248.335	3.84
248.717	4.32
249.098	4.09
249.48	4.26
249.862	4.22
250.243	4.43
250.625	4.71
251.006	4.05
251.388	4.46
251.769	4.69
252.151	3.46
252.532	3.24
252.913	4.81
253.295	2.8
253.676	4.62
254.057	4.08
254.438	3.79
254.819	3.82
255.2	4.7
255.581	5.24
255.962	5.78
256.343	4.98
256.724	4.38
257.105	4.16
257.486	5.23
257.867	4.51
258.247	4.25
258.628	4.79
259.009	2.57
259.389	3.68
259.77	4.5
260.15	4.47
260.531	3.26
260.911	3.72
261.292	3.84
261.672	3.73
262.052	3.87
262.432	4.12
262.813	3.88
263.193	3.84
263.573	4.03
263.953	3.88
264.333	3.67
264.713	3.72
265.093	4.88
265.473	3.46
265.853	3.19
266.233	3.62
266.612	4.17
266.992	3.4
267.372	3.12
267.752	4.48
268.131	4.06
268.511	3.61
268.89	3.81
269.27	3.6
269.649	3.86
270.029	4.31
270.408	3.97
270.787	4.1
271.167	3.89
271.546	3.86
271.925	4.37
272.304	3.83
272.683	4.42
273.062	3.36
273.441	3.84
273.82	3.87
274.199	3.52
274.578	3.81
274.957	3.64
275.336	4.28
275.715	3.69
276.093	3.22
276.472	3.66
276.851	3.58
277.229	4.11
277.608	4.12
277.986	3.93
278.365	4
278.743	3.45
279.122	3.54
279.5	3.34
279.878	3.64
280.257	3.61
280.635	3.98
281.013	4.24
281.391	3.43
281.769	3.97
282.147	4.1
282.525	3.66
282.903	4
283.281	3.8
283.659	3.79
284.037	4.35
284.415	3.64
284.792	3.92
285.17	3.92
285.548	3.14
285.925	4.32
286.303	3.46
286.68	3.98
287.058	4.01
287.435	3.44
287.813	3.55
288.19	3.86
288.567	3.83
288.945	3.5
289.322	3.47
289.699	3.49
290.076	3.77
290.453	3.8
290.83	2.82
291.207	3.8
291.584	3.62
291.961	4.06
292.338	3.86
292.715	3.4
293.092	4.31
293.469	3.69
293.845	3.51
294.222	4.09
294.599	3.8
294.975	4.1
295.352	3.32
295.728	4.19
296.105	4.06
296.481	3.92
296.858	3.98
297.234	4.05
297.61	3.49
297.986	3.64
298.363	4.11
298.739	3.84
299.115	3.84
299.491	4.03
299.867	3.64
300.243	3.99
300.619	3.71
300.995	4.64
301.371	3.22
301.746	3.97
302.122	3.13
302.498	3.77
302.874	4.05
303.249	3.83
303.625	3.99
304	3.92
304.376	4.29
304.751	3.34
305.127	3.76
305.502	4.07
305.878	3.68
306.253	3.58
306.628	3.46
307.003	3.83
307.378	3.56
307.754	3.77
308.129	3.37
308.504	4.43
308.879	3.72
309.254	3.79
309.629	3.34
310.003	3.44
310.378	3.22
310.753	3.92
311.128	3.83
311.502	4.06
311.877	3.68
312.252	3.78
312.626	4
313.001	3.6
313.375	4.28
313.75	3.62
314.124	3.45
314.498	3.91
314.873	4.14
315.247	3.71
315.621	3.36
315.995	4.64
316.369	3.99
316.743	3.46
317.117	3.66
317.491	3.54
317.865	3.3
318.239	3.81
318.613	3.37
318.987	3.39
319.361	3.54
319.734	3.74
320.108	4.46
320.482	3.81
320.855	3.9
321.229	3.28
321.602	4.18
321.976	3.67
322.349	3.88
322.723	3.48
323.096	4.68
323.469	3.44
323.843	3.52
324.216	4.19
324.589	3.86
324.962	3.9
325.335	3.54
325.708	3.65
326.081	3.41
326.454	4.09
326.827	3.47
327.2	3.35
327.573	3.48
327.945	4.54
328.318	4.24
328.691	3.5
329.063	2.9
329.436	4.17
329.809	4.44
330.181	3.7
330.553	3.51
330.926	3.53
331.298	4.54
331.671	3.79
332.043	3.57
332.415	4.54
332.787	3.73
333.159	3.73
333.532	4.05
333.904	4
334.276	3.58
334.648	4.03
335.02	4.5
335.391	3.89
335.763	3.75
336.135	4.08
336.507	3.63
336.879	3.21
337.25	4.1
337.622	3.45
337.993	3.64
338.365	3.57
338.736	3.81
339.108	3.32
339.479	3.34
339.851	4.11
340.222	4.29
340.593	3.68
340.964	4.02
341.336	3.82
341.707	3.75
342.078	3.7
342.449	4.26
342.82	3.91
343.191	3.6
343.562	3.51
343.933	3.82
344.303	3.8
344.674	3.89
345.045	3.78
345.416	4.17
345.786	3.92
346.157	3.52
346.527	3.49
346.898	3.85
347.268	3.85
347.639	3.1
348.009	3.75
348.38	3.58
348.75	3.99
349.12	4
349.49	4.06
349.861	3.31
350.231	3.54
350.601	4.19
350.971	3.91
351.341	3.92
351.711	3.74
352.081	3.93
352.45	3.88
352.82	3.97
353.19	4.44
353.56	3.84
353.929	4.15
354.299	3.46
354.669	3.97
355.038	3.97
355.408	3.9
355.777	3.77
356.147	3.69
356.516	4.07
356.885	4.13
357.254	3.76
357.624	3.92
357.993	3.92
358.362	3.61
358.731	4.15
359.1	4.15
359.469	4.15
359.838	3.65
360.207	3.69
360.576	4.03
360.945	3.85
361.314	3.55
361.682	3.69
362.051	3.85
362.42	3.72
362.788	3.8
363.157	4.1
363.525	3.75
363.894	3.87
364.262	3.94
364.631	3.5
364.999	3.7
365.367	3.89
365.735	3.72
366.104	3.85
366.472	3.6
366.84	3.72
367.208	4.13
367.576	3.71
367.944	4.32
368.312	4.01
368.68	3.77
369.048	4.01
369.416	3.91
369.783	3.78
370.151	3.9
370.519	3.89
370.886	3.43
371.254	3.4
371.621	3.89
371.989	3.86
372.356	3.92
372.724	4.26
373.091	4.14
373.458	3.88
373.826	4.06
374.193	3.82
374.56	3.94
374.927	3.7
375.294	4
375.661	4.21
376.028	3.98
376.395	3.64
376.762	4.06
377.129	4.13
377.496	3.86
377.863	3.93
378.229	3.95
378.596	4.16
378.963	4.31
379.329	3.99
379.696	3.71
380.062	3.88
380.429	3.55
380.795	4.22
381.161	4.01
381.528	3.94
381.894	3.93
382.26	3.9
382.626	4.08
382.993	3.88
383.359	4.06
383.725	3.99
384.091	3.94
384.457	3.88
384.823	4.08
385.188	3.82
385.554	3.93
385.92	3.55
386.286	4.03
386.651	4.14
387.017	3.97
387.383	3.99
387.748	3.7
388.114	3.6
388.479	3.71
388.845	3.74
389.21	3.82
389.575	3.94
389.94	3.77
390.306	3.96
390.671	3.87
391.036	3.86
391.401	3.9
391.766	4.18
392.131	3.87
392.496	3.78
392.861	3.64
393.226	3.92
393.591	3.56
393.956	3.99
394.32	3.8
394.685	3.99
395.05	3.84
395.414	3.95
395.779	3.81
396.143	3.88
396.508	3.75
396.872	4.21
397.236	3.89
397.601	3.97
397.965	4.14
398.329	3.99
398.694	4.2
399.058	3.98
399.422	4.13
399.786	3.97
400.15	4.09
400.514	3.98
400.878	4.03
401.242	3.95
401.605	4.01
401.969	3.86
402.333	3.71
402.697	3.91
403.06	4.07
403.424	4.22
403.787	3.91
404.151	3.65
404.514	4.04
404.878	3.81
405.241	4.27
405.604	4.08
405.968	3.87
406.331	4.14
406.694	3.88
407.057	3.94
407.42	3.84
407.783	3.88
408.146	3.77
408.509	4.06
408.872	3.86
409.235	3.99
409.598	3.84
409.961	3.73
410.323	3.92
410.686	3.9
411.049	4.23
411.411	3.96
411.774	3.96
412.136	3.93
412.499	3.9
412.861	3.84
413.223	3.82
413.586	3.92
413.948	3.89
414.31	3.95
414.672	4.01
415.035	3.93
415.397	3.92
415.759	3.9
416.121	4.01
416.483	3.86
416.845	4.09
417.206	4.24
417.568	3.96
417.93	3.9
418.292	4.26
418.653	3.84
419.015	3.9
419.377	3.74
419.738	4.19
420.1	3.95
420.461	3.9
420.822	4
421.184	3.96
421.545	4.02
421.906	3.89
422.267	3.85
422.629	3.79
422.99	3.84
423.351	4.04
423.712	3.84
424.073	3.89
424.434	3.97
424.795	3.87
425.155	3.94
425.516	3.97
425.877	3.9
426.238	3.85
426.598	3.81
426.959	3.98
427.32	3.95
427.68	3.96
428.041	3.88
428.401	4.07
428.761	4.07
429.122	4.09
429.482	3.98
429.842	4.1
430.202	4.08
430.563	4.01
430.923	4.3
431.283	3.81
431.643	3.89
432.003	3.86
432.363	4.08
432.722	3.91
433.082	4.07
433.442	4.01
433.802	3.9
434.161	4.09
434.521	3.98
434.881	3.96
435.24	3.98
435.6	3.99
435.959	4.13
436.319	4.22
436.678	3.91
437.037	3.97
437.396	4.08
437.756	4.02
438.115	4.16
438.474	4.07
438.833	4.04
439.192	4.14
439.551	4.07
439.91	4.17
440.269	4.18
440.628	4.08
440.987	3.92
441.345	4.08
441.704	4.01
442.063	3.94
442.421	3.9
442.78	3.98
443.138	4.04
443.497	3.97
443.855	4.02
444.214	3.96
444.572	4.04
444.93	4.03
445.288	3.94
445.647	4.19
446.005	4.25
446.363	4.12
446.721	4.15
447.079	4.04
447.437	3.88
447.795	3.99
448.153	4
448.51	4.03
448.868	4.03
449.226	4.04
449.584	4.02
449.941	3.99
450.299	4.12
450.656	4.12
451.014	4.05
451.371	4.09
451.729	4
452.086	4.14
452.443	4.33
452.801	4.17
453.158	4.26
453.515	4.19
453.872	3.97
454.229	4.21
454.586	4.28
454.943	4.13
455.3	4.19
455.657	4.23
456.014	4.18
456.371	4.21
456.727	4.17
457.084	4.16
457.441	4.16
457.797	4.06
458.154	4.04
458.51	4.34
458.867	4.12
459.223	4.21
459.58	4.14
459.936	4.14
460.292	4.23
460.648	4.13
461.005	4.06
461.361	4.25
461.717	4.09
462.073	4.05
462.429	4.06
462.785	4.16
463.141	4.14
463.496	4.33
463.852	4.15
464.208	4.25
464.564	4.15
464.919	4.25
465.275	4.31
465.631	4.13
465.986	4.32
466.342	4.2
466.697	3.96
467.052	4.13
467.408	4.28
467.763	4
468.118	4.12
468.473	4.2
468.829	4.3
469.184	4.09
469.539	4.18
469.894	4.22
470.249	4.22
470.603	4.22
470.958	4.3
471.313	4.3
471.668	4.26
472.023	4.35
472.377	4.4
472.732	4.28
473.086	4.11
473.441	4.17
473.795	4.2
474.15	4.4
474.504	4.33
474.859	4.3
475.213	4.39
475.567	4.22
475.921	4.47
476.275	4.31
476.63	4.22
476.984	4.35
477.338	4.36
477.692	4.41
478.045	4.25
478.399	4.33
478.753	4.22
479.107	4.31
479.461	4.26
479.814	4.45
480.168	4.32
480.521	4.31
480.875	4.36
481.228	4.15
481.582	4.29
481.935	4.26
482.289	4.4
482.642	4.45
482.995	4.33
483.348	4.35
483.701	4.31
484.055	4.16
484.408	4.25
484.761	4.21
485.114	4.14
485.466	4.08
485.819	3.98
486.172	3.98
486.525	4.03
486.878	4.07
487.23	4.18
487.583	4.28
487.936	4.24
488.288	4.26
488.641	4.21
488.993	4.23
489.345	4.1
489.698	4.17
490.05	4.12
490.402	4.09
490.754	4.19
491.107	4.25
491.459	4.22
491.811	4.3
492.163	4.32
492.515	4.3
492.866	4.28
493.218	4.27
493.57	4.22
493.922	4.14
494.274	4.2
494.625	4.2
494.977	4.38
495.328	4.45
495.68	4.31
496.031	4.38
496.383	4.32
496.734	4.46
497.086	4.57
497.437	4.54
497.788	4.47
498.139	4.44
498.49	4.45
498.842	4.46
499.193	4.35
499.544	4.48
499.894	4.41
500.245	4.4
500.596	4.53
500.947	4.48
501.298	4.54
501.648	4.33
501.999	4.56
502.35	4.47
502.7	4.5
503.051	4.56
503.401	4.6
503.752	4.51
504.102	4.47
504.452	4.6
504.803	4.64
505.153	4.58
505.503	4.44
505.853	4.44
506.203	4.5
506.553	4.44
506.903	4.77
507.253	4.59
507.603	4.57
507.953	4.57
508.303	4.62
508.652	4.75
509.002	4.66
509.352	4.45
509.701	4.55
510.051	4.43
510.4	4.56
510.75	4.63
511.099	4.56
511.449	4.58
511.798	4.64
512.147	4.65
512.496	4.63
512.846	4.58
513.195	4.52
513.544	4.73
513.893	4.64
514.242	4.74
514.591	4.69
514.939	4.55
515.288	4.76
515.637	4.7
515.986	4.63
516.334	4.7
516.683	4.85
517.032	4.67
517.38	4.84
517.729	4.76
518.077	4.72
518.426	4.72
518.774	4.71
519.122	4.75
519.47	4.67
519.819	4.62
520.167	4.79
520.515	4.76
520.863	4.59
521.211	4.67
521.559	4.75
521.907	4.76
522.255	4.59
522.602	4.71
522.95	4.82
523.298	4.8
523.645	4.85
523.993	4.85
524.341	5.02
524.688	4.98
525.036	4.9
525.383	4.88
525.73	4.84
526.078	4.94
526.425	5
526.772	4.88
527.119	4.92
527.466	4.74
527.814	4.77
528.161	4.75
528.508	4.81
528.854	4.86
529.201	4.9
529.548	4.9
529.895	4.84
530.242	4.72
530.588	4.67
530.935	4.69
531.282	4.74
531.628	4.74
531.975	4.87
532.321	4.93
532.667	4.88
533.014	5.04
533.36	5.06
533.706	5.04
534.052	4.99
534.399	5.05
534.745	5.09
535.091	4.9
535.437	4.92
535.783	4.95
536.129	4.94
536.474	5.06
536.82	5.14
537.166	5.08
537.512	5.14
537.857	5.17
538.203	5.05
538.549	5.05
538.894	5.1
539.239	5.04
539.585	5.17
539.93	5.22
540.276	5.18
540.621	5.2
540.966	5.26
541.311	5.35
541.656	5.31
542.001	5.35
542.346	5.24
542.691	5.19
543.036	5.2
543.381	5.13
543.726	5.14
544.071	5.17
544.415	5.26
544.76	5.31
545.105	5.4
545.449	5.28
545.794	5.42
546.138	5.44
546.483	5.39
546.827	5.47
547.171	5.45
547.516	5.49
547.86	5.48
548.204	5.61
548.548	5.52
548.892	5.48
549.236	5.5
549.58	5.48
549.924	5.49
550.268	5.64
550.612	5.65
550.956	5.7
551.3	5.77
551.643	5.76
551.987	5.61
552.33	5.72
552.674	5.74
553.017	5.8
553.361	5.73
553.704	5.78
554.048	5.85
554.391	5.93
554.734	5.95
555.077	5.79
555.42	5.91
555.764	5.97
556.107	5.85
556.45	5.91
556.793	5.85
557.135	5.99
557.478	6.02
557.821	6.01
558.164	6.19
558.507	5.86
558.849	6.23
559.192	6
559.534	5.98
559.877	6.06
560.219	6.04
560.562	6
560.904	6.28
561.246	5.96
561.589	6.22
561.931	6.17
562.273	6.19
562.615	6.12
562.957	6.34
563.299	6.26
563.641	6.15
563.983	6.3
564.325	6.4
564.667	6.25
565.008	6.34
565.35	6.41
565.692	6.44
566.033	6.42
566.375	6.37
566.716	6.36
567.058	6.44
567.399	6.47
567.741	6.61
568.082	6.38
568.423	6.55
568.764	6.41
569.105	6.69
569.447	6.38
569.788	6.56
570.129	6.55
570.47	6.48
570.811	6.76
571.151	6.47
571.492	6.56
571.833	6.52
572.174	6.7
572.514	6.8
572.855	6.8
573.195	6.75
573.536	6.83
573.876	6.66
574.217	6.72
574.557	6.86
574.898	6.87
575.238	6.82
575.578	6.83
575.918	6.94
576.258	6.85
576.598	6.96
576.938	6.94
577.278	6.97
577.618	6.76
577.958	6.97
578.298	7.2
578.638	7.04
578.977	7.16
579.317	7.09
579.657	7.29
579.996	7.31
580.336	7.31
580.675	7.15
581.014	7.31
581.354	7.17
581.693	7.4
582.032	7.51
582.372	7.31
582.711	7.53
583.05	7.6
583.389	7.64
583.728	7.61
584.067	7.71
584.406	7.32
584.745	7.52
585.083	7.62
585.422	7.63
585.761	7.73
586.1	7.82
586.438	7.61
586.777	7.76
587.115	7.98
587.454	7.64
587.792	7.84
588.13	7.9
588.469	7.84
588.807	7.82
589.145	7.99
589.483	7.94
589.821	7.82
590.159	8.11
590.497	8.15
590.835	7.84
591.173	7.91
591.511	8.09
591.849	8.02
592.187	8.14
592.524	8.2
592.862	8.34
593.2	8.09
593.537	8.19
593.875	8.26
594.212	8.31
594.55	8.59
594.887	8.07
595.224	8.34
595.561	7.86
595.899	8.11
596.236	8.55
596.573	8.63
596.91	8.58
597.247	8.38
597.584	8.34
597.921	8.57
598.258	8.49
598.594	8.66
598.931	8.46
599.268	8.63
599.604	8.55
599.941	8.45
600.277	8.68
600.614	8.81
600.95	8.78
601.287	8.9
601.623	8.98
601.959	8.96
602.296	8.72
602.632	9.14
602.968	9.01
603.304	8.99
603.64	8.94
603.976	8.97
604.312	8.78
604.648	9.06
604.984	8.97
605.319	9.01
605.655	9.22
605.991	8.98
606.326	9.08
606.662	9.18
606.998	9.13
607.333	9.05
607.668	9.2
608.004	9.17
608.339	9.32
608.674	9.08
609.01	9.42
609.345	9.35
609.68	9.5
610.015	9.8
610.35	9.78
610.685	9.48
611.02	9.36
611.355	9.76
611.689	9.6
612.024	9.69
612.359	9.61
612.694	9.76
613.028	9.67
613.363	9.5
613.697	9.9
614.032	9.72
614.366	9.72
614.7	10.07
615.035	9.92
615.369	10.11
615.703	9.98
616.037	10.23
616.371	9.96
616.705	10
617.039	10.27
617.373	9.94
617.707	10.08
618.041	10.3
618.375	10.24
618.709	10.2
619.042	10.3
619.376	10.38
619.71	10.26
620.043	10.23
620.377	10.65
620.71	10.31
621.043	10.24
621.377	10.53
621.71	10.37
622.043	10.33
622.376	10.6
622.709	10.48
623.043	10.92
623.376	10.91
623.709	10.99
624.041	10.84
624.374	10.51
624.707	10.54
625.04	10.6
625.373	10.82
625.705	11.01
626.038	11.1
626.37	11.16
626.703	11.26
627.035	11.24
627.368	11.2
627.7	11.26
628.032	11.03
628.365	10.84
628.697	11.29
629.029	11.36
629.361	11.22
629.693	11.36
630.025	11.52
630.357	11.36
630.689	11.36
631.021	11.48
631.353	11.17
631.684	11.83
632.016	11.37
632.348	11.57
632.679	11.77
633.011	11.31
633.342	11.43
633.674	11.69
634.005	11.8
634.336	11.69
634.668	11.79
634.999	11.91
635.33	11.99
635.661	11.96
635.992	11.85
636.323	11.96
636.654	11.92
636.985	11.81
637.316	11.95
637.647	12.17
637.977	11.88
638.308	12.37
638.639	12.09
638.969	12.46
639.3	11.97
639.63	12.16
639.961	12.52
640.291	12.29
640.622	12.52
640.952	12.27
641.282	11.99
641.612	12.75
641.943	12.73
642.273	12.95
642.603	12.31
642.933	12.14
643.263	12.77
643.592	12.51
643.922	12.51
644.252	12.66
644.582	12.89
644.911	12.91
645.241	13.05
645.571	12.76
645.9	12.51
646.23	12.75
646.559	12.92
646.888	13.1
647.218	12.93
647.547	13.07
647.876	13.61
648.205	12.99
648.534	13.44
648.863	13.39
649.192	13.88
649.521	13.22
649.85	13.37
650.179	13.2
650.508	13.57
650.837	12.68
651.165	13.59
651.494	13.45
651.822	13.71
652.151	12.97
652.479	14.06
652.808	13.64
653.136	13.52
653.465	14.13
653.793	13.84
654.121	13.84
654.449	13.68
654.777	13.54
655.105	13.91
655.433	13.58
655.761	13.7
656.089	14.09
656.417	13.58
656.745	14.24
657.073	13.76
657.4	14.14
657.728	14.36
658.056	14.18
658.383	14.2
658.711	14.59
659.038	14.57
659.365	14.65
659.693	14.29
660.02	14.29
660.347	14.31
660.674	14.33
661.001	14.93
661.329	14.04
661.656	14.36
661.982	14.83
662.309	14.74
662.636	14.87
662.963	14.63
663.29	15.16
663.616	14.74
663.943	14.96
664.27	15.12
664.596	14.82
664.923	15.32
665.249	15.37
665.576	15.11
665.902	14.93
666.228	15.02
666.554	15.29
666.881	15.19
667.207	14.87
667.533	14.94
667.859	14.58
668.185	15.11
668.511	15.62
668.837	14.7
669.162	15.67
669.488	14.95
669.814	15.53
670.139	15.7
670.465	15.67
670.791	15.32
671.116	15.69
671.442	15.53
671.767	15.19
672.092	15.72
672.418	15.85
672.743	16.13
673.068	15.38
673.393	16.34
673.718	15.7
674.043	15.41
674.368	16.06
674.693	15.82
675.018	16.47
675.343	16
675.667	16.47
675.992	16
676.317	15.48
676.641	15.95
676.966	16.08
677.29	15.99
677.615	16.98
677.939	16.51
678.264	16.11
678.588	16.84
678.912	16.34
679.236	16.13
679.56	15.85
679.885	16.5
680.209	16.11
680.532	16.68
680.856	16.28
681.18	16.64
681.504	16.08
681.828	17.03
682.152	16.6
682.475	16.35
682.799	17.22
683.122	16.81
683.446	17.19
683.769	17.13
684.093	17.28
684.416	17.31
684.739	16.69
685.062	17.41
685.386	16.65
685.709	17.23
686.032	16.84
686.355	16.99
686.678	17.59
687.001	17.34
687.324	17.03
687.646	17.28
687.969	17.28
