Data from 0139_chest_Reflection__3__186.txt Node

Date: Mon Aug 28 20:16:59 CDT 2023
User: ToomeyLab
Spectrometer: FLMS14357
Trigger mode: 0
Integration Time (sec): 1.000000E-2
Scans to average: 100
Electric dark correction enabled: true
Nonlinearity correction enabled: false
Boxcar width: 0
XAxis mode: Wavelengths
Number of Pixels in Spectrum: 2048
>>>>>Begin Spectral Data<<<<<
189.047	135.99
189.435	135.99
189.823	135.99
190.211	-78.07
190.599	80.62
190.987	95.8
191.375	70.45
191.763	134.07
192.151	-98.91
192.538	55.66
192.926	143.41
193.314	15.09
193.702	85.41
194.089	94.07
194.477	-170.57
194.864	-2.4
195.252	-166.97
195.639	197.17
196.027	173.64
196.414	64.28
196.801	-21.25
197.189	48.93
197.576	-68.28
197.963	2976.64
198.351	45.62
198.738	12.96
199.125	-24.5
199.512	20.53
199.899	-7.45
200.286	14.66
200.673	-3.39
201.06	10.44
201.447	-51.15
201.833	51.75
202.22	-14.82
202.607	-10.63
202.994	15.55
203.38	-8.53
203.767	8.52
204.154	-15.26
204.54	-6.17
204.927	14.2
205.313	22.99
205.699	-41.34
206.086	34.93
206.472	6.23
206.858	-13.82
207.245	-17.94
207.631	54.25
208.017	-4.34
208.403	33.54
208.789	-7.08
209.175	-53.86
209.561	24.05
209.947	15.18
210.333	-8.42
210.719	10.48
211.105	29.87
211.491	28.43
211.876	37.18
212.262	-6.73
212.648	24.63
213.034	-11.24
213.419	-6.93
213.805	-28.95
214.19	-15.83
214.576	2.35
214.961	-22.04
215.346	7.18
215.732	35.92
216.117	-0.59
216.502	-1.56
216.888	-59.55
217.273	-71.62
217.658	22.1
218.043	-7.95
218.428	-8.28
218.813	-32.74
219.198	3.18
219.583	-17.61
219.968	24.98
220.353	5.66
220.738	24.08
221.122	-7.92
221.507	-20.14
221.892	-10.57
222.276	13.23
222.661	-8.24
223.046	9.49
223.43	3.22
223.815	14.86
224.199	22.78
224.583	1.04
224.968	18.6
225.352	10.59
225.736	3.57
226.121	10.35
226.505	-0.68
226.889	7.56
227.273	7.91
227.657	6.94
228.041	6.5
228.425	3.81
228.809	9.45
229.193	4.38
229.577	9.78
229.961	6.34
230.344	6.11
230.728	6.72
231.112	5.36
231.495	5.59
231.879	5.26
232.263	5.8
232.646	4.97
233.03	4.3
233.413	7.15
233.797	3.91
234.18	7.94
234.563	6.23
234.946	6.76
235.33	7.86
235.713	3.66
236.096	7.21
236.479	5.58
236.862	5.71
237.245	4.45
237.628	5.18
238.011	7.64
238.394	4.96
238.777	7.02
239.16	4.29
239.543	3.29
239.925	5.56
240.308	2.55
240.691	2.57
241.073	3.25
241.456	3.69
241.838	5.81
242.221	6.96
242.603	5.12
242.986	6.43
243.368	5.47
243.75	4.75
244.133	5
244.515	4.88
244.897	5.28
245.279	5.42
245.661	4.32
246.043	5.06
246.425	4.12
246.807	6.28
247.189	3.32
247.571	4.87
247.953	5.91
248.335	4.8
248.717	4.92
249.098	4.72
249.48	5.09
249.862	4.75
250.243	4.89
250.625	4.97
251.006	5.28
251.388	4.83
251.769	4.86
252.151	5.52
252.532	4.52
252.913	5.03
253.295	3.7
253.676	5.01
254.057	5.09
254.438	4.22
254.819	4.05
255.2	5.31
255.581	5.62
255.962	5.27
256.343	5.74
256.724	3.42
257.105	3.94
257.486	4.64
257.867	4.85
258.247	4.61
258.628	5.33
259.009	4.4
259.389	3.83
259.77	5.27
260.15	4.42
260.531	4.65
260.911	4.17
261.292	4.52
261.672	4.56
262.052	4.25
262.432	4.25
262.813	4.65
263.193	4.27
263.573	4.14
263.953	4.95
264.333	4.28
264.713	3.8
265.093	5.11
265.473	4.74
265.853	4.48
266.233	3.71
266.612	4.76
266.992	4.62
267.372	4.33
267.752	5.26
268.131	4.55
268.511	3.85
268.89	4.7
269.27	4.04
269.649	3.72
270.029	4.9
270.408	4.78
270.787	5.24
271.167	4.25
271.546	3.88
271.925	4.48
272.304	4.25
272.683	4.89
273.062	3.95
273.441	4.68
273.82	4.43
274.199	3.82
274.578	4.14
274.957	4.1
275.336	4.36
275.715	4.39
276.093	3.27
276.472	3.97
276.851	3.97
277.229	4.44
277.608	4.42
277.986	3.63
278.365	4.48
278.743	4.47
279.122	4.21
279.5	3.58
279.878	3.89
280.257	4.44
280.635	4.43
281.013	3.55
281.391	3.91
281.769	4.11
282.147	4.55
282.525	4.41
282.903	4.19
283.281	4.13
283.659	4.74
284.037	4.7
284.415	3.53
284.792	4.26
285.17	3.64
285.548	3.88
285.925	4.23
286.303	4.17
286.68	4.06
287.058	4.09
287.435	3.73
287.813	4.2
288.19	4.43
288.567	4.05
288.945	4.07
289.322	4.25
289.699	4.1
290.076	4.5
290.453	3.92
290.83	3.49
291.207	3.74
291.584	3.84
291.961	4.17
292.338	3.96
292.715	3.73
293.092	4.33
293.469	3.95
293.845	3.88
294.222	3.84
294.599	3.9
294.975	4.31
295.352	3.7
295.728	4.37
296.105	3.83
296.481	4.01
296.858	4.21
297.234	3.84
297.61	4.14
297.986	3.61
298.363	4.17
298.739	3.77
299.115	3.79
299.491	4.22
299.867	4.01
300.243	4.1
300.619	4.02
300.995	4.59
301.371	3.71
301.746	4.36
302.122	3.67
302.498	4.25
302.874	4.02
303.249	3.72
303.625	3.61
304	4.2
304.376	3.94
304.751	3.71
305.127	4.12
305.502	4
305.878	3.96
306.253	3.88
306.628	4.07
307.003	3.83
307.378	3.6
307.754	4.46
308.129	4.64
308.504	4.52
308.879	4.04
309.254	4.05
309.629	4.03
310.003	3.64
310.378	3.46
310.753	4.1
311.128	4.45
311.502	3.9
311.877	3.87
312.252	4.2
312.626	3.67
313.001	4.01
313.375	3.79
313.75	3.68
314.124	3.91
314.498	3.55
314.873	4.23
315.247	4.39
315.621	3.41
315.995	4.53
316.369	4.48
316.743	3.33
317.117	3.99
317.491	3.35
317.865	3.96
318.239	4.23
318.613	3.88
318.987	3.88
319.361	4.27
319.734	3.66
320.108	3.78
320.482	3.85
320.855	3.34
321.229	3.49
321.602	4.24
321.976	3.97
322.349	3.96
322.723	3.56
323.096	4.31
323.469	3.95
323.843	3.75
324.216	3.93
324.589	4.08
324.962	3.63
325.335	4.34
325.708	3.81
326.081	3.51
326.454	4.04
326.827	4.28
327.2	3.52
327.573	3.31
327.945	4.62
328.318	3.96
328.691	3.47
329.063	3.63
329.436	3.42
329.809	4.36
330.181	3.58
330.553	3.47
330.926	3.9
331.298	3.63
331.671	3.49
332.043	3.84
332.415	4.41
332.787	3.63
333.159	3.87
333.532	3.98
333.904	4.23
334.276	3.73
334.648	3.8
335.02	4.22
335.391	3.81
335.763	3.52
336.135	4.05
336.507	3.36
336.879	3.45
337.25	3.97
337.622	3.79
337.993	3.79
338.365	3.97
338.736	4.11
339.108	3.14
339.479	2.87
339.851	3.86
340.222	4.19
340.593	3.63
340.964	3.77
341.336	4.22
341.707	3.76
342.078	3.91
342.449	3.62
342.82	3.62
343.191	3.89
343.562	3.62
343.933	3.67
344.303	3.93
344.674	3.95
345.045	4.11
345.416	4.03
345.786	4.29
346.157	4.14
346.527	3.74
346.898	3.7
347.268	3.7
347.639	3.49
348.009	3.76
348.38	4.21
348.75	3.88
349.12	4.12
349.49	3.41
349.861	3.44
350.231	3.65
350.601	3.97
350.971	4.01
351.341	3.92
351.711	3.7
352.081	3.69
352.45	3.82
352.82	3.77
353.19	4.32
353.56	4
353.929	4.15
354.299	3.33
354.669	3.8
355.038	4.1
355.408	4.08
355.777	3.71
356.147	3.92
356.516	4.01
356.885	4.14
357.254	3.83
357.624	3.97
357.993	4.21
358.362	3.89
358.731	3.93
359.1	3.99
359.469	4.27
359.838	3.7
360.207	4
360.576	4.14
360.945	3.98
361.314	3.74
361.682	3.69
362.051	4.23
362.42	4.01
362.788	3.94
363.157	3.99
363.525	3.78
363.894	4
364.262	4.04
364.631	4.04
364.999	4.09
365.367	4.02
365.735	3.81
366.104	3.77
366.472	4.01
366.84	4.21
367.208	4.04
367.576	3.86
367.944	4.14
368.312	4.52
368.68	4.31
369.048	4.03
369.416	3.68
369.783	3.82
370.151	4.11
370.519	3.99
370.886	3.75
371.254	3.94
371.621	3.89
371.989	4.05
372.356	3.85
372.724	4.33
373.091	4.09
373.458	4.05
373.826	4.22
374.193	3.96
374.56	4.05
374.927	3.49
375.294	4.17
375.661	4.14
376.028	4.07
376.395	3.83
376.762	4.28
377.129	3.81
377.496	4.06
377.863	3.92
378.229	3.59
378.596	4.33
378.963	4.31
379.329	4.43
379.696	4.17
380.062	4.07
380.429	4.09
380.795	4.45
381.161	4.3
381.528	4.25
381.894	4.3
382.26	3.99
382.626	4.35
382.993	4.24
383.359	4.11
383.725	4.1
384.091	4.19
384.457	4.15
384.823	4.02
385.188	4.19
385.554	3.9
385.92	3.96
386.286	4.41
386.651	4.01
387.017	4.13
387.383	4.17
387.748	3.95
388.114	3.94
388.479	4.16
388.845	4.02
389.21	4.05
389.575	4.13
389.94	4.12
390.306	4.12
390.671	3.95
391.036	3.96
391.401	4.21
391.766	4.31
392.131	4.24
392.496	4.02
392.861	4.1
393.226	4.05
393.591	4.04
393.956	4.16
394.32	4.1
394.685	4.19
395.05	4.02
395.414	4.17
395.779	4.33
396.143	4.12
396.508	3.91
396.872	4.34
397.236	4.23
397.601	4.04
397.965	4.15
398.329	4.24
398.694	4.24
399.058	3.89
399.422	4.27
399.786	4.12
400.15	4.59
400.514	4.23
400.878	4.1
401.242	4
401.605	4.04
401.969	4.08
402.333	4.06
402.697	4.21
403.06	4.4
403.424	4.45
403.787	3.99
404.151	4.2
404.514	4.21
404.878	4.33
405.241	4.27
405.604	4.34
405.968	3.96
406.331	4.24
406.694	4.17
407.057	4.37
407.42	4.08
407.783	4.11
408.146	4.11
408.509	4.19
408.872	4.15
409.235	4.31
409.598	4.42
409.961	4.2
410.323	4.3
410.686	4.26
411.049	4.28
411.411	4.28
411.774	4.29
412.136	4.1
412.499	4.14
412.861	4.31
413.223	3.99
413.586	3.97
413.948	4.05
414.31	4.11
414.672	3.99
415.035	4.12
415.397	4.15
415.759	4.28
416.121	4.4
416.483	4.24
416.845	4.44
417.206	4.4
417.568	4.32
417.93	4.15
418.292	4.31
418.653	4.23
419.015	4.26
419.377	4.02
419.738	4.3
420.1	4.28
420.461	4.29
420.822	4.28
421.184	4.31
421.545	4.26
421.906	4.11
422.267	4.15
422.629	4.11
422.99	4.16
423.351	4.19
423.712	4.16
424.073	4.2
424.434	4.16
424.795	4.21
425.155	4.19
425.516	4.21
425.877	4.14
426.238	4.11
426.598	4.12
426.959	4.19
427.32	4.22
427.68	4.26
428.041	4.24
428.401	4.23
428.761	4.14
429.122	4.17
429.482	4.36
429.842	4.42
430.202	4.42
430.563	4.32
430.923	4.38
431.283	4.18
431.643	4.12
432.003	4.32
432.363	4.38
432.722	4.27
433.082	4.17
433.442	4.34
433.802	4.35
434.161	4.37
434.521	4.26
434.881	4.28
435.24	4.31
435.6	4.29
435.959	4.27
436.319	4.26
436.678	4.22
437.037	4.26
437.396	4.34
437.756	4.25
438.115	4.41
438.474	4.32
438.833	4.39
439.192	4.33
439.551	4.27
439.91	4.29
440.269	4.14
440.628	4.09
440.987	4.26
441.345	4.29
441.704	4.39
442.063	4.19
442.421	4.27
442.78	4.28
443.138	4.3
443.497	4.25
443.855	4.25
444.214	4.3
444.572	4.38
444.93	4.45
445.288	4.3
445.647	4.22
446.005	4.39
446.363	4.31
446.721	4.33
447.079	4.33
447.437	4.19
447.795	4.26
448.153	4.3
448.51	4.33
448.868	4.3
449.226	4.23
449.584	4.23
449.941	4.28
450.299	4.35
450.656	4.25
451.014	4.24
451.371	4.32
451.729	4.17
452.086	4.26
452.443	4.53
452.801	4.47
453.158	4.39
453.515	4.39
453.872	4.29
454.229	4.48
454.586	4.56
454.943	4.37
455.3	4.33
455.657	4.38
456.014	4.43
456.371	4.44
456.727	4.39
457.084	4.29
457.441	4.42
457.797	4.25
458.154	4.37
458.51	4.58
458.867	4.33
459.223	4.5
459.58	4.23
459.936	4.51
460.292	4.28
460.648	4.48
461.005	4.26
461.361	4.39
461.717	4.33
462.073	4.33
462.429	4.28
462.785	4.36
463.141	4.36
463.496	4.47
463.852	4.46
464.208	4.38
464.564	4.24
464.919	4.41
465.275	4.6
465.631	4.43
465.986	4.6
466.342	4.45
466.697	4.54
467.052	4.45
467.408	4.52
467.763	4.38
468.118	4.4
468.473	4.49
468.829	4.53
469.184	4.32
469.539	4.45
469.894	4.52
470.249	4.38
470.603	4.47
470.958	4.52
471.313	4.59
471.668	4.33
472.023	4.55
472.377	4.36
472.732	4.34
473.086	4.46
473.441	4.46
473.795	4.34
474.15	4.49
474.504	4.54
474.859	4.52
475.213	4.53
475.567	4.45
475.921	4.63
476.275	4.45
476.63	4.72
476.984	4.57
477.338	4.58
477.692	4.54
478.045	4.53
478.399	4.61
478.753	4.36
479.107	4.4
479.461	4.53
479.814	4.72
480.168	4.59
480.521	4.58
480.875	4.43
481.228	4.55
481.582	4.53
481.935	4.5
482.289	4.57
482.642	4.62
482.995	4.49
483.348	4.48
483.701	4.59
484.055	4.42
484.408	4.4
484.761	4.39
485.114	4.42
485.466	4.32
485.819	4.26
486.172	4.23
486.525	4.25
486.878	4.28
487.23	4.35
487.583	4.41
487.936	4.51
488.288	4.5
488.641	4.49
488.993	4.49
489.345	4.38
489.698	4.39
490.05	4.36
490.402	4.34
490.754	4.42
491.107	4.45
491.459	4.44
491.811	4.48
492.163	4.64
492.515	4.59
492.866	4.57
493.218	4.49
493.57	4.45
493.922	4.33
494.274	4.43
494.625	4.5
494.977	4.53
495.328	4.62
495.68	4.7
496.031	4.62
496.383	4.6
496.734	4.57
497.086	4.75
497.437	4.65
497.788	4.58
498.139	4.56
498.49	4.57
498.842	4.67
499.193	4.5
499.544	4.64
499.894	4.6
500.245	4.63
500.596	4.6
500.947	4.62
501.298	4.7
501.648	4.67
501.999	4.75
502.35	4.71
502.7	4.74
503.051	4.86
503.401	4.88
503.752	4.68
504.102	4.75
504.452	4.74
504.803	4.83
505.153	4.83
505.503	4.66
505.853	4.79
506.203	4.75
506.553	4.62
506.903	4.82
507.253	4.77
507.603	4.77
507.953	4.78
508.303	4.84
508.652	4.71
509.002	4.81
509.352	4.69
509.701	4.8
510.051	4.71
510.4	4.72
510.75	4.81
511.099	4.81
511.449	4.79
511.798	4.76
512.147	4.83
512.496	4.87
512.846	4.76
513.195	4.81
513.544	4.86
513.893	4.8
514.242	4.94
514.591	4.95
514.939	4.74
515.288	4.75
515.637	4.85
515.986	4.85
516.334	4.9
516.683	4.91
517.032	4.97
517.38	4.9
517.729	5.01
518.077	5.01
518.426	4.98
518.774	4.88
519.122	4.96
519.47	4.88
519.819	4.96
520.167	4.88
520.515	4.87
520.863	4.75
521.211	4.81
521.559	4.82
521.907	4.86
522.255	4.84
522.602	4.92
522.95	5
523.298	5.02
523.645	5.04
523.993	4.95
524.341	5.03
524.688	5.1
525.036	5.08
525.383	5.14
525.73	5.18
526.078	5.04
526.425	5.04
526.772	5.1
527.119	5.03
527.466	4.96
527.814	4.92
528.161	4.88
528.508	5
528.854	4.94
529.201	5.02
529.548	4.94
529.895	5.03
530.242	4.87
530.588	4.85
530.935	4.82
531.282	4.89
531.628	4.83
531.975	4.91
532.321	4.95
532.667	4.97
533.014	5.1
533.36	5.11
533.706	5.17
534.052	5.12
534.399	5.13
534.745	5.15
535.091	5.03
535.437	5.05
535.783	5.07
536.129	5.07
536.474	5.12
536.82	5.16
537.166	5.24
537.512	5.24
537.857	5.3
538.203	5.21
538.549	5.2
538.894	5.23
539.239	5.09
539.585	5.21
539.93	5.27
540.276	5.27
540.621	5.37
540.966	5.35
541.311	5.47
541.656	5.44
542.001	5.25
542.346	5.43
542.691	5.3
543.036	5.28
543.381	5.26
543.726	5.25
544.071	5.24
544.415	5.3
544.76	5.3
545.105	5.38
545.449	5.32
545.794	5.42
546.138	5.42
546.483	5.44
546.827	5.37
547.171	5.4
547.516	5.5
547.86	5.44
548.204	5.67
548.548	5.57
548.892	5.39
549.236	5.46
549.58	5.52
549.924	5.45
550.268	5.54
550.612	5.71
550.956	5.64
551.3	5.71
551.643	5.74
551.987	5.64
552.33	5.85
552.674	5.73
553.017	5.79
553.361	5.77
553.704	5.72
554.048	5.99
554.391	5.72
554.734	5.83
555.077	5.75
555.42	5.75
555.764	5.79
556.107	5.7
556.45	5.78
556.793	5.81
557.135	5.9
557.478	5.84
557.821	5.95
558.164	6.07
558.507	5.95
558.849	6.01
559.192	5.92
559.534	5.74
559.877	6.02
560.219	6.18
560.562	6.04
560.904	6.19
561.246	5.92
561.589	6
561.931	6.23
562.273	5.94
562.615	5.98
562.957	6.3
563.299	6.27
563.641	5.96
563.983	6.18
564.325	6.07
564.667	6.14
565.008	6.13
565.35	6.36
565.692	6.34
566.033	6.08
566.375	6.1
566.716	6.22
567.058	6.3
567.399	6.16
567.741	6.24
568.082	6.31
568.423	6.27
568.764	6.39
569.105	6.46
569.447	6.46
569.788	6.3
570.129	6.45
570.47	6.43
570.811	6.49
571.151	6.33
571.492	6.45
571.833	6.44
572.174	6.53
572.514	6.44
572.855	6.31
573.195	6.69
573.536	6.52
573.876	6.52
574.217	6.64
574.557	6.64
574.898	6.67
575.238	6.71
575.578	6.51
575.918	6.77
576.258	6.65
576.598	6.56
576.938	6.58
577.278	6.63
577.618	6.63
577.958	6.78
578.298	6.79
578.638	6.61
578.977	6.8
579.317	6.68
579.657	6.8
579.996	6.92
580.336	6.87
580.675	7.02
581.014	7.03
581.354	7.11
581.693	7.05
582.032	7.09
582.372	7.08
582.711	7.32
583.05	6.94
583.389	6.96
583.728	7
584.067	7.22
584.406	6.9
584.745	7.11
585.083	7.31
585.422	7.18
585.761	7.24
586.1	7.52
586.438	7.28
586.777	7.23
587.115	7.4
587.454	7.48
587.792	7.17
588.13	7.52
588.469	7.38
588.807	7.33
589.145	7.32
589.483	7.63
589.821	7.57
590.159	7.57
590.497	7.44
590.835	7.74
591.173	7.52
591.511	7.32
591.849	7.6
592.187	7.64
592.524	7.6
592.862	7.82
593.2	7.58
593.537	7.54
593.875	7.81
594.212	7.71
594.55	7.87
594.887	7.83
595.224	7.88
595.561	7.62
595.899	7.67
596.236	7.97
596.573	8.34
596.91	7.76
597.247	7.83
597.584	7.96
597.921	7.73
598.258	7.86
598.594	7.78
598.931	7.79
599.268	8.08
599.604	7.7
599.941	7.95
600.277	7.88
600.614	8.05
600.95	8.19
601.287	8.19
601.623	8.36
601.959	8.37
602.296	8.26
602.632	8.32
602.968	8.16
603.304	8.13
603.64	8.16
603.976	8.41
604.312	8.2
604.648	8.17
604.984	8.35
605.319	8.46
605.655	8.44
605.991	8.21
606.326	8.39
606.662	8.4
606.998	8.37
607.333	8.45
607.668	8.36
608.004	8.59
608.339	8.56
608.674	8.41
609.01	8.44
609.345	8.82
609.68	8.68
610.015	8.88
610.35	8.77
610.685	8.66
611.02	8.69
611.355	9.07
611.689	8.76
612.024	8.8
612.359	8.69
612.694	8.73
613.028	8.81
613.363	8.59
613.697	8.76
614.032	9.04
614.366	8.95
614.7	9.29
615.035	9.16
615.369	9.2
615.703	8.9
616.037	8.86
616.371	8.77
616.705	9.06
617.039	9.21
617.373	8.99
617.707	8.92
618.041	9.13
618.375	9.14
618.709	9.38
619.042	9.33
619.376	9.27
619.71	9.23
620.043	9.26
620.377	9.49
620.71	9.29
621.043	9.69
621.377	9.48
621.71	9.39
622.043	8.87
622.376	9.46
622.709	9.68
623.043	9.61
623.376	9.67
623.709	9.66
624.041	9.7
624.374	9.38
624.707	9.67
625.04	9.59
625.373	9.62
625.705	10.03
626.038	9.76
626.37	9.9
626.703	10.25
627.035	10.25
627.368	10.24
627.7	9.81
628.032	9.91
628.365	9.66
628.697	10.09
629.029	9.95
629.361	9.79
629.693	9.95
630.025	10
630.357	9.6
630.689	9.93
631.021	10.32
631.353	10.15
631.684	10.17
632.016	9.63
632.348	10.15
632.679	10.36
633.011	10.17
633.342	10.18
633.674	10.46
634.005	10.06
634.336	10.14
634.668	10.63
634.999	10.83
635.33	10.74
635.661	10.61
635.992	10.39
636.323	10.79
636.654	10.44
636.985	10.57
637.316	10.54
637.647	10.68
637.977	10.36
638.308	10.79
638.639	10.22
638.969	10.85
639.3	10.68
639.63	10.91
639.961	11.17
640.291	10.87
640.622	11.18
640.952	10.7
641.282	10.87
641.612	10.77
641.943	10.63
642.273	11.45
642.603	10.62
642.933	10.99
643.263	11.27
643.592	11
643.922	10.8
644.252	10.86
644.582	11.31
644.911	11.1
645.241	11.27
645.571	10.76
645.9	10.7
646.23	11.47
646.559	11.36
646.888	11.45
647.218	10.97
647.547	11.1
647.876	11.78
648.205	11.16
648.534	11.71
648.863	11.64
649.192	12.13
649.521	11.8
649.85	11.78
650.179	11.93
650.508	11.62
650.837	11.59
651.165	11.42
651.494	11.67
651.822	11.53
652.151	12.05
652.479	12.07
652.808	11.48
653.136	11.58
653.465	12.03
653.793	12.05
654.121	12.07
654.449	12.09
654.777	11.85
655.105	11.76
655.433	12.12
655.761	11.77
656.089	12.18
656.417	11.57
656.745	12.94
657.073	11.55
657.4	12.16
657.728	12.43
658.056	12.58
658.383	11.8
658.711	11.86
659.038	12.3
659.365	12.52
659.693	12.07
660.02	11.99
660.347	12.88
660.674	12.63
661.001	12.9
661.329	12.02
661.656	12.27
661.982	12.57
662.309	12.48
662.636	12.27
662.963	12.25
663.29	12.89
663.616	12.42
663.943	12.85
664.27	12.84
664.596	12.62
664.923	13.08
665.249	12.69
665.576	12.66
665.902	12.89
666.228	12.71
666.554	13.2
666.881	12.77
667.207	13.02
667.533	12.92
667.859	12.25
668.185	12.33
668.511	12.57
668.837	12.46
669.162	13.42
669.488	12.59
669.814	13.52
670.139	13.26
670.465	13.05
670.791	13.22
671.116	13.49
671.442	13.35
671.767	12.63
672.092	13.25
672.418	13.21
672.743	13.67
673.068	13.37
673.393	13.17
673.718	13.36
674.043	13.76
674.368	13.71
674.693	13.71
675.018	14.21
675.343	13.79
675.667	13.89
675.992	13.88
676.317	12.95
676.641	14.29
676.966	13.52
677.29	13.63
677.615	14.49
677.939	13.52
678.264	14.08
678.588	13.89
678.912	14.68
679.236	13.2
679.56	13.66
679.885	14.26
680.209	13.9
680.532	14.14
680.856	13.77
681.18	14.45
681.504	13.59
681.828	14.31
682.152	14.48
682.475	14.1
682.799	14.29
683.122	14.22
683.446	14.7
683.769	14.75
684.093	14.34
684.416	14.32
684.739	13.98
685.062	14.52
685.386	14
685.709	14.37
686.032	14.08
686.355	14.45
686.678	14.6
687.001	13.59
687.324	14.44
687.646	15.02
687.969	14.63
688.292	15.1
