Data from 0139_forehead_Reflection__0__188.txt Node

Date: Mon Aug 28 20:18:15 CDT 2023
User: ToomeyLab
Spectrometer: FLMS14357
Trigger mode: 0
Integration Time (sec): 1.000000E-2
Scans to average: 100
Electric dark correction enabled: true
Nonlinearity correction enabled: false
Boxcar width: 0
XAxis mode: Wavelengths
Number of Pixels in Spectrum: 2048
>>>>>Begin Spectral Data<<<<<
189.047	-137.47
189.435	-137.47
189.823	-137.47
190.211	27.81
190.599	164.55
190.987	28.33
191.375	586.06
191.763	93.1
192.151	38.1
192.538	44.78
192.926	82.34
193.314	-142.39
193.702	2552.43
194.089	70.35
194.477	354.89
194.864	257.59
195.252	-369.81
195.639	-399.53
196.027	136.51
196.414	101.82
196.801	60.92
197.189	18.21
197.576	113.41
197.963	-2287.59
198.351	41.94
198.738	35.2
199.125	32.19
199.512	10.92
199.899	36.59
200.286	-5.6
200.673	16.2
201.06	8.45
201.447	35.9
201.833	-34.02
202.22	64.37
202.607	3.27
202.994	4.1
203.38	18.53
203.767	17.78
204.154	30.09
204.54	5.9
204.927	-37.74
205.313	10.12
205.699	-20.91
206.086	24.8
206.472	41.82
206.858	8.23
207.245	30.79
207.631	28.23
208.017	39.28
208.403	47.12
208.789	8.4
209.175	-31.65
209.561	19.97
209.947	7.45
210.333	35.22
210.719	32.2
211.105	45.37
211.491	0.7
211.876	34.25
212.262	10.37
212.648	41.41
213.034	23.46
213.419	6.03
213.805	53.77
214.19	9.4
214.576	40.5
214.961	0.51
215.346	-8.17
215.732	29.37
216.117	-14.58
216.502	-15.68
216.888	-42.61
217.273	-21.46
217.658	23
218.043	37.37
218.428	21.7
218.813	6.68
219.198	25.52
219.583	0.99
219.968	43.24
220.353	-3.58
220.738	19.47
221.122	9.61
221.507	6.49
221.892	5.55
222.276	0.16
222.661	24.55
223.046	23.45
223.43	-5.11
223.815	10.58
224.199	13.58
224.583	9.3
224.968	11.82
225.352	21.48
225.736	6.59
226.121	7.83
226.505	5.53
226.889	10.67
227.273	20.89
227.657	9.26
228.041	7.6
228.425	3.9
228.809	7.73
229.193	10.39
229.577	7.31
229.961	4.09
230.344	5.81
230.728	4.04
231.112	3.92
231.495	4.46
231.879	4.3
232.263	5.29
232.646	4.35
233.03	6.65
233.413	6.52
233.797	4.27
234.18	4.49
234.563	5.65
234.946	6.8
235.33	2.72
235.713	2.76
236.096	7.43
236.479	6.45
236.862	6.98
237.245	4.81
237.628	4.63
238.011	5.65
238.394	6.54
238.777	6.75
239.16	2.6
239.543	2.83
239.925	6.64
240.308	3.04
240.691	4.85
241.073	5.9
241.456	5.35
241.838	3.39
242.221	5.21
242.603	5.25
242.986	4.98
243.368	5.23
243.75	4.32
244.133	3.87
244.515	4.55
244.897	4.97
245.279	4.57
245.661	3.83
246.043	5.34
246.425	3.93
246.807	5.84
247.189	4.13
247.571	4.29
247.953	4.83
248.335	4.46
248.717	4.46
249.098	4.35
249.48	4.45
249.862	4.5
250.243	4.39
250.625	4.81
251.006	4.73
251.388	4.84
251.769	5.45
252.151	5.02
252.532	4.25
252.913	4.72
253.295	3.66
253.676	4.58
254.057	5.28
254.438	4.38
254.819	4.37
255.2	4.73
255.581	5.91
255.962	4.71
256.343	5.82
256.724	5.14
257.105	3.99
257.486	3.87
257.867	5.31
258.247	4.87
258.628	5.83
259.009	3.87
259.389	4.22
259.77	5.57
260.15	3.75
260.531	4.1
260.911	4.77
261.292	4.84
261.672	4.59
262.052	4.38
262.432	4.34
262.813	4.75
263.193	4.36
263.573	4.17
263.953	4.6
264.333	3.85
264.713	4.46
265.093	4.47
265.473	4.89
265.853	3.64
266.233	4.17
266.612	4.47
266.992	4.1
267.372	4.4
267.752	4.88
268.131	4.75
268.511	4.32
268.89	4.95
269.27	4.51
269.649	4.5
270.029	4.86
270.408	4.82
270.787	4.81
271.167	4.54
271.546	4.63
271.925	5.05
272.304	4.56
272.683	4.69
273.062	4.19
273.441	4.36
273.82	4.67
274.199	3.67
274.578	4.79
274.957	4.52
275.336	4.63
275.715	4.97
276.093	4.12
276.472	4.09
276.851	4.37
277.229	4.84
277.608	4.66
277.986	4.1
278.365	4.77
278.743	4.39
279.122	4.58
279.5	4.19
279.878	3.83
280.257	4.56
280.635	4.59
281.013	5.09
281.391	4.14
281.769	4.51
282.147	4.94
282.525	4.71
282.903	4.78
283.281	4.38
283.659	4.79
284.037	5.22
284.415	4.13
284.792	4.69
285.17	4.24
285.548	4.75
285.925	5.05
286.303	4.72
286.68	4.99
287.058	4.79
287.435	4.34
287.813	4.57
288.19	4.8
288.567	5
288.945	4.46
289.322	4.79
289.699	4.71
290.076	5.4
290.453	5.57
290.83	4.36
291.207	4.75
291.584	4.83
291.961	5.49
292.338	5.13
292.715	4.84
293.092	5.41
293.469	5.18
293.845	4.81
294.222	5.23
294.599	5.01
294.975	5.39
295.352	5.09
295.728	5.51
296.105	5.8
296.481	5.52
296.858	5.58
297.234	5.61
297.61	5.68
297.986	5.38
298.363	5.96
298.739	5.46
299.115	5.46
299.491	5.63
299.867	5.69
300.243	5.95
300.619	5.84
300.995	6.15
301.371	5.69
301.746	6.25
302.122	5.85
302.498	6.05
302.874	6.42
303.249	6.16
303.625	5.99
304	6.67
304.376	6.4
304.751	5.75
305.127	6.12
305.502	5.9
305.878	6.49
306.253	6.19
306.628	6.47
307.003	6.93
307.378	6.72
307.754	7.33
308.129	6.58
308.504	7.14
308.879	7.03
309.254	7.4
309.629	6.33
310.003	6.85
310.378	6.62
310.753	7.19
311.128	7.27
311.502	7.17
311.877	7.25
312.252	7.66
312.626	7.43
313.001	7.47
313.375	7.29
313.75	7.23
314.124	7.78
314.498	7.49
314.873	8.01
315.247	8.27
315.621	7.47
315.995	8.25
316.369	7.78
316.743	7.52
317.117	7.66
317.491	7.15
317.865	7.45
318.239	7.64
318.613	8.39
318.987	7.32
319.361	8.19
319.734	8.14
320.108	8.54
320.482	8.86
320.855	7.91
321.229	8.11
321.602	8.52
321.976	8.12
322.349	8.68
322.723	8.74
323.096	8.76
323.469	8.19
323.843	8.74
324.216	8.77
324.589	9.06
324.962	8.97
325.335	8.85
325.708	8.5
326.081	8.87
326.454	9.1
326.827	8.83
327.2	8.87
327.573	8.77
327.945	9.69
328.318	9.64
328.691	8.81
329.063	8.94
329.436	8.55
329.809	9.22
330.181	9.69
330.553	9.02
330.926	9.75
331.298	9.29
331.671	9.02
332.043	9.81
332.415	10.17
332.787	9.77
333.159	9.96
333.532	10.43
333.904	9.84
334.276	9.51
334.648	9.98
335.02	10.1
335.391	10.45
335.763	10.19
336.135	10.43
336.507	10.04
336.879	9.56
337.25	10.3
337.622	9.88
337.993	9.81
338.365	10.19
338.736	10.48
339.108	9.53
339.479	9.68
339.851	10.64
340.222	10.65
340.593	10.09
340.964	9.95
341.336	10.35
341.707	10.39
342.078	10.51
342.449	10.63
342.82	11.06
343.191	10.73
343.562	10.35
343.933	10.69
344.303	10.87
344.674	10.91
345.045	11.15
345.416	11.13
345.786	11.14
346.157	11.11
346.527	10.4
346.898	11.06
347.268	11.2
347.639	10.96
348.009	11.24
348.38	11.34
348.75	11.23
349.12	11.38
349.49	11.22
349.861	10.81
350.231	11.49
350.601	11.47
350.971	11.75
351.341	11.54
351.711	11.33
352.081	11.66
352.45	11.38
352.82	11.76
353.19	12.16
353.56	11.9
353.929	12.34
354.299	11.62
354.669	11.93
355.038	12.21
355.408	12.21
355.777	11.78
356.147	12.13
356.516	12.49
356.885	12.12
357.254	11.99
357.624	12.41
357.993	12.37
358.362	12.09
358.731	12.29
359.1	12.51
359.469	12.51
359.838	12.1
360.207	12.7
360.576	12.56
360.945	12.99
361.314	12.67
361.682	12.35
362.051	13.21
362.42	12.41
362.788	12.67
363.157	12.89
363.525	12.65
363.894	12.9
364.262	13.01
364.631	12.55
364.999	12.74
365.367	13.37
365.735	12.86
366.104	13.07
366.472	12.86
366.84	13.09
367.208	13.29
367.576	13.1
367.944	13.69
368.312	13.86
368.68	13.3
369.048	13.51
369.416	13.75
369.783	13.43
370.151	13.98
370.519	13.99
370.886	13.65
371.254	13.65
371.621	13.43
371.989	13.79
372.356	13.91
372.724	14.07
373.091	14
373.458	13.76
373.826	14.02
374.193	13.91
374.56	14.07
374.927	14.1
375.294	14.14
375.661	14.35
376.028	14.33
376.395	14.26
376.762	14.74
377.129	14.43
377.496	14.54
377.863	14.72
378.229	14.57
378.596	15.05
378.963	14.54
379.329	14.95
379.696	14.53
380.062	14.72
380.429	14.72
380.795	15.08
381.161	14.96
381.528	15.23
381.894	14.77
382.26	15.15
382.626	15.27
382.993	15.22
383.359	15.23
383.725	15.42
384.091	15.13
384.457	15.5
384.823	15.26
385.188	15.36
385.554	15.19
385.92	15.4
386.286	15.55
386.651	15.54
387.017	15.94
387.383	15.71
387.748	15.66
388.114	15.62
388.479	15.69
388.845	15.81
389.21	15.94
389.575	15.93
389.94	15.8
390.306	16.04
390.671	15.9
391.036	15.9
391.401	16.34
391.766	16.36
392.131	15.93
392.496	16.17
392.861	15.8
393.226	16.4
393.591	16.03
393.956	16.36
394.32	16.26
394.685	16.5
395.05	16.5
395.414	16.38
395.779	16.47
396.143	16.73
396.508	16.29
396.872	16.63
397.236	16.56
397.601	16.64
397.965	16.82
398.329	16.84
398.694	17.04
399.058	16.78
399.422	17.16
399.786	16.92
400.15	17.28
400.514	17.3
400.878	16.83
401.242	17.21
401.605	16.91
401.969	17.08
402.333	17.38
402.697	17.28
403.06	17.41
403.424	17.82
403.787	17.23
404.151	17.43
404.514	17.65
404.878	17.6
405.241	17.43
405.604	17.64
405.968	17.53
406.331	17.86
406.694	17.67
407.057	17.57
407.42	17.62
407.783	17.71
408.146	17.63
408.509	18.03
408.872	17.77
409.235	17.87
409.598	18.24
409.961	17.91
410.323	18.3
410.686	18.15
411.049	18.62
411.411	18.23
411.774	18.3
412.136	18.16
412.499	18.14
412.861	18.37
413.223	18.3
413.586	18.15
413.948	18.67
414.31	18.66
414.672	18.86
415.035	18.8
415.397	18.45
415.759	18.87
416.121	18.71
416.483	18.7
416.845	18.87
417.206	18.92
417.568	19.1
417.93	18.91
418.292	19.03
418.653	18.73
419.015	18.93
419.377	18.8
419.738	19.01
420.1	18.96
420.461	19.04
420.822	18.92
421.184	18.99
421.545	19.04
421.906	18.91
422.267	19.13
422.629	18.99
422.99	18.98
423.351	19.02
423.712	18.91
424.073	19.12
424.434	19.05
424.795	19.23
425.155	19.22
425.516	19.38
425.877	19.19
426.238	19.24
426.598	19.29
426.959	19.41
427.32	19.47
427.68	19.77
428.041	19.63
428.401	19.79
428.761	19.74
429.122	19.98
429.482	20.08
429.842	20.18
430.202	20.09
430.563	20.1
430.923	20.34
431.283	20.25
431.643	20.19
432.003	20.24
432.363	20.43
432.722	20.32
433.082	20.44
433.442	20.64
433.802	20.58
434.161	20.59
434.521	20.35
434.881	20.49
435.24	20.64
435.6	20.54
435.959	20.67
436.319	20.69
436.678	20.8
437.037	20.9
437.396	20.86
437.756	20.66
438.115	21.1
438.474	21.14
438.833	20.84
439.192	21.1
439.551	21.25
439.91	21.3
440.269	20.97
440.628	21.09
440.987	21.24
441.345	21.11
441.704	21.26
442.063	21.13
442.421	21.11
442.78	21.3
443.138	21.12
443.497	21.29
443.855	21.31
444.214	21.47
444.572	21.69
444.93	21.55
445.288	21.57
445.647	21.79
446.005	21.85
446.363	21.71
446.721	21.71
447.079	21.72
447.437	21.66
447.795	21.62
448.153	21.76
448.51	21.56
448.868	21.57
449.226	21.65
449.584	21.58
449.941	22.06
450.299	22.09
450.656	22.11
451.014	22
451.371	22.24
451.729	22.22
452.086	22.16
452.443	22.65
452.801	22.46
453.158	22.75
453.515	22.7
453.872	22.56
454.229	22.66
454.586	22.99
454.943	22.91
455.3	22.84
455.657	22.96
456.014	22.88
456.371	22.98
456.727	23.07
457.084	22.89
457.441	23.13
457.797	23.29
458.154	23.16
458.51	23.37
458.867	23.09
459.223	23.2
459.58	23.17
459.936	23.35
460.292	23.14
460.648	23.33
461.005	23.44
461.361	23.18
461.717	23.09
462.073	23.02
462.429	22.87
462.785	23.21
463.141	23.36
463.496	23.55
463.852	23.66
464.208	23.85
464.564	24.04
464.919	24.02
465.275	24.08
465.631	23.91
465.986	24.06
466.342	24.14
466.697	23.88
467.052	23.92
467.408	24.3
467.763	24.03
468.118	24.18
468.473	24.31
468.829	24.45
469.184	24.31
469.539	24.42
469.894	24.37
470.249	24.43
470.603	24.66
470.958	24.5
471.313	24.62
471.668	24.42
472.023	24.68
472.377	24.86
472.732	24.82
473.086	24.83
473.441	24.78
473.795	24.87
474.15	25.05
474.504	24.88
474.859	24.93
475.213	25.14
475.567	24.97
475.921	25.21
476.275	24.99
476.63	25.41
476.984	25.38
477.338	25.38
477.692	25.35
478.045	25.35
478.399	25.44
478.753	25.3
479.107	25.34
479.461	25.34
479.814	25.35
480.168	25.58
480.521	25.5
480.875	25.55
481.228	25.57
481.582	25.52
481.935	25.71
482.289	25.64
482.642	25.7
482.995	25.73
483.348	25.67
483.701	25.72
484.055	25.51
484.408	25.34
484.761	25.43
485.114	25.25
485.466	25
485.819	24.84
486.172	24.79
486.525	24.93
486.878	25.03
487.23	25.24
487.583	25.39
487.936	25.54
488.288	25.65
488.641	25.67
488.993	25.6
489.345	25.4
489.698	25.46
490.05	25.38
490.402	25.53
490.754	25.62
491.107	25.72
491.459	25.99
491.811	26.29
492.163	26.3
492.515	26.35
492.866	26.39
493.218	26.18
493.57	25.99
493.922	25.88
494.274	26.08
494.625	26.23
494.977	26.49
495.328	26.65
495.68	26.97
496.031	26.89
496.383	27.13
496.734	27.23
497.086	27.28
497.437	27.53
497.788	27.5
498.139	27.21
498.49	27.46
498.842	27.34
499.193	27.22
499.544	27.28
499.894	27.32
500.245	27.41
500.596	27.67
500.947	27.67
501.298	27.71
501.648	27.6
501.999	27.75
502.35	27.85
502.7	27.82
503.051	27.91
503.401	28.27
503.752	28.12
504.102	28.2
504.452	28.08
504.803	28.24
505.153	28.36
505.503	28.29
505.853	28.4
506.203	28.34
506.553	28.16
506.903	28.58
507.253	28.42
507.603	28.42
507.953	28.58
508.303	28.77
508.652	28.54
509.002	28.76
509.352	28.78
509.701	28.77
510.051	28.77
510.4	28.7
510.75	28.75
511.099	28.69
511.449	28.64
511.798	28.78
512.147	28.8
512.496	28.88
512.846	29.01
513.195	28.93
513.544	29.29
513.893	29.22
514.242	29.11
514.591	29.13
514.939	29.14
515.288	29.25
515.637	29.29
515.986	29.45
516.334	29.67
516.683	29.54
517.032	29.42
517.38	29.7
517.729	29.87
518.077	29.63
518.426	29.81
518.774	29.7
519.122	29.97
519.47	29.73
519.819	29.58
520.167	29.47
520.515	29.53
520.863	29.39
521.211	29.51
521.559	29.71
521.907	29.75
522.255	29.78
522.602	30.11
522.95	30.31
523.298	30.21
523.645	30.26
523.993	30.25
524.341	30.54
524.688	30.3
525.036	30.45
525.383	30.51
525.73	30.51
526.078	30.61
526.425	30.54
526.772	30.57
527.119	30.37
527.466	30.31
527.814	30.29
528.161	30.29
528.508	30.23
528.854	30.37
529.201	30.42
529.548	30.39
529.895	30.41
530.242	30.13
530.588	29.95
530.935	30.04
531.282	30.16
531.628	30.14
531.975	30.26
532.321	30.43
532.667	30.52
533.014	30.72
533.36	30.99
533.706	31
534.052	31.09
534.399	31.09
534.745	30.91
535.091	30.87
535.437	30.8
535.783	30.88
536.129	31
536.474	30.93
536.82	31.26
537.166	31.36
537.512	31.58
537.857	31.67
538.203	31.63
538.549	31.56
538.894	31.48
539.239	31.56
539.585	31.72
539.93	31.84
540.276	31.94
540.621	32.1
540.966	32.1
541.311	32.35
541.656	32.31
542.001	32.4
542.346	32.29
542.691	32.05
543.036	31.99
543.381	31.69
543.726	31.69
544.071	31.75
544.415	31.78
544.76	31.9
545.105	32.03
545.449	32.19
545.794	32.34
546.138	32.37
546.483	32.49
546.827	32.8
547.171	32.72
547.516	32.98
547.86	32.81
548.204	33.02
548.548	33.02
548.892	32.82
549.236	32.9
549.58	33.08
549.924	33.17
550.268	33.29
550.612	33.26
550.956	33.4
551.3	33.59
551.643	33.71
551.987	33.65
552.33	34.09
552.674	33.78
553.017	33.84
553.361	33.86
553.704	33.88
554.048	34.03
554.391	34.15
554.734	34.2
555.077	34.07
555.42	34.15
555.764	34.05
556.107	34.03
556.45	34.22
556.793	34.24
557.135	34.35
557.478	34.43
557.821	34.58
558.164	34.55
558.507	34.68
558.849	34.54
559.192	34.46
559.534	34.48
559.877	34.86
560.219	35
560.562	34.97
560.904	35.33
561.246	35.04
561.589	35.1
561.931	35.04
562.273	34.99
562.615	35.2
562.957	35.19
563.299	35.01
563.641	35.33
563.983	35.2
564.325	35.02
564.667	35.14
565.008	35.47
565.35	35.67
565.692	35.54
566.033	35.34
566.375	35.58
566.716	35.68
567.058	35.56
567.399	35.71
567.741	35.83
568.082	35.48
568.423	35.56
568.764	35.58
569.105	35.68
569.447	35.68
569.788	35.65
570.129	35.76
570.47	35.89
570.811	36.05
571.151	35.95
571.492	36.17
571.833	36.26
572.174	36.17
572.514	36.41
572.855	36.13
573.195	36.23
573.536	36.11
573.876	36.17
574.217	36.17
574.557	36.33
574.898	36.31
575.238	36.5
575.578	36.33
575.918	36.54
576.258	36.63
576.598	36.51
576.938	36.77
577.278	36.77
577.618	36.65
577.958	36.68
578.298	36.77
578.638	36.89
578.977	37.12
579.317	37.11
579.657	37.12
579.996	36.91
580.336	37.21
580.675	37.36
581.014	37.31
581.354	37.38
581.693	37.54
582.032	37.62
582.372	37.6
582.711	37.84
583.05	37.73
583.389	37.94
583.728	37.72
584.067	37.9
584.406	37.73
584.745	37.8
585.083	37.91
585.422	37.96
585.761	38.07
586.1	38.38
586.438	37.83
586.777	38.27
587.115	38.11
587.454	38.53
587.792	38.09
588.13	38.15
588.469	38.35
588.807	38.45
589.145	38.32
589.483	38.14
589.821	38.51
590.159	38.64
590.497	38.66
590.835	38.52
591.173	38.42
591.511	38.19
591.849	38.62
592.187	38.77
592.524	38.84
592.862	38.73
593.2	38.73
593.537	38.88
593.875	39.2
594.212	38.74
594.55	39.19
594.887	38.95
595.224	39.12
595.561	38.9
595.899	38.8
596.236	39.37
596.573	39.38
596.91	39.31
597.247	39.16
597.584	39.24
597.921	39.22
598.258	39.4
598.594	39.32
598.931	39.4
599.268	39.21
599.604	39.19
599.941	39.43
600.277	39.26
600.614	39.44
600.95	39.65
601.287	39.68
601.623	39.94
601.959	39.61
602.296	39.74
602.632	39.94
602.968	39.95
603.304	40.2
603.64	39.89
603.976	40.38
604.312	40.23
604.648	40.19
604.984	39.83
605.319	40.21
605.655	39.98
605.991	39.98
606.326	40.17
606.662	40.13
606.998	39.97
607.333	40.02
607.668	40.06
608.004	40.13
608.339	40.22
608.674	40.19
609.01	40.61
609.345	40.61
609.68	40.6
610.015	40.84
610.35	40.8
610.685	40.96
611.02	40.96
611.355	41.04
611.689	40.5
612.024	40.75
612.359	40.74
612.694	41.14
613.028	40.68
613.363	41.02
613.697	40.79
614.032	41.36
614.366	41.32
614.7	41.68
615.035	41.44
615.369	41.49
615.703	41.43
616.037	41.53
616.371	41.63
616.705	41.3
617.039	41.69
617.373	41.67
617.707	41.53
618.041	41.48
618.375	42.12
618.709	41.63
619.042	41.61
619.376	41.56
619.71	42.3
620.043	41.42
620.377	41.88
620.71	42.19
621.043	42.07
621.377	42.39
621.71	41.91
622.043	41.86
622.376	42.4
622.709	41.98
623.043	42.35
623.376	42.5
623.709	42.12
624.041	42.64
624.374	42.67
624.707	42.37
625.04	42.4
625.373	42.48
625.705	42.69
626.038	42.86
626.37	42.79
626.703	42.92
627.035	42.87
627.368	43.04
627.7	42.43
628.032	42.79
628.365	42.34
628.697	42.88
629.029	42.61
629.361	42.74
629.693	42.77
630.025	42.91
630.357	42.82
630.689	43.26
631.021	43.02
631.353	43.5
631.684	43.42
632.016	43.46
632.348	43.03
632.679	43.35
633.011	43.13
633.342	42.65
633.674	43.25
634.005	43.67
634.336	43.66
634.668	43.66
634.999	43.64
635.33	43.79
635.661	43.47
635.992	43.86
636.323	43.99
636.654	43.43
636.985	43.85
637.316	43.89
637.647	43.98
637.977	43.99
638.308	44.02
638.639	43.77
638.969	43.97
639.3	43.8
639.63	43.77
639.961	43.87
640.291	44.42
640.622	44
640.952	44.23
641.282	43.93
641.612	44.07
641.943	44.12
642.273	44.83
642.603	43.68
642.933	44.2
643.263	44.48
643.592	44.32
643.922	44.35
644.252	44.62
644.582	44.56
644.911	44.57
645.241	44.31
645.571	44.76
645.9	44.65
646.23	44.53
646.559	44.43
646.888	44.66
647.218	44.47
647.547	45.2
647.876	45.47
648.205	45.21
648.534	44.6
648.863	44.89
649.192	45.1
649.521	45.35
649.85	45.35
650.179	45.23
650.508	44.77
650.837	44.74
651.165	45.32
651.494	45.17
651.822	45.37
652.151	45.33
652.479	45.32
652.808	45.15
653.136	45.52
653.465	45.96
653.793	45.58
654.121	45.55
654.449	45.46
654.777	45.27
655.105	45.29
655.433	44.99
655.761	45.31
656.089	45.67
656.417	45.4
656.745	45.84
657.073	45.47
657.4	46.14
657.728	46.16
658.056	45.63
658.383	46.27
658.711	45.93
659.038	46.4
659.365	46.26
659.693	46.59
660.02	45.91
660.347	46.06
660.674	45.8
661.001	46.58
661.329	46.22
661.656	45.73
661.982	46.43
662.309	46.1
662.636	46.41
662.963	46.04
663.29	46.58
663.616	46.52
663.943	46.45
664.27	46.34
664.596	46.9
664.923	47.31
665.249	46.74
665.576	46.35
665.902	46.27
666.228	46.18
666.554	46.62
666.881	46.68
667.207	46.94
667.533	46.5
667.859	46.03
668.185	45.61
668.511	47.09
668.837	46.55
669.162	47.38
669.488	46.62
669.814	46.97
670.139	46.9
670.465	46.82
