Data from 0139_forehead_Reflection__3__191.txt Node

Date: Mon Aug 28 20:18:53 CDT 2023
User: ToomeyLab
Spectrometer: FLMS14357
Trigger mode: 0
Integration Time (sec): 1.000000E-2
Scans to average: 100
Electric dark correction enabled: true
Nonlinearity correction enabled: false
Boxcar width: 0
XAxis mode: Wavelengths
Number of Pixels in Spectrum: 2048
>>>>>Begin Spectral Data<<<<<
189.047	19.98
189.435	19.98
189.823	19.98
190.211	-370.91
190.599	-49.72
190.987	-6.09
191.375	-100.13
191.763	147.19
192.151	-209.41
192.538	124.33
192.926	113.18
193.314	-150.34
193.702	-1388.11
194.089	28.52
194.477	154.11
194.864	-53.63
195.252	-199.23
195.639	224.35
196.027	134.66
196.414	12.48
196.801	20.26
197.189	58.02
197.576	47.44
197.963	589.78
198.351	12.26
198.738	50.51
199.125	41.63
199.512	-7.42
199.899	-5.01
200.286	18.97
200.673	25.28
201.06	39.02
201.447	-0.75
201.833	-8.46
202.22	19.71
202.607	-3.33
202.994	11.42
203.38	-9.26
203.767	53.37
204.154	18.64
204.54	0.87
204.927	29.62
205.313	39.45
205.699	3.17
206.086	15.49
206.472	-5.8
206.858	-19.47
207.245	17.67
207.631	45.13
208.017	25.67
208.403	47.93
208.789	1.74
209.175	-65.2
209.561	-23.81
209.947	5.38
210.333	3.77
210.719	20.29
211.105	16.48
211.491	-15.05
211.876	26.38
212.262	0.14
212.648	13.69
213.034	29.44
213.419	12.25
213.805	19.98
214.19	46.11
214.576	-8.8
214.961	15.12
215.346	-37.63
215.732	23.1
216.117	4.94
216.502	-19.62
216.888	-16.49
217.273	-15.26
217.658	19.02
218.043	8.23
218.428	15.02
218.813	19.96
219.198	-8.73
219.583	18.09
219.968	22.21
220.353	24.23
220.738	29.76
221.122	10.79
221.507	4.27
221.892	18.04
222.276	11.3
222.661	-34.32
223.046	-0.51
223.43	11.32
223.815	15.62
224.199	19.5
224.583	12.84
224.968	4.05
225.352	13.29
225.736	11.45
226.121	10.52
226.505	-4.07
226.889	8.23
227.273	1.57
227.657	10.5
228.041	5.38
228.425	5.72
228.809	1.89
229.193	6.01
229.577	3.65
229.961	2.33
230.344	4.15
230.728	3.9
231.112	4.67
231.495	4.88
231.879	3.34
232.263	2.93
232.646	2.17
233.03	4.34
233.413	6.37
233.797	3.61
234.18	5.11
234.563	2.4
234.946	4.71
235.33	4.77
235.713	0.5
236.096	4.08
236.479	4.22
236.862	6.05
237.245	4.3
237.628	5.79
238.011	4.9
238.394	3.76
238.777	6.98
239.16	2.02
239.543	3.08
239.925	5.11
240.308	2.05
240.691	3.84
241.073	2.95
241.456	4.77
241.838	3.64
242.221	4.63
242.603	4.75
242.986	4.22
243.368	4.5
243.75	3.75
244.133	3.91
244.515	3.91
244.897	4.36
245.279	3.84
245.661	4.14
246.043	4.17
246.425	3.6
246.807	4.94
247.189	3.69
247.571	3.56
247.953	4.55
248.335	3.99
248.717	4.11
249.098	3.97
249.48	3.99
249.862	3.79
250.243	3.74
250.625	4.45
251.006	4.32
251.388	4.17
251.769	4.29
252.151	4.17
252.532	4
252.913	4.37
253.295	2.97
253.676	4.21
254.057	4.64
254.438	3.58
254.819	3.77
255.2	4.38
255.581	4.96
255.962	4.24
256.343	5.8
256.724	4.62
257.105	4.81
257.486	4.59
257.867	4.64
258.247	4.23
258.628	5.11
259.009	4.58
259.389	3.27
259.77	3.88
260.15	3.75
260.531	4.1
260.911	4.29
261.292	4.11
261.672	3.93
262.052	3.74
262.432	3.95
262.813	3.88
263.193	3.69
263.573	3.98
263.953	4.17
264.333	3.98
264.713	3.88
265.093	4.06
265.473	4.53
265.853	4.48
266.233	3.36
266.612	3.55
266.992	3.9
267.372	3.67
267.752	4.32
268.131	4.42
268.511	3.67
268.89	3.67
269.27	3.54
269.649	3.8
270.029	4.12
270.408	3.98
270.787	4.58
271.167	4.54
271.546	4.02
271.925	4.28
272.304	3.82
272.683	4.19
273.062	3.68
273.441	3.82
273.82	3.8
274.199	3.48
274.578	3.98
274.957	4.25
275.336	4.09
275.715	4.25
276.093	3.29
276.472	4.46
276.851	3.88
277.229	3.83
277.608	4.18
277.986	4.09
278.365	4.13
278.743	3.96
279.122	4.16
279.5	3.77
279.878	3.51
280.257	4.23
280.635	4.21
281.013	4.19
281.391	3.74
281.769	3.94
282.147	4.26
282.525	3.9
282.903	4.11
283.281	4.42
283.659	4.57
284.037	4.33
284.415	4.24
284.792	4.37
285.17	4.45
285.548	4.4
285.925	4.06
286.303	4.01
286.68	4.6
287.058	4.45
287.435	3.65
287.813	4.11
288.19	4.53
288.567	4.26
288.945	4.29
289.322	4.1
289.699	4.6
290.076	4.68
290.453	4.82
290.83	3.9
291.207	3.96
291.584	4.59
291.961	4.57
292.338	4.34
292.715	4.64
293.092	4.98
293.469	4.4
293.845	4.15
294.222	4.33
294.599	4.21
294.975	5.12
295.352	4.25
295.728	4.56
296.105	4.9
296.481	4.83
296.858	5.62
297.234	4.59
297.61	5
297.986	5.09
298.363	5.27
298.739	4.94
299.115	4.78
299.491	4.84
299.867	5.13
300.243	5.28
300.619	5.39
300.995	5.59
301.371	5.32
301.746	5.51
302.122	5.5
302.498	5.37
302.874	5.47
303.249	5.57
303.625	5.61
304	5.41
304.376	5.42
304.751	5.48
305.127	5
305.502	5.65
305.878	5.72
306.253	6.16
306.628	6.27
307.003	5.96
307.378	6.32
307.754	6.05
308.129	5.95
308.504	6.45
308.879	6.13
309.254	5.82
309.629	5.53
310.003	6.4
310.378	5.47
310.753	6.07
311.128	6.5
311.502	6.63
311.877	6.32
312.252	6.56
312.626	6.3
313.001	6.49
313.375	6.74
313.75	6.6
314.124	6.45
314.498	6.83
314.873	7.54
315.247	7.26
315.621	6.6
315.995	7.07
316.369	6.92
316.743	6.63
317.117	7.33
317.491	6.44
317.865	6.71
318.239	7.28
318.613	7.14
318.987	7.01
319.361	7.01
319.734	7.13
320.108	7.51
320.482	7.5
320.855	6.84
321.229	8.05
321.602	7.45
321.976	7
322.349	7.79
322.723	7.57
323.096	8.33
323.469	7.64
323.843	7.11
324.216	7.7
324.589	8.02
324.962	8.46
325.335	8.21
325.708	8
326.081	7.75
326.454	8.16
326.827	8.68
327.2	7.93
327.573	7.6
327.945	8.66
328.318	8.69
328.691	8.18
329.063	8.12
329.436	7.88
329.809	8.54
330.181	8.23
330.553	8.14
330.926	8.62
331.298	8.58
331.671	8.55
332.043	8.92
332.415	9.57
332.787	8.63
333.159	9.12
333.532	9.21
333.904	8.7
334.276	8.81
334.648	9.13
335.02	9.21
335.391	9.14
335.763	8.91
336.135	9.17
336.507	8.91
336.879	8.57
337.25	9.75
337.622	9.01
337.993	9.8
338.365	9.75
338.736	9.49
339.108	9.14
339.479	9.15
339.851	9.71
340.222	9.81
340.593	9.53
340.964	9.67
341.336	9.4
341.707	9.31
342.078	9.42
342.449	9.57
342.82	10
343.191	10.04
343.562	9.27
343.933	9.73
344.303	10.11
344.674	10.03
345.045	10.47
345.416	10.07
345.786	10.41
346.157	10.27
346.527	9.39
346.898	10.27
347.268	9.92
347.639	9.94
348.009	10.3
348.38	10.68
348.75	10.7
349.12	10.69
349.49	10.72
349.861	10.19
350.231	10.43
350.601	10.95
350.971	10.84
351.341	10.49
351.711	10.73
352.081	10.87
352.45	10.65
352.82	10.43
353.19	11.13
353.56	10.99
353.929	11.04
354.299	10.46
354.669	10.99
355.038	11.56
355.408	11.54
355.777	11.11
356.147	11.07
356.516	11.59
356.885	11.34
357.254	11.76
357.624	11.34
357.993	11.68
358.362	11.4
358.731	11.58
359.1	11.36
359.469	11.84
359.838	11.24
360.207	11.78
360.576	12.02
360.945	11.88
361.314	11.6
361.682	11.61
362.051	12.04
362.42	11.93
362.788	11.81
363.157	11.79
363.525	11.78
363.894	11.97
364.262	12
364.631	11.89
364.999	12.17
365.367	12.19
365.735	12.29
366.104	12.19
366.472	12.17
366.84	12.28
367.208	12.16
367.576	12.13
367.944	12.72
368.312	12.55
368.68	12.58
369.048	12.77
369.416	12.65
369.783	12.28
370.151	12.85
370.519	12.78
370.886	13.01
371.254	12.65
371.621	12.94
371.989	12.87
372.356	12.75
372.724	13.06
373.091	13.26
373.458	12.93
373.826	13.35
374.193	13.02
374.56	13.2
374.927	12.85
375.294	13.42
375.661	13.58
376.028	13.22
376.395	13.24
376.762	13.58
377.129	13.62
377.496	13.44
377.863	13.68
378.229	13.64
378.596	13.76
378.963	13.81
379.329	13.94
379.696	13.56
380.062	13.71
380.429	13.61
380.795	13.75
381.161	13.74
381.528	14.22
381.894	13.94
382.26	14.51
382.626	14.41
382.993	14.25
383.359	14.34
383.725	14.58
384.091	14.33
384.457	14.36
384.823	14.27
385.188	14.48
385.554	14.01
385.92	14.32
386.286	14.79
386.651	14.65
387.017	14.84
387.383	14.74
387.748	14.54
388.114	14.44
388.479	14.61
388.845	14.7
389.21	14.55
389.575	14.86
389.94	14.97
390.306	15.03
390.671	14.78
391.036	14.89
391.401	15.23
391.766	15.28
392.131	15.2
392.496	15.01
392.861	15.24
393.226	15.44
393.591	14.93
393.956	15.27
394.32	15.04
394.685	15.27
395.05	15.34
395.414	15.56
395.779	15.67
396.143	15.48
396.508	15.38
396.872	15.39
397.236	15.66
397.601	15.74
397.965	15.79
398.329	15.75
398.694	15.76
399.058	15.79
399.422	15.96
399.786	15.93
400.15	16.1
400.514	15.95
400.878	15.95
401.242	16.18
401.605	15.97
401.969	15.96
402.333	16.12
402.697	16.28
403.06	16.27
403.424	16.57
403.787	16.31
404.151	16.55
404.514	16.33
404.878	16.56
405.241	16.33
405.604	16.55
405.968	16.42
406.331	16.43
406.694	16.53
407.057	16.73
407.42	16.49
407.783	16.54
408.146	16.6
408.509	16.84
408.872	16.99
409.235	16.68
409.598	16.66
409.961	17.09
410.323	17.22
410.686	17.2
411.049	17.54
411.411	17.08
411.774	17.27
412.136	17.11
412.499	17.05
412.861	17.28
413.223	17.27
413.586	17.18
413.948	17.63
414.31	17.19
414.672	17.24
415.035	17.5
415.397	17.25
415.759	17.53
416.121	17.71
416.483	17.55
416.845	17.59
417.206	17.8
417.568	17.85
417.93	17.64
418.292	17.82
418.653	17.56
419.015	17.7
419.377	17.57
419.738	17.69
420.1	17.86
420.461	18.06
420.822	17.78
421.184	17.81
421.545	17.87
421.906	17.84
422.267	17.83
422.629	17.84
422.99	17.71
423.351	17.79
423.712	17.72
424.073	17.91
424.434	18.16
424.795	17.9
425.155	18.12
425.516	18.1
425.877	18.06
426.238	18.16
426.598	17.97
426.959	18.2
427.32	18.25
427.68	18.36
428.041	18.43
428.401	18.65
428.761	18.46
429.122	18.7
429.482	18.66
429.842	18.78
430.202	18.81
430.563	18.91
430.923	19.19
431.283	18.8
431.643	18.8
432.003	19.02
432.363	19.06
432.722	19.19
433.082	19.25
433.442	19.1
433.802	19.37
434.161	19.28
434.521	19.29
434.881	19.43
435.24	19.14
435.6	19.27
435.959	19.32
436.319	19.37
436.678	19.28
437.037	19.47
437.396	19.4
437.756	19.47
438.115	19.71
438.474	19.71
438.833	19.79
439.192	19.71
439.551	19.76
439.91	19.87
440.269	19.84
440.628	19.92
440.987	19.89
441.345	19.8
441.704	19.77
442.063	19.79
442.421	19.8
442.78	20.01
443.138	19.89
443.497	19.78
443.855	20.09
444.214	20.12
444.572	20.09
444.93	20.25
445.288	20.41
445.647	20.51
446.005	20.51
446.363	20.29
446.721	20.48
447.079	20.43
447.437	20.36
447.795	20.31
448.153	20.33
448.51	20.34
448.868	20.23
449.226	20.25
449.584	20.34
449.941	20.38
450.299	20.63
450.656	20.59
451.014	20.49
451.371	20.66
451.729	20.7
452.086	20.86
452.443	21.2
452.801	21.19
453.158	21.33
453.515	21.28
453.872	21.15
454.229	21.21
454.586	21.37
454.943	21.23
455.3	21.48
455.657	21.37
456.014	21.39
456.371	21.31
456.727	21.62
457.084	21.52
457.441	21.66
457.797	21.68
458.154	21.7
458.51	21.89
458.867	21.77
459.223	21.73
459.58	21.64
459.936	22.12
460.292	21.75
460.648	21.77
461.005	21.89
461.361	21.7
461.717	21.59
462.073	21.64
462.429	21.56
462.785	21.81
463.141	21.74
463.496	21.89
463.852	21.98
464.208	22.29
464.564	22.19
464.919	22.34
465.275	22.44
465.631	22.4
465.986	22.6
466.342	22.54
466.697	22.41
467.052	22.41
467.408	22.69
467.763	22.68
468.118	22.54
468.473	22.89
468.829	22.66
469.184	22.54
469.539	22.87
469.894	22.66
470.249	22.91
470.603	22.99
470.958	23.11
471.313	23.02
471.668	23.13
472.023	23.11
472.377	22.99
472.732	23.19
473.086	23.26
473.441	23.16
473.795	23.09
474.15	23.55
474.504	23.39
474.859	23.42
475.213	23.43
475.567	23.36
475.921	23.61
476.275	23.48
476.63	23.78
476.984	23.63
477.338	23.76
477.692	23.72
478.045	23.8
478.399	23.85
478.753	23.71
479.107	23.67
479.461	23.61
479.814	23.79
480.168	23.83
480.521	23.87
480.875	23.82
481.228	23.91
481.582	23.91
481.935	24.01
482.289	23.98
482.642	24.11
482.995	24.23
483.348	24.04
483.701	24.07
484.055	23.91
484.408	23.85
484.761	23.87
485.114	23.63
485.466	23.32
485.819	23.39
486.172	23.29
486.525	23.24
486.878	23.27
487.23	23.33
487.583	23.48
487.936	23.76
488.288	23.92
488.641	23.99
488.993	23.9
489.345	23.88
489.698	23.84
490.05	23.77
490.402	23.75
490.754	23.86
491.107	24.02
491.459	24.22
491.811	24.31
492.163	24.57
492.515	24.53
492.866	24.73
493.218	24.49
493.57	24.39
493.922	24.37
494.274	24.37
494.625	24.31
494.977	24.6
495.328	24.79
495.68	24.98
496.031	25.09
496.383	25.31
496.734	25.38
497.086	25.46
497.437	25.73
497.788	25.69
498.139	25.47
498.49	25.54
498.842	25.71
499.193	25.41
499.544	25.54
499.894	25.62
500.245	25.63
500.596	25.78
500.947	25.83
501.298	25.74
501.648	25.86
501.999	25.77
502.35	26.03
502.7	26.03
503.051	26.07
503.401	26.11
503.752	26.13
504.102	26.25
504.452	26.31
504.803	26.31
505.153	26.23
505.503	26.21
505.853	26.51
506.203	26.54
506.553	26.3
506.903	26.5
507.253	26.73
507.603	26.52
507.953	26.58
508.303	26.76
508.652	26.55
509.002	26.94
509.352	26.77
509.701	26.58
510.051	26.79
510.4	26.92
510.75	26.86
511.099	26.65
511.449	26.74
511.798	26.87
512.147	26.81
512.496	26.9
512.846	26.97
513.195	27.13
513.544	27.2
513.893	27.07
514.242	27.11
514.591	27.01
514.939	27.05
515.288	27.2
515.637	27.29
515.986	27.34
516.334	27.47
516.683	27.51
517.032	27.39
517.38	27.64
517.729	27.89
518.077	27.84
518.426	27.63
518.774	27.64
519.122	27.7
519.47	27.83
519.819	27.51
520.167	27.58
520.515	27.71
520.863	27.45
521.211	27.55
521.559	27.59
521.907	27.66
522.255	27.61
522.602	27.88
522.95	28.06
523.298	27.98
523.645	28.18
523.993	28.21
524.341	28.45
524.688	28.32
525.036	28.33
525.383	28.39
525.73	28.45
526.078	28.35
526.425	28.52
526.772	28.6
527.119	28.36
527.466	28.14
527.814	28.17
528.161	28.08
528.508	28.18
528.854	28.23
529.201	28.28
529.548	28.35
529.895	28.38
530.242	28.19
530.588	28.12
530.935	28.01
531.282	28.08
531.628	28.02
531.975	28.04
532.321	28.18
532.667	28.33
533.014	28.59
533.36	28.69
533.706	28.81
534.052	28.85
534.399	28.95
534.745	28.88
535.091	28.75
535.437	28.83
535.783	28.66
536.129	28.66
536.474	28.69
536.82	28.75
537.166	29
537.512	29.29
537.857	29.56
538.203	29.55
538.549	29.37
538.894	29.51
539.239	29.32
539.585	29.55
539.93	29.36
540.276	29.57
540.621	29.89
540.966	30.01
541.311	29.93
541.656	30.15
542.001	30.08
542.346	30.12
542.691	29.92
543.036	29.78
543.381	29.62
543.726	29.5
544.071	29.58
544.415	29.6
544.76	29.53
545.105	29.79
545.449	29.94
545.794	29.95
546.138	30.08
546.483	30.15
546.827	30.48
547.171	30.43
547.516	30.7
547.86	30.51
548.204	30.46
548.548	30.67
548.892	30.43
549.236	30.53
549.58	30.49
549.924	30.67
550.268	31
550.612	30.99
550.956	31.14
551.3	31.14
551.643	31.31
551.987	31.4
552.33	31.52
552.674	31.7
553.017	31.59
553.361	31.6
553.704	31.4
554.048	31.62
554.391	31.62
554.734	31.76
555.077	31.67
555.42	31.75
555.764	31.82
556.107	31.68
556.45	31.95
556.793	31.7
557.135	31.97
557.478	32.22
557.821	32.05
558.164	32.5
558.507	32.21
558.849	32.35
559.192	31.96
559.534	32.17
559.877	32.47
560.219	32.45
560.562	32.52
560.904	32.47
561.246	32.62
561.589	32.46
561.931	32.64
562.273	32.5
562.615	32.79
562.957	32.86
563.299	32.71
563.641	32.93
563.983	32.74
564.325	32.79
564.667	32.6
565.008	32.86
565.35	33.11
565.692	33.17
566.033	33.03
566.375	32.92
566.716	33.23
567.058	33.26
567.399	33.11
567.741	33.15
568.082	33.07
568.423	33.09
568.764	33.19
569.105	33.22
569.447	33.03
569.788	33.05
570.129	33.27
570.47	33.24
570.811	33.63
571.151	33.38
571.492	33.46
571.833	33.69
572.174	33.61
572.514	33.75
572.855	33.55
573.195	33.76
573.536	33.87
573.876	33.5
574.217	33.68
574.557	33.74
574.898	33.73
575.238	33.87
575.578	33.72
575.918	33.71
576.258	34.1
576.598	34.24
576.938	34.14
577.278	34.23
577.618	33.99
577.958	34.05
578.298	34.26
578.638	34.11
578.977	34.46
579.317	34.22
579.657	34.34
579.996	34.34
580.336	34.66
580.675	34.78
581.014	34.99
581.354	34.92
581.693	34.92
582.032	34.98
582.372	34.99
582.711	35.14
583.05	34.98
583.389	35.15
583.728	35.36
584.067	34.94
584.406	35.04
584.745	35.21
585.083	35.25
585.422	35.28
585.761	35.4
586.1	35.79
586.438	35.4
586.777	35.57
587.115	35.56
587.454	35.73
587.792	35.51
588.13	35.68
588.469	35.63
588.807	35.61
589.145	35.47
589.483	35.86
589.821	35.62
590.159	35.92
590.497	36.04
590.835	36.04
591.173	35.84
591.511	35.76
591.849	36.01
592.187	36.09
592.524	36.13
592.862	36.09
593.2	36.11
593.537	36.11
593.875	36.57
594.212	36.44
594.55	36.05
594.887	36.25
595.224	36.46
595.561	36.51
595.899	36.31
596.236	36.71
596.573	36.48
596.91	36.59
597.247	36.57
597.584	36.44
597.921	36.45
598.258	36.96
598.594	36.74
598.931	36.58
599.268	36.6
599.604	36.52
599.941	36.68
600.277	36.31
600.614	36.81
600.95	36.38
601.287	36.83
601.623	37.09
601.959	37.18
602.296	37.29
602.632	37.44
602.968	37.08
603.304	37.36
603.64	37.13
603.976	37.36
604.312	37.21
604.648	37.11
604.984	36.98
605.319	37.49
605.655	37.42
605.991	37.26
606.326	37.23
606.662	37.25
606.998	37.17
607.333	37.26
607.668	37.12
608.004	37.32
608.339	37.31
608.674	37.54
609.01	37.63
609.345	37.87
609.68	37.87
610.015	37.81
610.35	38.17
610.685	38.13
611.02	38.17
611.355	38.3
611.689	37.98
612.024	37.7
612.359	37.7
612.694	37.98
613.028	37.64
613.363	37.79
613.697	37.79
614.032	38.11
614.366	38.36
614.7	38.87
615.035	38.3
615.369	38.28
615.703	38.53
616.037	38.26
616.371	38.86
616.705	38.62
617.039	38.45
617.373	38.99
617.707	38.84
618.041	38.8
618.375	38.66
618.709	38.83
619.042	39
619.376	38.76
619.71	39.13
620.043	39.04
620.377	39.08
620.71	38.74
621.043	39.16
621.377	39.24
621.71	39.18
622.043	38.58
622.376	39.07
622.709	39.21
623.043	39.15
623.376	39.37
623.709	39.4
624.041	39.42
624.374	39.45
624.707	39.41
625.04	39.25
625.373	39.47
625.705	39.56
626.038	39.5
626.37	40.03
626.703	39.93
627.035	39.83
627.368	40.16
627.7	39.96
628.032	39.67
628.365	39.29
628.697	40.07
629.029	39.83
629.361	39.9
629.693	39.71
630.025	39.69
630.357	40.23
630.689	40.22
631.021	40.42
631.353	40.26
631.684	40.37
632.016	40.05
632.348	40.08
632.679	40.11
633.011	40.01
633.342	39.83
633.674	40.37
634.005	40.57
634.336	40.68
634.668	40.74
634.999	40.68
635.33	40.15
635.661	40.37
635.992	40.55
636.323	40.98
636.654	40.39
636.985	40.77
637.316	40.19
637.647	40.71
637.977	40.3
638.308	41.32
638.639	40.62
638.969	40.7
639.3	40.69
639.63	40.87
639.961	40.76
640.291	40.98
640.622	41.35
640.952	40.64
641.282	40.64
641.612	41.33
641.943	40.99
642.273	41.25
642.603	41.03
642.933	41.39
643.263	41.31
643.592	41.5
643.922	40.99
644.252	41.34
644.582	41.55
644.911	41.84
645.241	41.18
645.571	41.83
645.9	41.28
646.23	41.17
646.559	42.25
646.888	41.56
647.218	41.28
647.547	41.36
647.876	41.95
648.205	41.94
648.534	41.75
648.863	42.01
649.192	41.87
649.521	42.44
649.85	41.99
650.179	42.23
650.508	41.51
650.837	41.97
651.165	42.08
651.494	42.27
651.822	42.15
652.151	42.11
652.479	42.58
652.808	42.39
653.136	42.04
653.465	42.21
653.793	42.47
654.121	42.56
654.449	42.49
654.777	41.76
655.105	42.46
655.433	42.6
655.761	42.15
656.089	42.76
656.417	42.04
656.745	42.86
657.073	42.39
657.4	42.99
657.728	43.4
658.056	42.83
658.383	42.86
658.711	42.86
659.038	42.83
659.365	43.05
659.693	42.3
660.02	43.12
660.347	43.03
660.674	42.75
661.001	43.19
661.329	43.27
661.656	43.13
661.982	43.04
662.309	43.05
662.636	42.9
662.963	43.24
663.29	42.8
663.616	42.7
663.943	43.27
664.27	43.56
664.596	43.34
664.923	43.75
665.249	44
665.576	43.14
665.902	42.81
666.228	43.46
666.554	43.65
666.881	43.4
667.207	43.25
667.533	43.78
667.859	42.75
668.185	43.29
668.511	44.09
668.837	43.39
669.162	44.06
669.488	43.52
669.814	44.13
670.139	44.25
670.465	44
