Data from 0139_crown_Reflection__2__195.txt Node

Date: Mon Aug 28 20:19:58 CDT 2023
User: ToomeyLab
Spectrometer: FLMS14357
Trigger mode: 0
Integration Time (sec): 1.000000E-2
Scans to average: 100
Electric dark correction enabled: true
Nonlinearity correction enabled: false
Boxcar width: 0
XAxis mode: Wavelengths
Number of Pixels in Spectrum: 2048
>>>>>Begin Spectral Data<<<<<
189.047	271.69
189.435	271.69
189.823	271.69
190.211	-139.21
190.599	102.95
190.987	63.47
191.375	11.23
191.763	105.5
192.151	-142.47
192.538	33.65
192.926	95.22
193.314	231.69
193.702	2625.41
194.089	34.34
194.477	-129.24
194.864	52.58
195.252	-162.19
195.639	-88.53
196.027	141.95
196.414	129.05
196.801	41.95
197.189	49.73
197.576	-25.27
197.963	6.57
198.351	35.26
198.738	38.11
199.125	10.9
199.512	-0.97
199.899	22.84
200.286	-25.05
200.673	26.1
201.06	-7.15
201.447	32.13
201.833	-15.17
202.22	7.97
202.607	25.84
202.994	42.31
203.38	-16.75
203.767	-35.08
204.154	0.49
204.54	-30.29
204.927	-71.77
205.313	51.63
205.699	-22.61
206.086	42.02
206.472	-5.92
206.858	-22.43
207.245	8.89
207.631	15.61
208.017	11.45
208.403	9.87
208.789	4.02
209.175	-70.82
209.561	17.17
209.947	14.26
210.333	-30.56
210.719	-1.68
211.105	29.63
211.491	-12.02
211.876	17.55
212.262	14.24
212.648	30.64
213.034	51.57
213.419	25.03
213.805	37.34
214.19	12.29
214.576	18.73
214.961	-14.99
215.346	-17.91
215.732	18.96
216.117	-14.66
216.502	3.27
216.888	-21.31
217.273	6.74
217.658	25.73
218.043	24.35
218.428	15.19
218.813	15.38
219.198	11.52
219.583	2.34
219.968	27.96
220.353	-8.54
220.738	21.67
221.122	-5.28
221.507	16.55
221.892	-2.39
222.276	14.57
222.661	12.67
223.046	11.22
223.43	7.59
223.815	9.78
224.199	16.53
224.583	-6.8
224.968	8.62
225.352	12.15
225.736	7.67
226.121	8.9
226.505	4.52
226.889	21.58
227.273	8.34
227.657	9.69
228.041	7.86
228.425	3.46
228.809	4.97
229.193	4.27
229.577	7.52
229.961	4.51
230.344	6.52
230.728	5.1
231.112	5.6
231.495	6.21
231.879	5.08
232.263	5.26
232.646	4.1
233.03	5.37
233.413	6.04
233.797	4.47
234.18	4.2
234.563	2.56
234.946	8.5
235.33	5.75
235.713	2.7
236.096	5.73
236.479	4.52
236.862	6.37
237.245	3.62
237.628	5.93
238.011	6.96
238.394	5.62
238.777	8.23
239.16	4.96
239.543	3.24
239.925	5.7
240.308	3.75
240.691	4.49
241.073	2.6
241.456	3.8
241.838	4.4
242.221	5.72
242.603	5.18
242.986	5.53
243.368	5.2
243.75	4.92
244.133	3.95
244.515	4.49
244.897	4.46
245.279	5.13
245.661	4.35
246.043	4.29
246.425	4.24
246.807	6.13
247.189	3.82
247.571	4.62
247.953	4.78
248.335	4.77
248.717	4.03
249.098	4.42
249.48	4.36
249.862	4.54
250.243	4.66
250.625	5.2
251.006	4.86
251.388	4.48
251.769	4.5
252.151	4.65
252.532	4.14
252.913	4.15
253.295	3.63
253.676	3.94
254.057	3.82
254.438	3.84
254.819	4.45
255.2	4.32
255.581	4.4
255.962	5.36
256.343	4.92
256.724	3.88
257.105	2.88
257.486	5.59
257.867	3.9
258.247	4.37
258.628	5.27
259.009	4.37
259.389	3.29
259.77	4.73
260.15	4.57
260.531	3.65
260.911	3.84
261.292	4.22
261.672	4.03
262.052	3.82
262.432	4.13
262.813	3.85
263.193	3.91
263.573	3.58
263.953	3.55
264.333	3.62
264.713	3.51
265.093	4.01
265.473	4.06
265.853	3.32
266.233	3.78
266.612	3.3
266.992	2.99
267.372	3.31
267.752	4.9
268.131	4.07
268.511	3.63
268.89	4.04
269.27	3.48
269.649	3.65
270.029	4.05
270.408	4.39
270.787	5.11
271.167	4.59
271.546	3.69
271.925	3.71
272.304	4.03
272.683	4
273.062	3.59
273.441	4.26
273.82	3.49
274.199	3.09
274.578	3.54
274.957	4.07
275.336	4.03
275.715	4.52
276.093	3.4
276.472	3.63
276.851	4.3
277.229	4.3
277.608	3.77
277.986	3.32
278.365	3.78
278.743	3.68
279.122	3.87
279.5	3.74
279.878	3.53
280.257	3.97
280.635	3.62
281.013	3.71
281.391	4.25
281.769	3.92
282.147	3.93
282.525	4.14
282.903	3.99
283.281	3.32
283.659	4.11
284.037	4.06
284.415	3.35
284.792	3.82
285.17	3.43
285.548	3.62
285.925	3.75
286.303	3.57
286.68	4.11
287.058	3.86
287.435	3.3
287.813	3.45
288.19	4.12
288.567	3.79
288.945	3.74
289.322	3.86
289.699	3.9
290.076	4.22
290.453	3.87
290.83	3.5
291.207	3.56
291.584	3.64
291.961	3.62
292.338	3.59
292.715	3.35
293.092	3.58
293.469	3.89
293.845	3.42
294.222	3.61
294.599	3.5
294.975	3.88
295.352	3.35
295.728	3.79
296.105	3.83
296.481	3.49
296.858	3.62
297.234	3.88
297.61	3.85
297.986	3.26
298.363	4.02
298.739	3.58
299.115	3.25
299.491	3.83
299.867	3.53
300.243	3.83
300.619	3.78
300.995	3.82
301.371	3.43
301.746	3.59
302.122	3.26
302.498	3.23
302.874	3.67
303.249	3.45
303.625	4.03
304	3.34
304.376	3.82
304.751	3.29
305.127	3.38
305.502	3.68
305.878	3.08
306.253	3.13
306.628	3.95
307.003	3.77
307.378	3.6
307.754	3.91
308.129	3.43
308.504	4
308.879	4.1
309.254	4.05
309.629	3.7
310.003	3.44
310.378	3.33
310.753	3.37
311.128	3.54
311.502	3.65
311.877	3.12
312.252	4.02
312.626	3.73
313.001	3.39
313.375	3.83
313.75	3.6
314.124	3.41
314.498	3.94
314.873	3.8
315.247	4.09
315.621	3.54
315.995	3.77
316.369	3.64
316.743	3.44
317.117	3.92
317.491	2.81
317.865	3.45
318.239	3.39
318.613	3.86
318.987	3.32
319.361	3.36
319.734	3.56
320.108	3.67
320.482	3.61
320.855	3.04
321.229	3.27
321.602	3.63
321.976	3.04
322.349	3.78
322.723	3.04
323.096	3.53
323.469	3.71
323.843	3.71
324.216	3.62
324.589	3.97
324.962	3.81
325.335	4.3
325.708	3.42
326.081	3.4
326.454	4.01
326.827	3.39
327.2	3.31
327.573	3.23
327.945	3.99
328.318	4.16
328.691	3.45
329.063	2.97
329.436	2.97
329.809	3.4
330.181	3.14
330.553	2.96
330.926	3.65
331.298	3.3
331.671	3.25
332.043	3.77
332.415	4.04
332.787	3.17
333.159	3.74
333.532	3.81
333.904	3.63
334.276	3.07
334.648	3.61
335.02	3.94
335.391	3.87
335.763	3.14
336.135	3.57
336.507	3.21
336.879	3.3
337.25	4.16
337.622	3.28
337.993	3.4
338.365	3.62
338.736	3.41
339.108	3.4
339.479	3.11
339.851	3.76
340.222	3.73
340.593	3.26
340.964	3.73
341.336	3.19
341.707	3.23
342.078	3.13
342.449	3.66
342.82	4.06
343.191	3.37
343.562	3.13
343.933	3.28
344.303	3.24
344.674	3.8
345.045	3.77
345.416	3.92
345.786	3.79
346.157	3.72
346.527	3.68
346.898	3.72
347.268	3.22
347.639	3.31
348.009	3.15
348.38	3.41
348.75	3.48
349.12	3.32
349.49	3.31
349.861	3.23
350.231	3.38
350.601	3.68
350.971	3.84
351.341	3.5
351.711	3.68
352.081	3.24
352.45	3.53
352.82	3.58
353.19	4.11
353.56	3.68
353.929	3.8
354.299	3.16
354.669	4.1
355.038	3.86
355.408	3.96
355.777	3.89
356.147	3.6
356.516	3.82
356.885	3.84
357.254	3.29
357.624	3.56
357.993	3.92
358.362	3.27
358.731	3.7
359.1	3.61
359.469	3.85
359.838	3.26
360.207	3.38
360.576	3.95
360.945	3.73
361.314	3.44
361.682	3.42
362.051	3.65
362.42	3.76
362.788	3.53
363.157	3.51
363.525	3.53
363.894	3.3
364.262	3.76
364.631	3.33
364.999	3.68
365.367	3.63
365.735	3.46
366.104	3.54
366.472	3.33
366.84	3.45
367.208	3.68
367.576	3.63
367.944	3.58
368.312	3.72
368.68	3.51
369.048	3.56
369.416	3.53
369.783	3.5
370.151	3.78
370.519	3.75
370.886	4
371.254	3.67
371.621	3.44
371.989	3.39
372.356	3.33
372.724	4.04
373.091	3.64
373.458	3.51
373.826	3.54
374.193	3.61
374.56	3.68
374.927	3.4
375.294	3.68
375.661	3.76
376.028	3.22
376.395	3.42
376.762	3.97
377.129	3.79
377.496	3.81
377.863	4.01
378.229	3.68
378.596	3.93
378.963	3.53
379.329	3.74
379.696	3.84
380.062	3.61
380.429	3.77
380.795	3.96
381.161	3.76
381.528	4.06
381.894	3.73
382.26	3.99
382.626	3.9
382.993	3.62
383.359	3.76
383.725	3.95
384.091	3.51
384.457	3.52
384.823	3.64
385.188	3.71
385.554	3.69
385.92	3.49
386.286	3.91
386.651	3.48
387.017	3.83
387.383	3.82
387.748	3.92
388.114	3.79
388.479	3.63
388.845	3.61
389.21	3.61
389.575	3.89
389.94	3.69
390.306	3.69
390.671	3.7
391.036	3.65
391.401	3.95
391.766	3.79
392.131	3.62
392.496	3.38
392.861	3.7
393.226	3.9
393.591	3.47
393.956	3.75
394.32	3.52
394.685	3.82
395.05	3.83
395.414	3.6
395.779	3.73
396.143	3.71
396.508	3.53
396.872	4
397.236	3.74
397.601	3.65
397.965	3.98
398.329	3.86
398.694	3.76
399.058	3.81
399.422	3.79
399.786	3.85
400.15	3.89
400.514	3.96
400.878	3.73
401.242	3.76
401.605	3.81
401.969	3.58
402.333	3.66
402.697	3.94
403.06	3.69
403.424	3.68
403.787	3.6
404.151	3.43
404.514	3.79
404.878	3.63
405.241	3.88
405.604	3.92
405.968	3.62
406.331	4.01
406.694	3.85
407.057	3.77
407.42	3.72
407.783	3.56
408.146	3.65
408.509	3.76
408.872	3.85
409.235	3.78
409.598	3.75
409.961	3.55
410.323	4.03
410.686	3.87
411.049	3.97
411.411	4.03
411.774	3.74
412.136	3.62
412.499	3.8
412.861	3.9
413.223	3.6
413.586	3.66
413.948	3.87
414.31	3.75
414.672	3.76
415.035	3.64
415.397	3.75
415.759	3.84
416.121	3.83
416.483	3.67
416.845	3.88
417.206	3.95
417.568	3.76
417.93	3.59
418.292	3.71
418.653	3.8
419.015	3.84
419.377	3.61
419.738	3.89
420.1	3.87
420.461	3.78
420.822	3.83
421.184	3.76
421.545	3.79
421.906	3.78
422.267	3.72
422.629	3.58
422.99	3.67
423.351	3.74
423.712	3.6
424.073	3.74
424.434	3.78
424.795	3.73
425.155	3.65
425.516	3.66
425.877	3.7
426.238	3.6
426.598	3.58
426.959	3.67
427.32	3.63
427.68	3.77
428.041	3.65
428.401	3.9
428.761	3.75
429.122	3.8
429.482	3.67
429.842	3.81
430.202	3.64
430.563	3.82
430.923	3.78
431.283	3.56
431.643	3.68
432.003	3.75
432.363	3.77
432.722	3.91
433.082	3.87
433.442	3.79
433.802	3.66
434.161	3.84
434.521	3.69
434.881	3.71
435.24	3.82
435.6	3.69
435.959	3.69
436.319	3.8
436.678	3.83
437.037	3.85
437.396	3.86
437.756	3.6
438.115	3.93
438.474	3.75
438.833	3.76
439.192	3.74
439.551	3.71
439.91	3.91
440.269	3.73
440.628	3.73
440.987	3.7
441.345	3.65
441.704	3.73
442.063	3.7
442.421	3.77
442.78	3.74
443.138	3.66
443.497	3.64
443.855	3.72
444.214	3.66
444.572	3.82
444.93	3.81
445.288	3.68
445.647	3.8
446.005	3.96
446.363	3.85
446.721	3.75
447.079	3.76
447.437	3.67
447.795	3.66
448.153	3.76
448.51	3.69
448.868	3.72
449.226	3.67
449.584	3.68
449.941	3.74
450.299	3.85
450.656	3.76
451.014	3.75
451.371	3.81
451.729	3.63
452.086	3.82
452.443	3.87
452.801	3.8
453.158	3.92
453.515	3.81
453.872	3.77
454.229	3.93
454.586	3.92
454.943	3.64
455.3	3.69
455.657	3.68
456.014	3.73
456.371	3.84
456.727	3.8
457.084	3.68
457.441	3.73
457.797	3.86
458.154	3.95
458.51	3.92
458.867	3.64
459.223	3.89
459.58	3.82
459.936	3.94
460.292	3.9
460.648	3.72
461.005	3.65
461.361	3.7
461.717	3.71
462.073	3.56
462.429	3.6
462.785	3.77
463.141	3.72
463.496	3.84
463.852	3.71
464.208	3.72
464.564	3.94
464.919	3.85
465.275	4.1
465.631	3.72
465.986	3.88
466.342	3.77
466.697	3.57
467.052	3.73
467.408	3.72
467.763	3.73
468.118	3.65
468.473	3.77
468.829	3.74
469.184	3.65
469.539	3.78
469.894	3.73
470.249	3.85
470.603	3.75
470.958	3.67
471.313	3.93
471.668	3.69
472.023	3.76
472.377	3.84
472.732	3.79
473.086	3.85
473.441	3.83
473.795	3.83
474.15	3.92
474.504	3.86
474.859	3.73
475.213	3.85
475.567	3.87
475.921	3.85
476.275	3.76
476.63	3.88
476.984	3.84
477.338	3.8
477.692	3.7
478.045	3.92
478.399	3.81
478.753	3.72
479.107	3.79
479.461	3.74
479.814	3.9
480.168	3.84
480.521	3.92
480.875	3.85
481.228	3.71
481.582	3.8
481.935	3.73
482.289	3.75
482.642	3.92
482.995	3.79
483.348	3.73
483.701	3.68
484.055	3.53
484.408	3.71
484.761	3.67
485.114	3.56
485.466	3.5
485.819	3.44
486.172	3.37
486.525	3.43
486.878	3.55
487.23	3.68
487.583	3.74
487.936	3.75
488.288	3.76
488.641	3.72
488.993	3.64
489.345	3.54
489.698	3.55
490.05	3.52
490.402	3.51
490.754	3.64
491.107	3.68
491.459	3.76
491.811	3.7
492.163	3.7
492.515	3.69
492.866	3.73
493.218	3.62
493.57	3.58
493.922	3.43
494.274	3.57
494.625	3.59
494.977	3.8
495.328	3.81
495.68	3.86
496.031	3.82
496.383	3.73
496.734	3.77
497.086	3.9
497.437	3.88
497.788	3.89
498.139	3.81
498.49	3.59
498.842	3.7
499.193	3.69
499.544	3.74
499.894	3.72
500.245	3.65
500.596	3.73
500.947	3.81
501.298	3.83
501.648	3.75
501.999	3.69
502.35	3.79
502.7	3.82
503.051	3.71
503.401	3.87
503.752	3.74
504.102	3.73
504.452	3.71
504.803	3.9
505.153	3.78
505.503	3.67
505.853	3.77
506.203	3.75
506.553	3.7
506.903	3.9
507.253	3.79
507.603	3.66
507.953	3.81
508.303	3.89
508.652	3.81
509.002	3.92
509.352	3.67
509.701	3.65
510.051	3.74
510.4	3.78
510.75	3.72
511.099	3.72
511.449	3.68
511.798	3.66
512.147	3.78
512.496	3.7
512.846	3.74
513.195	3.7
513.544	3.87
513.893	3.71
514.242	3.74
514.591	3.79
514.939	3.57
515.288	3.88
515.637	3.81
515.986	3.76
516.334	3.9
516.683	3.84
517.032	3.78
517.38	3.69
517.729	3.84
518.077	3.76
518.426	3.67
518.774	3.67
519.122	3.85
519.47	3.69
519.819	3.59
520.167	3.67
520.515	3.7
520.863	3.64
521.211	3.66
521.559	3.67
521.907	3.81
522.255	3.6
522.602	3.83
522.95	3.9
523.298	3.81
523.645	3.85
523.993	3.72
524.341	3.83
524.688	3.88
525.036	3.83
525.383	3.85
525.73	3.87
526.078	3.84
526.425	3.78
526.772	3.71
527.119	3.7
527.466	3.64
527.814	3.52
528.161	3.57
528.508	3.63
528.854	3.68
529.201	3.74
529.548	3.56
529.895	3.6
530.242	3.47
530.588	3.44
530.935	3.39
531.282	3.51
531.628	3.55
531.975	3.6
532.321	3.62
532.667	3.63
533.014	3.74
533.36	3.79
533.706	3.76
534.052	3.69
534.399	3.75
534.745	3.7
535.091	3.56
535.437	3.55
535.783	3.55
536.129	3.61
536.474	3.62
536.82	3.77
537.166	3.71
537.512	3.72
537.857	3.88
538.203	3.7
538.549	3.6
538.894	3.59
539.239	3.51
539.585	3.7
539.93	3.68
540.276	3.72
540.621	3.88
540.966	3.78
541.311	3.85
541.656	3.73
542.001	3.71
542.346	3.72
542.691	3.64
543.036	3.53
543.381	3.53
543.726	3.5
544.071	3.56
544.415	3.65
544.76	3.66
545.105	3.67
545.449	3.63
545.794	3.74
546.138	3.71
546.483	3.79
546.827	3.73
547.171	3.77
547.516	3.73
547.86	3.71
548.204	3.82
548.548	3.63
548.892	3.63
549.236	3.59
549.58	3.65
549.924	3.75
550.268	3.76
550.612	3.84
550.956	3.93
551.3	3.91
551.643	3.85
551.987	3.61
552.33	3.92
552.674	3.71
553.017	3.83
553.361	3.94
553.704	3.62
554.048	3.77
554.391	3.62
554.734	3.79
555.077	3.83
555.42	3.77
555.764	3.77
556.107	3.67
556.45	3.88
556.793	3.76
557.135	3.75
557.478	3.71
557.821	3.75
558.164	3.99
558.507	3.87
558.849	4
559.192	3.81
559.534	3.71
559.877	3.85
560.219	3.92
560.562	4.01
560.904	3.79
561.246	3.65
561.589	3.73
561.931	3.83
562.273	3.77
562.615	3.71
562.957	3.87
563.299	3.79
563.641	3.83
563.983	4.01
564.325	3.89
564.667	3.74
565.008	3.85
565.35	4.1
565.692	3.77
566.033	3.7
566.375	3.75
566.716	3.72
567.058	3.87
567.399	3.66
567.741	3.81
568.082	3.73
568.423	3.76
568.764	3.66
569.105	3.9
569.447	3.87
569.788	3.82
570.129	3.84
570.47	3.9
570.811	3.91
571.151	3.65
571.492	4.03
571.833	3.72
572.174	4.04
572.514	3.74
572.855	3.67
573.195	3.96
573.536	3.87
573.876	3.69
574.217	3.82
574.557	3.75
574.898	3.88
575.238	3.74
575.578	3.71
575.918	3.93
576.258	3.91
576.598	3.91
576.938	3.67
577.278	3.77
577.618	3.74
577.958	3.82
578.298	4.01
578.638	3.83
578.977	3.85
579.317	3.83
579.657	3.94
579.996	3.8
580.336	3.87
580.675	4.06
581.014	4
581.354	3.77
581.693	3.92
582.032	3.92
582.372	3.77
582.711	4.08
583.05	3.87
583.389	3.82
583.728	3.83
584.067	3.86
584.406	3.73
584.745	3.83
585.083	3.88
585.422	3.7
585.761	3.83
586.1	4.06
586.438	3.76
586.777	3.95
587.115	4.03
587.454	3.76
587.792	3.93
588.13	3.77
588.469	3.84
588.807	3.84
589.145	3.92
589.483	3.88
589.821	3.81
590.159	3.9
590.497	3.94
590.835	3.86
591.173	3.75
591.511	3.88
591.849	3.83
592.187	3.82
592.524	3.89
592.862	3.83
593.2	3.84
593.537	3.85
593.875	4.05
594.212	4.02
594.55	4.09
594.887	3.96
595.224	3.94
595.561	4
595.899	3.68
596.236	4
596.573	4.2
596.91	3.85
597.247	4.03
597.584	3.8
597.921	3.83
598.258	3.79
598.594	3.68
598.931	3.72
599.268	3.78
599.604	3.74
599.941	3.94
600.277	3.77
600.614	3.97
600.95	3.91
601.287	3.99
601.623	4.05
601.959	3.93
602.296	3.83
602.632	3.85
602.968	3.91
603.304	4
603.64	3.92
603.976	3.97
604.312	3.85
604.648	3.94
604.984	3.59
605.319	4.02
605.655	3.94
605.991	3.93
606.326	3.9
606.662	3.74
606.998	3.97
607.333	3.78
607.668	3.83
608.004	3.9
608.339	3.9
608.674	3.5
609.01	3.94
609.345	3.95
609.68	3.8
610.015	3.97
610.35	3.92
610.685	4.02
611.02	3.9
611.355	4.1
611.689	3.81
612.024	3.8
612.359	3.89
612.694	4.01
613.028	3.87
613.363	3.86
613.697	3.95
614.032	3.77
614.366	4.02
614.7	4.12
615.035	3.84
615.369	3.85
615.703	3.98
616.037	3.62
616.371	3.83
616.705	3.7
617.039	3.85
617.373	4.16
617.707	4
618.041	3.98
618.375	4.05
618.709	4.25
619.042	3.87
619.376	3.77
619.71	3.71
620.043	4.18
620.377	4.19
620.71	3.75
621.043	3.76
621.377	4.25
621.71	4.23
622.043	3.52
622.376	3.68
622.709	3.85
623.043	4
623.376	4.24
623.709	4.17
624.041	4.33
624.374	3.9
624.707	3.83
625.04	3.8
625.373	4.01
625.705	4.33
626.038	3.81
626.37	3.97
626.703	4.3
627.035	4.09
627.368	4.41
627.7	3.93
628.032	3.99
628.365	3.49
628.697	4.02
629.029	3.95
629.361	3.96
629.693	3.95
630.025	3.69
630.357	3.96
630.689	4.13
631.021	3.99
631.353	4.02
631.684	4.06
632.016	4.13
632.348	3.94
632.679	4.15
633.011	3.89
633.342	3.76
633.674	4.09
634.005	3.88
634.336	3.98
634.668	4.09
634.999	4.24
635.33	3.96
635.661	4.39
635.992	3.96
636.323	4.24
636.654	4.07
636.985	3.96
637.316	4.28
637.647	4.03
637.977	3.84
638.308	4.2
638.639	3.62
638.969	4.24
639.3	3.84
639.63	3.94
639.961	4.05
640.291	4.01
640.622	3.95
640.952	3.79
641.282	3.75
641.612	3.93
641.943	4.01
642.273	4.57
642.603	3.79
642.933	3.65
643.263	4.36
643.592	3.92
643.922	4.24
644.252	3.95
644.582	4.09
644.911	4.23
645.241	4.19
645.571	3.48
645.9	4.39
646.23	3.97
646.559	4.08
646.888	4.29
647.218	3.8
647.547	4.13
647.876	4.27
648.205	4.29
648.534	4.37
648.863	4.04
649.192	3.96
649.521	4.28
649.85	4.47
650.179	4.62
650.508	4.48
650.837	3.87
651.165	4.08
651.494	4.25
651.822	3.94
652.151	3.94
652.479	4.52
652.808	4.1
653.136	4.07
653.465	4.01
653.793	4.36
654.121	3.86
654.449	4.04
654.777	4.32
655.105	4.21
655.433	4.2
655.761	3.81
656.089	3.76
656.417	3.73
656.745	4.11
657.073	3.86
657.4	4.19
657.728	4.63
658.056	4.31
658.383	3.89
658.711	4.12
659.038	4.06
659.365	3.92
659.693	4
660.02	4.12
660.347	4.22
660.674	4.07
661.001	4.3
661.329	3.71
661.656	4.12
661.982	4.24
662.309	4.19
662.636	4.17
662.963	4.36
663.29	4.4
663.616	3.85
663.943	4.38
664.27	4.19
664.596	4.05
664.923	4.68
665.249	4.1
665.576	4.06
665.902	4
666.228	4.51
666.554	4.18
666.881	3.98
667.207	4.3
667.533	4.29
667.859	3.56
668.185	3.86
668.511	4.81
668.837	3.56
669.162	4.66
669.488	3.76
669.814	4.59
670.139	4.53
670.465	4.19
670.791	4.58
671.116	4.09
671.442	4.05
671.767	3.98
672.092	4.21
672.418	4.27
672.743	4.68
673.068	4.16
673.393	4.28
673.718	3.66
674.043	4.06
674.368	4.5
674.693	4.44
675.018	4.42
675.343	4.27
675.667	4.4
675.992	4.49
676.317	3.74
676.641	4.48
676.966	4.75
677.29	3.53
677.615	4.69
677.939	3.93
678.264	3.85
678.588	4.36
678.912	4.55
679.236	3.86
679.56	3.49
679.885	4.17
680.209	3.71
680.532	4.71
680.856	4.09
681.18	4.77
681.504	3.78
681.828	4.2
682.152	4.26
682.475	4.31
682.799	4.33
683.122	4.19
683.446	4.37
683.769	4.65
684.093	4.63
684.416	4.63
684.739	3.8
685.062	4.92
685.386	3.86
685.709	3.99
686.032	4.17
686.355	4.34
686.678	4.62
687.001	3.39
687.324	4.33
687.646	4.49
687.969	4.62
688.292	5.29
688.614	5.49
688.937	4.51
689.26	4.77
689.582	4.51
689.904	4.15
690.227	4.94
690.549	4.12
690.871	4.56
691.194	4.53
691.516	4.62
691.838	4.88
692.16	4.33
692.482	3.87
692.804	3.56
