Data from 0139_forehead_Reflection__1__189.txt Node

Date: Mon Aug 28 20:18:28 CDT 2023
User: ToomeyLab
Spectrometer: FLMS14357
Trigger mode: 0
Integration Time (sec): 1.000000E-2
Scans to average: 100
Electric dark correction enabled: true
Nonlinearity correction enabled: false
Boxcar width: 0
XAxis mode: Wavelengths
Number of Pixels in Spectrum: 2048
>>>>>Begin Spectral Data<<<<<
189.047	-56.71
189.435	-56.71
189.823	-56.71
190.211	-65.79
190.599	-72.18
190.987	90.23
191.375	101.81
191.763	169.52
192.151	28.65
192.538	27.91
192.926	127.4
193.314	-169.68
193.702	4114.05
194.089	24.85
194.477	-352.08
194.864	-90.68
195.252	-238.84
195.639	-54.44
196.027	172.75
196.414	99.54
196.801	47.32
197.189	122.34
197.576	-26.08
197.963	43.07
198.351	6.71
198.738	61.08
199.125	-7.73
199.512	68.39
199.899	-19.15
200.286	-5.36
200.673	43.65
201.06	-29.42
201.447	-7.8
201.833	-8.01
202.22	25.37
202.607	28.83
202.994	66.83
203.38	9.96
203.767	-17.3
204.154	18.53
204.54	20.83
204.927	22.94
205.313	22.25
205.699	-45.01
206.086	49.67
206.472	-3.74
206.858	-41.45
207.245	17.7
207.631	39.41
208.017	26.03
208.403	36.82
208.789	11.23
209.175	-27.46
209.561	0.12
209.947	48.1
210.333	50.24
210.719	21.4
211.105	8.23
211.491	7.24
211.876	20.67
212.262	-0.5
212.648	29.78
213.034	-10.38
213.419	34.21
213.805	8.2
214.19	-9.69
214.576	46.35
214.961	11.53
215.346	12.61
215.732	30.05
216.117	1.24
216.502	36
216.888	-22.25
217.273	-43.36
217.658	15.12
218.043	28.22
218.428	-1.83
218.813	6.85
219.198	7.95
219.583	11.26
219.968	30.61
220.353	-1.07
220.738	36.36
221.122	1.3
221.507	0.75
221.892	16.46
222.276	12.15
222.661	28.49
223.046	0.79
223.43	10.08
223.815	7.18
224.199	14.81
224.583	6.96
224.968	13.88
225.352	22.21
225.736	9.02
226.121	18.73
226.505	10.34
226.889	16.06
227.273	11.75
227.657	12.48
228.041	9.69
228.425	7.14
228.809	11.76
229.193	8.95
229.577	8.46
229.961	8.13
230.344	7.46
230.728	6.12
231.112	5.42
231.495	7.05
231.879	5.81
232.263	6.3
232.646	3.84
233.03	7.95
233.413	9.22
233.797	7.03
234.18	4.77
234.563	6.47
234.946	7.92
235.33	10.03
235.713	3.65
236.096	6.81
236.479	5.74
236.862	8.16
237.245	7.43
237.628	7.79
238.011	6.99
238.394	8.24
238.777	7.5
239.16	6.57
239.543	5.59
239.925	6.36
240.308	4.03
240.691	4.56
241.073	3.8
241.456	6.4
241.838	5.4
242.221	7.64
242.603	7.59
242.986	6.93
243.368	5.8
243.75	5.95
244.133	5.62
244.515	5.55
244.897	6.51
245.279	5.46
245.661	6.17
246.043	6.14
246.425	6.29
246.807	8.42
247.189	5.69
247.571	6.11
247.953	6.28
248.335	6.2
248.717	5.99
249.098	5.8
249.48	6.05
249.862	6.07
250.243	6.2
250.625	6.2
251.006	6.41
251.388	5.83
251.769	6.22
252.151	6.33
252.532	6.9
252.913	7.34
253.295	5.71
253.676	6.8
254.057	5.54
254.438	5.49
254.819	5.45
255.2	6.75
255.581	6.62
255.962	6.99
256.343	7.28
256.724	6.28
257.105	6.09
257.486	6.72
257.867	6.26
258.247	5.93
258.628	6.72
259.009	5.93
259.389	5.84
259.77	6.34
260.15	5.72
260.531	6.15
260.911	6.44
261.292	6.15
261.672	5.96
262.052	5.56
262.432	5.89
262.813	5.88
263.193	5.63
263.573	6.21
263.953	6.8
264.333	5.53
264.713	5.93
265.093	5.73
265.473	5.68
265.853	5.8
266.233	5.64
266.612	6.5
266.992	6.25
267.372	6.38
267.752	6.4
268.131	6.62
268.511	5.63
268.89	5.94
269.27	6.05
269.649	5.91
270.029	6
270.408	6.34
270.787	6.62
271.167	5.91
271.546	5.55
271.925	5.87
272.304	5.92
272.683	6.33
273.062	5.56
273.441	6.22
273.82	5.96
274.199	5.34
274.578	5.64
274.957	5.76
275.336	6.02
275.715	6.48
276.093	6.01
276.472	6.05
276.851	5.94
277.229	6.65
277.608	6.42
277.986	5.87
278.365	6.48
278.743	5.91
279.122	5.77
279.5	5.23
279.878	5.32
280.257	6.06
280.635	6.46
281.013	5.94
281.391	5.4
281.769	5.59
282.147	6.55
282.525	6.79
282.903	6.58
283.281	6.29
283.659	6.54
284.037	6.44
284.415	5.91
284.792	6.23
285.17	5.82
285.548	5.64
285.925	6.55
286.303	6.21
286.68	6.46
287.058	6.17
287.435	5.81
287.813	5.99
288.19	6.45
288.567	6.06
288.945	6.27
289.322	6.4
289.699	6.18
290.076	6.74
290.453	6.29
290.83	5.7
291.207	6.36
291.584	6.43
291.961	6.87
292.338	6.29
292.715	5.98
293.092	6.98
293.469	6.48
293.845	6.4
294.222	7.08
294.599	6.82
294.975	7.13
295.352	6.65
295.728	6.83
296.105	6.65
296.481	6.78
296.858	7.05
297.234	7.08
297.61	7.27
297.986	7.11
298.363	7.76
298.739	7.41
299.115	6.78
299.491	7.42
299.867	7.3
300.243	7.42
300.619	7.26
300.995	8.21
301.371	7.21
301.746	7.82
302.122	7.34
302.498	7.59
302.874	7.77
303.249	8.07
303.625	7.73
304	7.67
304.376	7.57
304.751	7.78
305.127	8.32
305.502	8.3
305.878	7.93
306.253	7.73
306.628	8.5
307.003	8.21
307.378	9.21
307.754	8.74
308.129	8.39
308.504	8.89
308.879	8.51
309.254	8.27
309.629	8.21
310.003	8.41
310.378	8.77
310.753	8.81
311.128	9.05
311.502	9.02
311.877	9.06
312.252	9.53
312.626	8.87
313.001	8.96
313.375	9.14
313.75	9.06
314.124	9.36
314.498	9.46
314.873	9.54
315.247	9.36
315.621	9.24
315.995	9.97
316.369	10.14
316.743	9.62
317.117	9.63
317.491	9.49
317.865	9.47
318.239	9.63
318.613	9.57
318.987	10.54
319.361	9.96
319.734	10.3
320.108	10.39
320.482	10.37
320.855	10.2
321.229	10.39
321.602	10.19
321.976	10.53
322.349	11.1
322.723	9.89
323.096	10.83
323.469	10.6
323.843	10.92
324.216	11.6
324.589	10.73
324.962	10.99
325.335	11.09
325.708	10.88
326.081	11.13
326.454	11.71
326.827	11.32
327.2	11.26
327.573	11.39
327.945	11.81
328.318	11.92
328.691	11.31
329.063	11.22
329.436	11.14
329.809	11.91
330.181	11.16
330.553	11.54
330.926	11.69
331.298	11.92
331.671	12.1
332.043	11.94
332.415	12.27
332.787	12.25
333.159	11.98
333.532	12.28
333.904	12.44
334.276	12.06
334.648	12.4
335.02	12.45
335.391	12.92
335.763	12.29
336.135	12.9
336.507	12.99
336.879	12.79
337.25	13.15
337.622	12.4
337.993	13.07
338.365	13.32
338.736	13.37
339.108	12.22
339.479	12.28
339.851	12.91
340.222	13.38
340.593	12.64
340.964	13.51
341.336	13.07
341.707	13.18
342.078	13.16
342.449	13.25
342.82	13.73
343.191	13.67
343.562	13.25
343.933	13.47
344.303	14.08
344.674	13.54
345.045	13.69
345.416	13.72
345.786	14.01
346.157	13.38
346.527	13.77
346.898	13.76
347.268	13.85
347.639	13.71
348.009	13.95
348.38	14.09
348.75	13.73
349.12	14.26
349.49	14.18
349.861	14.05
350.231	13.86
350.601	14.92
350.971	14.98
351.341	14.89
351.711	14.41
352.081	14.87
352.45	14.24
352.82	14.76
353.19	15.16
353.56	15.19
353.929	15.15
354.299	14.54
354.669	14.95
355.038	15.21
355.408	15.71
355.777	15
356.147	15.21
356.516	15.54
356.885	15.83
357.254	15.48
357.624	15.63
357.993	15.83
358.362	15.68
358.731	15.64
359.1	16.02
359.469	15.87
359.838	15.33
360.207	16.05
360.576	16
360.945	15.81
361.314	15.81
361.682	16.07
362.051	15.99
362.42	16.13
362.788	16.3
363.157	16.13
363.525	16.17
363.894	16.11
364.262	16.14
364.631	16.31
364.999	16.58
365.367	16.51
365.735	16.56
366.104	16.49
366.472	16.37
366.84	16.62
367.208	16.99
367.576	16.14
367.944	16.79
368.312	17.31
368.68	16.9
369.048	17.3
369.416	17.2
369.783	17.33
370.151	17.1
370.519	17.35
370.886	17.19
371.254	17.45
371.621	16.98
371.989	17.28
372.356	17.33
372.724	18.01
373.091	17.52
373.458	17.56
373.826	17.46
374.193	17.92
374.56	17.59
374.927	17.97
375.294	17.98
375.661	17.68
376.028	17.66
376.395	17.68
376.762	18.69
377.129	18.16
377.496	17.83
377.863	18.53
378.229	18.5
378.596	18.52
378.963	18.47
379.329	18.65
379.696	18.48
380.062	18.5
380.429	18.51
380.795	18.73
381.161	18.62
381.528	19.28
381.894	18.72
382.26	19
382.626	19.25
382.993	18.96
383.359	19.16
383.725	19.23
384.091	19.18
384.457	19.26
384.823	19.27
385.188	19.42
385.554	19.04
385.92	19.41
386.286	19.71
386.651	19.74
387.017	19.66
387.383	19.91
387.748	19.94
388.114	19.68
388.479	19.68
388.845	19.78
389.21	20
389.575	20.1
389.94	20.12
390.306	19.91
390.671	19.87
391.036	20.07
391.401	20.57
391.766	20.32
392.131	20.3
392.496	20.22
392.861	20.14
393.226	20.87
393.591	20.45
393.956	21.03
394.32	20.74
394.685	20.72
395.05	20.59
395.414	20.7
395.779	20.87
396.143	20.73
396.508	20.45
396.872	20.9
397.236	21.05
397.601	21.01
397.965	21.3
398.329	21.2
398.694	21.5
399.058	21.22
399.422	21.57
399.786	21.47
400.15	21.88
400.514	21.61
400.878	21.43
401.242	21.54
401.605	21.74
401.969	21.45
402.333	21.78
402.697	21.78
403.06	21.82
403.424	21.96
403.787	21.97
404.151	22.35
404.514	22.2
404.878	22.13
405.241	22.22
405.604	22.48
405.968	21.96
406.331	22.28
406.694	22.14
407.057	22.29
407.42	22.24
407.783	22.4
408.146	22.41
408.509	22.58
408.872	22.57
409.235	22.51
409.598	22.62
409.961	22.77
410.323	23
410.686	22.84
411.049	23.12
411.411	22.98
411.774	22.84
412.136	23.12
412.499	22.91
412.861	23.54
413.223	23.06
413.586	22.96
413.948	23.4
414.31	23.5
414.672	23.32
415.035	23.27
415.397	23.58
415.759	23.59
416.121	23.62
416.483	23.53
416.845	24.04
417.206	23.94
417.568	24.06
417.93	23.8
418.292	23.91
418.653	23.82
419.015	23.98
419.377	23.81
419.738	24.2
420.1	24.02
420.461	24.01
420.822	24.02
421.184	24.05
421.545	24.25
421.906	24.03
422.267	24.06
422.629	24.04
422.99	24.09
423.351	24.07
423.712	24.02
424.073	24.18
424.434	24.33
424.795	24.33
425.155	24.44
425.516	24.34
425.877	24.39
426.238	24.43
426.598	24.38
426.959	24.62
427.32	24.68
427.68	24.76
428.041	24.71
428.401	24.97
428.761	24.86
429.122	25.14
429.482	25.16
429.842	25.19
430.202	25.24
430.563	25.45
430.923	25.43
431.283	25.38
431.643	25.48
432.003	25.59
432.363	25.87
432.722	25.77
433.082	25.77
433.442	25.83
433.802	25.91
434.161	25.99
434.521	25.94
434.881	25.91
435.24	26.03
435.6	25.96
435.959	26.09
436.319	26.03
436.678	26.1
437.037	26.22
437.396	26.35
437.756	26.19
438.115	26.67
438.474	26.71
438.833	26.47
439.192	26.57
439.551	26.46
439.91	26.61
440.269	26.68
440.628	26.68
440.987	26.63
441.345	26.72
441.704	26.75
442.063	26.51
442.421	26.56
442.78	26.71
443.138	26.67
443.497	26.83
443.855	26.84
444.214	26.94
444.572	27.14
444.93	27.11
445.288	27.18
445.647	27.42
446.005	27.39
446.363	27.37
446.721	27.31
447.079	27.25
447.437	27.34
447.795	27.27
448.153	27.43
448.51	27.33
448.868	27.27
449.226	27.3
449.584	27.25
449.941	27.54
450.299	27.72
450.656	27.74
451.014	27.72
451.371	27.84
451.729	27.96
452.086	27.97
452.443	28.25
452.801	28.08
453.158	28.3
453.515	28.4
453.872	28.36
454.229	28.7
454.586	28.66
454.943	28.38
455.3	28.47
455.657	28.74
456.014	28.71
456.371	28.73
456.727	28.97
457.084	28.78
457.441	29.06
457.797	29.06
458.154	29.02
458.51	29.13
458.867	29.04
459.223	29.21
459.58	29.24
459.936	29.41
460.292	29.41
460.648	29.39
461.005	29.22
461.361	29.28
461.717	29.17
462.073	29.06
462.429	29.14
462.785	29.22
463.141	29.15
463.496	29.27
463.852	29.43
464.208	29.63
464.564	29.9
464.919	29.83
465.275	30.08
465.631	29.82
465.986	30.08
466.342	30.18
466.697	29.78
467.052	30.25
467.408	30.36
467.763	30.27
468.118	30.13
468.473	30.44
468.829	30.42
469.184	30.1
469.539	30.34
469.894	30.37
470.249	30.36
470.603	30.66
470.958	30.72
471.313	30.85
471.668	30.77
472.023	30.65
472.377	30.84
472.732	31.03
473.086	30.6
473.441	30.92
473.795	30.97
474.15	31.12
474.504	31.27
474.859	31.15
475.213	31.22
475.567	31.11
475.921	31.44
476.275	31.26
476.63	31.48
476.984	31.52
477.338	31.52
477.692	31.59
478.045	31.55
478.399	31.58
478.753	31.62
479.107	31.46
479.461	31.56
479.814	31.69
480.168	31.83
480.521	31.77
480.875	31.81
481.228	31.81
481.582	31.61
481.935	31.75
482.289	31.75
482.642	32.03
482.995	31.89
483.348	31.96
483.701	31.94
484.055	31.87
484.408	31.9
484.761	31.67
485.114	31.55
485.466	31.44
485.819	31.41
486.172	31.47
486.525	31.45
486.878	31.32
487.23	31.34
487.583	31.61
487.936	31.75
488.288	31.97
488.641	31.96
488.993	32.01
489.345	31.89
489.698	32.03
490.05	31.92
490.402	31.99
490.754	32.02
491.107	32.04
491.459	32.29
491.811	32.39
492.163	32.61
492.515	32.81
492.866	32.74
493.218	32.79
493.57	32.66
493.922	32.51
494.274	32.62
494.625	32.69
494.977	32.86
495.328	32.81
495.68	33.21
496.031	33.3
496.383	33.62
496.734	33.85
497.086	33.88
497.437	33.96
497.788	33.89
498.139	33.93
498.49	33.99
498.842	34.06
499.193	33.68
499.544	34
499.894	33.8
500.245	34.08
500.596	34.04
500.947	34.19
501.298	34.49
501.648	34.31
501.999	34.35
502.35	34.53
502.7	34.47
503.051	34.89
503.401	34.63
503.752	34.67
504.102	34.8
504.452	34.8
504.803	35
505.153	35
505.503	34.94
505.853	34.89
506.203	35.18
506.553	34.98
506.903	35.01
507.253	35.13
507.603	35.22
507.953	35.25
508.303	35.46
508.652	35.3
509.002	35.54
509.352	35.45
509.701	35.38
510.051	35.36
510.4	35.54
510.75	35.64
511.099	35.42
511.449	35.33
511.798	35.6
512.147	35.58
512.496	35.71
512.846	35.62
513.195	35.69
513.544	35.98
513.893	35.9
514.242	36.08
514.591	35.94
514.939	35.79
515.288	35.93
515.637	36
515.986	36.1
516.334	36.29
516.683	36.38
517.032	36.36
517.38	36.31
517.729	36.5
518.077	36.55
518.426	36.51
518.774	36.6
519.122	36.52
519.47	36.54
519.819	36.48
520.167	36.38
520.515	36.46
520.863	36.35
521.211	36.28
521.559	36.54
521.907	36.51
522.255	36.57
522.602	36.79
522.95	36.98
523.298	36.77
523.645	37.07
523.993	37.09
524.341	37.26
524.688	37.41
525.036	37.26
525.383	37.46
525.73	37.62
526.078	37.56
526.425	37.39
526.772	37.39
527.119	37.44
527.466	37.3
527.814	37.13
528.161	37.11
528.508	37.17
528.854	37.15
529.201	37.21
529.548	37.31
529.895	37.13
530.242	37.24
530.588	37.23
530.935	37.27
531.282	37.29
531.628	37.02
531.975	37.01
532.321	37.23
532.667	37.36
533.014	37.67
533.36	37.73
533.706	37.98
534.052	37.9
534.399	37.97
534.745	37.99
535.091	38.06
535.437	37.9
535.783	37.94
536.129	38.01
536.474	37.86
536.82	37.99
537.166	38.25
537.512	38.47
537.857	38.6
538.203	38.59
538.549	38.67
538.894	38.66
539.239	38.57
539.585	38.68
539.93	38.74
540.276	38.8
540.621	38.97
540.966	39.11
541.311	39.22
541.656	39.33
542.001	39.3
542.346	39.34
542.691	39.16
543.036	39.14
543.381	39.04
543.726	38.92
544.071	38.92
544.415	38.83
544.76	38.86
545.105	39.15
545.449	39.12
545.794	39.45
546.138	39.5
546.483	39.46
546.827	39.78
547.171	39.67
547.516	39.86
547.86	40.13
548.204	40.05
548.548	40.03
548.892	39.92
549.236	40.02
549.58	40.03
549.924	40.21
550.268	40.47
550.612	40.46
550.956	40.54
551.3	40.9
551.643	40.56
551.987	40.72
552.33	41.23
552.674	41.04
553.017	41
553.361	41.15
553.704	40.94
554.048	41.19
554.391	41.12
554.734	41.31
555.077	41.12
555.42	41.23
555.764	41.26
556.107	41.17
556.45	41.57
556.793	41.47
557.135	41.43
557.478	41.73
557.821	41.74
558.164	41.79
558.507	41.84
558.849	41.87
559.192	41.84
559.534	41.68
559.877	42.12
560.219	42.08
560.562	42.31
560.904	42.32
561.246	42.19
561.589	42.14
561.931	42.26
562.273	42.26
562.615	42.17
562.957	42.51
563.299	42.5
563.641	42.52
563.983	42.36
564.325	42.65
564.667	42.47
565.008	42.64
565.35	42.5
565.692	42.65
566.033	42.98
566.375	43.08
566.716	42.9
567.058	42.98
567.399	42.95
567.741	42.99
568.082	42.94
568.423	43.17
568.764	43.09
569.105	42.91
569.447	43.04
569.788	43.08
570.129	43.14
570.47	43.28
570.811	43.25
571.151	43.37
571.492	43.54
571.833	43.36
572.174	43.33
572.514	43.4
572.855	43.56
573.195	43.66
573.536	43.73
573.876	43.34
574.217	43.36
574.557	43.67
574.898	43.3
575.238	43.57
575.578	43.52
575.918	43.9
576.258	43.76
576.598	43.78
576.938	44.21
577.278	44.03
577.618	44.17
577.958	44.02
578.298	44.09
578.638	43.95
578.977	44.19
579.317	44.38
579.657	44.46
579.996	44.41
580.336	44.27
580.675	44.53
581.014	44.88
581.354	44.8
581.693	44.94
582.032	45.08
582.372	44.87
582.711	45.24
583.05	44.89
583.389	45.2
583.728	44.77
584.067	45.09
584.406	45.22
584.745	45.27
585.083	45.46
585.422	45.4
585.761	45.21
586.1	45.77
586.438	45.49
586.777	45.67
587.115	45.74
587.454	45.68
587.792	45.73
588.13	45.62
588.469	45.88
588.807	45.59
589.145	45.81
589.483	45.71
589.821	45.67
590.159	46.11
590.497	46.27
590.835	45.79
591.173	46.04
591.511	45.65
591.849	46.11
592.187	46.18
592.524	46.24
592.862	46.51
593.2	45.79
593.537	46.53
593.875	46.41
594.212	46.33
594.55	46.45
594.887	46.43
595.224	46.77
595.561	46.6
595.899	46.66
596.236	46.68
596.573	46.68
596.91	46.72
597.247	46.57
597.584	46.48
597.921	46.94
598.258	46.7
598.594	46.72
598.931	46.53
599.268	47
599.604	46.83
599.941	46.68
600.277	46.48
600.614	46.71
600.95	47
601.287	46.8
601.623	47.37
601.959	47.45
602.296	47.47
602.632	47.47
602.968	47.05
603.304	47.41
603.64	47.09
603.976	47.69
604.312	47.48
604.648	47.61
604.984	47.26
605.319	47.87
605.655	47.62
605.991	47.17
606.326	47.65
606.662	47.57
606.998	47.57
607.333	47.4
607.668	47.39
608.004	47.28
608.339	47.56
608.674	47.73
609.01	47.76
609.345	47.98
609.68	48.22
610.015	48.34
610.35	47.89
610.685	48.13
611.02	48.28
611.355	48.47
611.689	47.98
612.024	48.14
612.359	48.42
612.694	48.45
613.028	48.48
613.363	48.29
613.697	48.12
614.032	48.43
614.366	48.73
614.7	48.67
615.035	48.58
615.369	48.79
615.703	48.98
616.037	49.1
616.371	49.17
616.705	49.04
617.039	48.88
617.373	49.37
617.707	49.19
618.041	48.98
618.375	49.12
618.709	49.35
619.042	49.18
619.376	49.63
619.71	49.63
620.043	49.32
620.377	49.63
620.71	49.66
621.043	49.86
621.377	49.89
621.71	49.41
622.043	49.22
622.376	49.39
622.709	49.47
623.043	49.5
623.376	49.66
623.709	49.55
624.041	49.96
624.374	50.03
624.707	50.02
625.04	49.72
625.373	49.82
625.705	49.82
626.038	50.21
626.37	49.81
626.703	50.39
627.035	50.29
627.368	50.63
627.7	50.2
628.032	50.56
628.365	49.99
628.697	49.92
629.029	50.43
629.361	50.15
629.693	50.7
630.025	50.48
630.357	50.07
630.689	50.17
631.021	50.65
631.353	50.56
631.684	51.12
632.016	51.06
632.348	50.69
632.679	50.44
633.011	51.16
633.342	50.21
633.674	50.7
634.005	50.95
634.336	50.87
634.668	50.91
634.999	51.02
635.33	50.98
635.661	51.36
635.992	51.63
636.323	51.3
636.654	51.2
636.985	51.47
637.316	51.24
637.647	51.13
637.977	51.19
638.308	51.08
638.639	51.23
638.969	51.27
639.3	51.21
639.63	51.29
639.961	51.26
640.291	51.31
640.622	51.9
640.952	51.02
641.282	51.39
641.612	51.56
641.943	52.12
642.273	52.51
642.603	51.66
642.933	51.63
643.263	52.07
643.592	52.27
643.922	52.06
644.252	51.88
644.582	52.49
644.911	52.28
645.241	52.34
645.571	51.93
645.9	51.98
646.23	52.44
646.559	52.62
646.888	52.11
647.218	52.27
647.547	52.21
647.876	52.38
648.205	52.47
648.534	52.47
648.863	52.74
649.192	52.96
649.521	52.68
649.85	52.73
650.179	52.68
650.508	53.28
650.837	52.34
651.165	52.63
651.494	52.69
651.822	52.54
652.151	52.54
652.479	53.06
652.808	53.02
653.136	53.17
653.465	53.55
653.793	52.98
654.121	53.18
654.449	53.27
654.777	52.91
655.105	52.94
655.433	53.3
655.761	52.51
656.089	52.47
656.417	52.57
656.745	53.61
657.073	53.14
657.4	53.19
657.728	53.64
658.056	53.25
658.383	53.1
658.711	53.26
659.038	53.73
659.365	53.22
659.693	53.12
660.02	53.97
660.347	53.73
660.674	53.73
661.001	53.53
661.329	54.05
661.656	53.99
661.982	54.17
662.309	53.66
662.636	53.44
662.963	53.92
663.29	53.85
663.616	53.33
663.943	53.91
664.27	54.33
664.596	54.31
664.923	54.55
665.249	54.77
665.576	54.18
665.902	54.3
666.228	53.89
666.554	54.38
666.881	54.09
667.207	54.26
667.533	54.21
667.859	53.49
668.185	53.66
668.511	54.5
668.837	54.51
669.162	54.66
