Data from 0139_crown_Reflection__0__193.txt Node

Date: Mon Aug 28 20:19:39 CDT 2023
User: ToomeyLab
Spectrometer: FLMS14357
Trigger mode: 0
Integration Time (sec): 1.000000E-2
Scans to average: 100
Electric dark correction enabled: true
Nonlinearity correction enabled: false
Boxcar width: 0
XAxis mode: Wavelengths
Number of Pixels in Spectrum: 2048
>>>>>Begin Spectral Data<<<<<
189.047	29.79
189.435	29.79
189.823	29.79
190.211	3.61
190.599	-65.85
190.987	56.22
191.375	305.29
191.763	28.25
192.151	1.62
192.538	-4.22
192.926	98.47
193.314	-287.24
193.702	961.08
194.089	87.88
194.477	336.3
194.864	-72.12
195.252	-873.55
195.639	227.65
196.027	94.28
196.414	98.95
196.801	110.21
197.189	26.12
197.576	-58.84
197.963	106.57
198.351	-14.18
198.738	56.27
199.125	-14.22
199.512	76.33
199.899	-22.52
200.286	-24.65
200.673	20.78
201.06	-23.4
201.447	-66.56
201.833	48.95
202.22	58.58
202.607	-37.06
202.994	27.45
203.38	-0.98
203.767	-0.32
204.154	-14.26
204.54	-34.76
204.927	-56.36
205.313	17.96
205.699	-49.95
206.086	18.92
206.472	46.41
206.858	-27.75
207.245	-34.13
207.631	-14.09
208.017	-1.35
208.403	0.77
208.789	-2.5
209.175	-71.88
209.561	-0.52
209.947	-21.39
210.333	-17.9
210.719	2.02
211.105	14.96
211.491	15.96
211.876	15.91
212.262	1.41
212.648	14.53
213.034	23.02
213.419	-1.63
213.805	3.8
214.19	-7.57
214.576	-9.42
214.961	-35.45
215.346	10.68
215.732	25.76
216.117	-22.74
216.502	-32.71
216.888	-10.28
217.273	-60.33
217.658	-8.43
218.043	-12.24
218.428	-10.39
218.813	7.1
219.198	9.1
219.583	13.81
219.968	19.16
220.353	-4.14
220.738	16.14
221.122	-14.03
221.507	-4.01
221.892	2.06
222.276	-15.36
222.661	-6.56
223.046	-7.13
223.43	-5.99
223.815	6.38
224.199	31.54
224.583	2.59
224.968	1.12
225.352	11.9
225.736	10.48
226.121	2.71
226.505	3.2
226.889	9.93
227.273	6.28
227.657	-0.05
228.041	2.46
228.425	2.24
228.809	8.57
229.193	7.44
229.577	6.58
229.961	3.22
230.344	5.17
230.728	5.7
231.112	5.17
231.495	5.22
231.879	6.01
232.263	4.32
232.646	2.92
233.03	4.78
233.413	7.45
233.797	4.15
234.18	2.98
234.563	2.37
234.946	7.47
235.33	2.31
235.713	4.23
236.096	5.83
236.479	5.02
236.862	5.01
237.245	2.63
237.628	4.93
238.011	6.25
238.394	5.79
238.777	6.52
239.16	1.97
239.543	1.66
239.925	4.16
240.308	4.26
240.691	3.17
241.073	5.34
241.456	5.48
241.838	4.81
242.221	6.42
242.603	6.2
242.986	5.44
243.368	5.15
243.75	4.41
244.133	3.56
244.515	4.36
244.897	5.59
245.279	5.18
245.661	4.24
246.043	4.87
246.425	4.3
246.807	5.7
247.189	3.99
247.571	4.56
247.953	4.77
248.335	4.58
248.717	4.6
249.098	4.43
249.48	4.62
249.862	4.65
250.243	4.33
250.625	4.73
251.006	4.32
251.388	4.59
251.769	5.19
252.151	4.21
252.532	3.87
252.913	3.53
253.295	2.86
253.676	3.76
254.057	4.28
254.438	4.28
254.819	4.3
255.2	5.07
255.581	4.36
255.962	4.03
256.343	5.51
256.724	3.2
257.105	3.65
257.486	4.38
257.867	4.83
258.247	5.27
258.628	4.34
259.009	3.8
259.389	3.71
259.77	4.03
260.15	3.73
260.531	3.7
260.911	4.08
261.292	4.46
261.672	4.09
262.052	3.87
262.432	4.32
262.813	4.26
263.193	3.8
263.573	3.82
263.953	4.61
264.333	3.78
264.713	3.52
265.093	4.32
265.473	4.22
265.853	3.66
266.233	3.37
266.612	4.03
266.992	3.47
267.372	3.6
267.752	4.56
268.131	4.15
268.511	3.64
268.89	4.2
269.27	3.97
269.649	4.1
270.029	4.27
270.408	3.93
270.787	4.8
271.167	4.27
271.546	3.65
271.925	3.82
272.304	3.58
272.683	4.22
273.062	3.89
273.441	3.53
273.82	3.65
274.199	3.53
274.578	3.83
274.957	4.08
275.336	4.13
275.715	4.39
276.093	3.12
276.472	3.87
276.851	3.37
277.229	3.36
277.608	3.82
277.986	3.68
278.365	3.87
278.743	3.58
279.122	3.71
279.5	3.84
279.878	3.81
280.257	3.52
280.635	3.9
281.013	3.58
281.391	4.1
281.769	4.11
282.147	3.72
282.525	3.45
282.903	3.59
283.281	3.54
283.659	4.23
284.037	3.69
284.415	3.57
284.792	3.56
285.17	3.62
285.548	3.83
285.925	4.46
286.303	3.64
286.68	3.7
287.058	3.86
287.435	3.35
287.813	3.52
288.19	3.91
288.567	3.59
288.945	3.62
289.322	3.95
289.699	3.7
290.076	3.99
290.453	3.75
290.83	3.07
291.207	3.4
291.584	3.59
291.961	3.45
292.338	3.3
292.715	3.69
293.092	3.6
293.469	3.45
293.845	3.73
294.222	2.92
294.599	3.58
294.975	3.6
295.352	3.58
295.728	3.26
296.105	3.77
296.481	3.61
296.858	3.87
297.234	3.42
297.61	3.53
297.986	3.44
298.363	3.84
298.739	3.23
299.115	3.56
299.491	3.62
299.867	3.29
300.243	3.79
300.619	3.65
300.995	4.1
301.371	3.26
301.746	3.37
302.122	3.33
302.498	3.41
302.874	3.82
303.249	3.28
303.625	3.5
304	3.53
304.376	3.21
304.751	3.48
305.127	3.03
305.502	3.21
305.878	3.02
306.253	3.06
306.628	3.02
307.003	3.13
307.378	3.76
307.754	3.27
308.129	3.94
308.504	3.91
308.879	3.73
309.254	3.28
309.629	2.96
310.003	3.77
310.378	3.26
310.753	3.36
311.128	3.66
311.502	3.66
311.877	4.02
312.252	3.81
312.626	3.64
313.001	3.66
313.375	3.59
313.75	3.47
314.124	3.48
314.498	3.7
314.873	3.67
315.247	3.28
315.621	2.72
315.995	3.52
316.369	3.72
316.743	2.87
317.117	3.25
317.491	3.01
317.865	2.92
318.239	3.71
318.613	3.42
318.987	3.59
319.361	2.92
319.734	2.92
320.108	3.34
320.482	3.82
320.855	3.41
321.229	3.12
321.602	3.38
321.976	3.38
322.349	3.51
322.723	3.39
323.096	4.24
323.469	3.13
323.843	3.28
324.216	3.68
324.589	3.71
324.962	3.53
325.335	3.32
325.708	3.21
326.081	3.25
326.454	3.71
326.827	3.41
327.2	3.07
327.573	3.36
327.945	3.39
328.318	3.73
328.691	3.29
329.063	2.99
329.436	3.23
329.809	3.73
330.181	3.19
330.553	2.97
330.926	3.17
331.298	3.14
331.671	3.5
332.043	3.5
332.415	4.26
332.787	3.54
333.159	2.98
333.532	4.29
333.904	3.12
334.276	3.08
334.648	3.35
335.02	3.52
335.391	3.16
335.763	3.3
336.135	3.71
336.507	3.06
336.879	2.96
337.25	3.62
337.622	3.44
337.993	3.55
338.365	3.64
338.736	3.64
339.108	3.12
339.479	3.33
339.851	3.55
340.222	3.67
340.593	3.47
340.964	3.64
341.336	3.18
341.707	3.03
342.078	2.93
342.449	3.42
342.82	3.57
343.191	3.22
343.562	3.34
343.933	2.83
344.303	3.53
344.674	3.78
345.045	3.5
345.416	3.91
345.786	3.91
346.157	3.41
346.527	3
346.898	3.35
347.268	3.5
347.639	3.29
348.009	3.23
348.38	3.77
348.75	3.16
349.12	3.63
349.49	3.45
349.861	2.8
350.231	3.43
350.601	3.71
350.971	3.65
351.341	3.39
351.711	3.44
352.081	3.48
352.45	3.48
352.82	3.47
353.19	3.83
353.56	3.69
353.929	3.65
354.299	3.31
354.669	3.84
355.038	3.75
355.408	3.53
355.777	2.93
356.147	3.27
356.516	4.02
356.885	3.51
357.254	3.52
357.624	3.52
357.993	3.59
358.362	3.34
358.731	3.51
359.1	3.59
359.469	3.75
359.838	3.52
360.207	3.56
360.576	3.68
360.945	3.4
361.314	3.65
361.682	3.03
362.051	3.75
362.42	3.43
362.788	3.3
363.157	3.49
363.525	3.46
363.894	3.56
364.262	3.61
364.631	3.44
364.999	3.49
365.367	3.79
365.735	3.38
366.104	3.56
366.472	3.38
366.84	3.47
367.208	3.48
367.576	3.27
367.944	3.74
368.312	3.72
368.68	3.55
369.048	3.61
369.416	3.59
369.783	3.43
370.151	3.62
370.519	3.47
370.886	3.26
371.254	3.28
371.621	3.31
371.989	3.63
372.356	3.73
372.724	3.87
373.091	3.88
373.458	3.54
373.826	3.76
374.193	3.92
374.56	3.6
374.927	3.35
375.294	3.63
375.661	3.97
376.028	3.27
376.395	3.59
376.762	3.84
377.129	3.57
377.496	3.39
377.863	3.71
378.229	3.6
378.596	3.75
378.963	3.66
379.329	3.67
379.696	3.65
380.062	3.43
380.429	3.56
380.795	3.66
381.161	3.82
381.528	4.05
381.894	3.46
382.26	3.88
382.626	3.8
382.993	3.54
383.359	3.81
383.725	3.85
384.091	3.61
384.457	3.66
384.823	3.54
385.188	3.8
385.554	3.37
385.92	3.86
386.286	3.82
386.651	3.79
387.017	3.72
387.383	3.98
387.748	3.55
388.114	3.46
388.479	3.61
388.845	3.44
389.21	3.83
389.575	3.85
389.94	3.76
390.306	3.89
390.671	3.46
391.036	3.62
391.401	3.91
391.766	3.93
392.131	3.92
392.496	3.61
392.861	3.71
393.226	3.78
393.591	3.65
393.956	3.85
394.32	3.76
394.685	3.77
395.05	4.02
395.414	3.74
395.779	3.89
396.143	3.8
396.508	3.5
396.872	3.85
397.236	3.76
397.601	3.68
397.965	3.81
398.329	4.05
398.694	3.83
399.058	3.54
399.422	3.71
399.786	3.96
400.15	3.95
400.514	3.8
400.878	3.85
401.242	3.71
401.605	3.83
401.969	3.81
402.333	3.8
402.697	3.6
403.06	3.9
403.424	4.07
403.787	3.55
404.151	3.44
404.514	3.94
404.878	3.77
405.241	3.75
405.604	3.79
405.968	3.47
406.331	3.71
406.694	3.71
407.057	3.92
407.42	3.75
407.783	3.75
408.146	3.63
408.509	4
408.872	3.98
409.235	3.81
409.598	3.71
409.961	3.69
410.323	4
410.686	3.91
411.049	4.16
411.411	3.78
411.774	3.82
412.136	3.63
412.499	3.74
412.861	4.04
413.223	3.81
413.586	3.72
413.948	3.84
414.31	3.83
414.672	3.75
415.035	3.97
415.397	3.65
415.759	3.92
416.121	3.85
416.483	3.63
416.845	4.01
417.206	4.13
417.568	3.94
417.93	3.58
418.292	3.9
418.653	3.67
419.015	3.9
419.377	3.6
419.738	3.91
420.1	3.9
420.461	3.93
420.822	3.66
421.184	3.79
421.545	3.77
421.906	3.74
422.267	3.73
422.629	3.6
422.99	3.7
423.351	3.8
423.712	3.66
424.073	3.7
424.434	3.82
424.795	3.69
425.155	3.68
425.516	3.85
425.877	3.57
426.238	3.65
426.598	3.61
426.959	3.66
427.32	3.71
427.68	3.79
428.041	3.78
428.401	3.84
428.761	3.79
429.122	3.64
429.482	3.77
429.842	3.88
430.202	3.71
430.563	3.81
430.923	4.03
431.283	3.61
431.643	3.62
432.003	3.72
432.363	3.98
432.722	3.85
433.082	3.75
433.442	3.77
433.802	3.88
434.161	3.82
434.521	3.81
434.881	3.66
435.24	3.9
435.6	3.8
435.959	3.93
436.319	3.86
436.678	3.68
437.037	3.75
437.396	3.92
437.756	3.8
438.115	3.97
438.474	3.97
438.833	3.79
439.192	3.92
439.551	3.73
439.91	3.9
440.269	3.76
440.628	3.75
440.987	3.67
441.345	3.8
441.704	3.66
442.063	3.82
442.421	3.72
442.78	3.86
443.138	3.71
443.497	3.81
443.855	3.81
444.214	3.95
444.572	3.92
444.93	3.92
445.288	3.75
445.647	3.87
446.005	4.01
446.363	3.78
446.721	3.82
447.079	3.87
447.437	3.62
447.795	3.67
448.153	3.92
448.51	3.7
448.868	3.83
449.226	3.75
449.584	3.74
449.941	3.82
450.299	3.82
450.656	3.87
451.014	3.7
451.371	3.81
451.729	3.75
452.086	3.84
452.443	3.94
452.801	4.03
453.158	3.9
453.515	3.72
453.872	3.76
454.229	3.82
454.586	3.94
454.943	3.73
455.3	3.87
455.657	3.83
456.014	3.93
456.371	3.8
456.727	3.88
457.084	3.76
457.441	3.98
457.797	3.82
458.154	3.79
458.51	4.1
458.867	3.84
459.223	4.03
459.58	3.88
459.936	3.87
460.292	3.85
460.648	3.79
461.005	3.7
461.361	3.86
461.717	3.72
462.073	3.73
462.429	3.68
462.785	3.76
463.141	3.88
463.496	3.97
463.852	3.93
464.208	3.88
464.564	3.86
464.919	3.95
465.275	4.05
465.631	3.82
465.986	4.05
466.342	4.18
466.697	3.6
467.052	3.69
467.408	3.83
467.763	3.89
468.118	3.91
468.473	3.69
468.829	3.83
469.184	3.82
469.539	3.84
469.894	3.85
470.249	4.02
470.603	3.93
470.958	3.87
471.313	3.98
471.668	3.68
472.023	3.9
472.377	3.84
472.732	3.89
473.086	3.9
473.441	3.75
473.795	4.02
474.15	3.93
474.504	3.94
474.859	3.86
475.213	3.83
475.567	3.81
475.921	3.99
476.275	3.9
476.63	4.14
476.984	3.99
477.338	3.91
477.692	3.89
478.045	3.77
478.399	3.85
478.753	3.72
479.107	3.71
479.461	3.78
479.814	3.93
480.168	3.88
480.521	3.97
480.875	3.84
481.228	3.77
481.582	3.89
481.935	3.89
482.289	3.91
482.642	3.9
482.995	4.01
483.348	3.92
483.701	3.85
484.055	3.79
484.408	3.68
484.761	3.8
485.114	3.61
485.466	3.57
485.819	3.48
486.172	3.47
486.525	3.54
486.878	3.6
487.23	3.72
487.583	3.85
487.936	3.83
488.288	3.79
488.641	3.74
488.993	3.74
489.345	3.58
489.698	3.6
490.05	3.6
490.402	3.59
490.754	3.66
491.107	3.78
491.459	3.83
491.811	3.81
492.163	3.84
492.515	3.78
492.866	3.84
493.218	3.69
493.57	3.65
493.922	3.55
494.274	3.61
494.625	3.69
494.977	3.83
495.328	3.93
495.68	3.89
496.031	3.92
496.383	3.82
496.734	3.83
497.086	3.82
497.437	3.91
497.788	3.88
498.139	3.82
498.49	3.72
498.842	3.77
499.193	3.72
499.544	3.81
499.894	3.79
500.245	3.79
500.596	3.83
500.947	3.68
501.298	3.84
501.648	3.77
501.999	3.88
502.35	3.79
502.7	3.92
503.051	3.99
503.401	3.85
503.752	3.91
504.102	3.78
504.452	3.73
504.803	4.02
505.153	3.79
505.503	3.86
505.853	3.7
506.203	3.91
506.553	3.83
506.903	3.87
507.253	3.84
507.603	3.85
507.953	3.9
508.303	3.94
508.652	3.89
509.002	3.93
509.352	3.82
509.701	3.74
510.051	3.85
510.4	3.91
510.75	3.74
511.099	3.81
511.449	3.75
511.798	3.8
512.147	3.88
512.496	3.8
512.846	3.69
513.195	3.88
513.544	3.88
513.893	3.81
514.242	3.88
514.591	3.88
514.939	3.64
515.288	3.77
515.637	3.87
515.986	3.8
516.334	3.86
516.683	3.97
517.032	3.84
517.38	3.86
517.729	3.92
518.077	3.77
518.426	3.73
518.774	3.81
519.122	3.96
519.47	3.73
519.819	3.82
520.167	3.72
520.515	3.72
520.863	3.54
521.211	3.64
521.559	3.69
521.907	3.75
522.255	3.74
522.602	3.8
522.95	3.91
523.298	3.83
523.645	3.83
523.993	3.62
524.341	3.9
524.688	3.78
525.036	3.84
525.383	3.83
525.73	3.84
526.078	3.91
526.425	3.77
526.772	3.65
527.119	3.77
527.466	3.66
527.814	3.62
528.161	3.64
528.508	3.68
528.854	3.72
529.201	3.78
529.548	3.66
529.895	3.67
530.242	3.51
530.588	3.47
530.935	3.47
531.282	3.55
531.628	3.56
531.975	3.66
532.321	3.73
532.667	3.71
533.014	3.81
533.36	3.78
533.706	3.69
534.052	3.57
534.399	3.67
534.745	3.75
535.091	3.64
535.437	3.54
535.783	3.61
536.129	3.65
536.474	3.72
536.82	3.83
537.166	3.77
537.512	3.83
537.857	3.86
538.203	3.7
538.549	3.71
538.894	3.66
539.239	3.66
539.585	3.83
539.93	3.79
540.276	3.76
540.621	3.8
540.966	3.77
541.311	3.9
541.656	3.79
542.001	3.72
542.346	3.69
542.691	3.67
543.036	3.61
543.381	3.59
543.726	3.52
544.071	3.63
544.415	3.7
544.76	3.78
545.105	3.78
545.449	3.75
545.794	3.83
546.138	3.77
546.483	3.77
546.827	3.75
547.171	3.77
547.516	3.72
547.86	3.87
548.204	3.78
548.548	3.72
548.892	3.6
549.236	3.62
549.58	3.74
549.924	3.79
550.268	3.93
550.612	3.9
550.956	3.91
551.3	3.84
551.643	3.95
551.987	3.79
552.33	3.86
552.674	3.73
553.017	3.68
553.361	3.95
553.704	3.7
554.048	3.83
554.391	3.84
554.734	3.86
555.077	3.76
555.42	3.92
555.764	3.9
556.107	3.76
556.45	3.85
556.793	3.69
557.135	3.8
557.478	3.85
557.821	3.81
558.164	4.07
558.507	3.8
558.849	3.75
559.192	3.7
559.534	3.75
559.877	3.92
560.219	4.05
560.562	3.8
560.904	3.88
561.246	3.8
561.589	3.77
561.931	3.84
562.273	3.6
562.615	3.7
562.957	3.78
563.299	3.89
563.641	3.71
563.983	3.72
564.325	3.79
564.667	3.51
565.008	3.71
565.35	4.03
565.692	3.79
566.033	3.79
566.375	3.77
566.716	3.9
567.058	3.77
567.399	3.52
567.741	3.69
568.082	3.67
568.423	3.67
568.764	3.62
569.105	3.79
569.447	3.97
569.788	3.8
570.129	3.83
570.47	3.78
570.811	3.92
571.151	3.68
571.492	4
571.833	3.61
572.174	3.85
572.514	3.64
572.855	3.71
573.195	3.78
573.536	3.72
573.876	3.63
574.217	3.77
574.557	3.82
574.898	3.79
575.238	3.69
575.578	3.67
575.918	3.74
576.258	3.79
576.598	3.74
576.938	3.79
577.278	3.73
577.618	3.63
577.958	3.74
578.298	3.71
578.638	3.67
578.977	3.77
579.317	3.66
579.657	3.79
579.996	3.9
580.336	3.78
580.675	3.65
581.014	4.08
581.354	3.78
581.693	3.88
582.032	3.79
582.372	3.89
582.711	3.92
583.05	3.58
583.389	3.8
583.728	4.01
584.067	3.89
584.406	3.73
584.745	3.78
585.083	3.82
585.422	3.75
585.761	3.74
586.1	4
586.438	3.66
586.777	3.82
587.115	4.02
587.454	3.98
587.792	3.82
588.13	4.07
588.469	3.79
588.807	3.81
589.145	3.72
589.483	3.86
589.821	3.6
590.159	3.96
590.497	3.82
590.835	3.72
591.173	3.58
591.511	3.73
591.849	3.81
592.187	3.8
592.524	3.84
592.862	3.9
593.2	3.77
593.537	3.66
593.875	4.1
594.212	3.95
594.55	3.98
594.887	3.77
595.224	3.91
595.561	3.45
595.899	3.56
596.236	3.9
596.573	3.87
596.91	3.76
597.247	3.89
597.584	3.7
597.921	3.69
598.258	3.59
598.594	3.73
598.931	3.59
599.268	3.73
599.604	3.64
599.941	3.74
600.277	3.94
600.614	3.89
600.95	3.86
601.287	4.09
601.623	3.83
601.959	3.83
602.296	3.76
602.632	3.91
602.968	3.9
603.304	3.73
603.64	3.58
603.976	3.84
604.312	3.87
604.648	3.54
604.984	3.41
605.319	3.63
605.655	3.75
605.991	3.69
606.326	3.78
606.662	3.76
606.998	3.66
607.333	3.54
607.668	3.74
608.004	3.78
608.339	3.87
608.674	3.61
609.01	3.76
609.345	4.03
609.68	3.89
610.015	3.75
610.35	4.13
610.685	4.05
611.02	3.83
611.355	3.99
611.689	3.62
612.024	3.84
612.359	3.72
612.694	3.87
613.028	3.65
613.363	3.65
613.697	3.73
614.032	3.79
614.366	3.74
614.7	3.92
615.035	3.8
615.369	3.96
615.703	3.98
616.037	3.91
616.371	3.59
616.705	4.03
617.039	3.71
617.373	3.72
617.707	3.84
618.041	3.62
618.375	3.87
618.709	4.38
619.042	3.65
619.376	3.97
619.71	3.8
620.043	3.58
620.377	3.83
620.71	3.71
621.043	3.84
621.377	3.77
621.71	3.83
622.043	3.73
622.376	3.54
622.709	3.57
623.043	3.96
623.376	4.09
623.709	3.75
624.041	4.23
624.374	3.85
624.707	3.55
625.04	3.57
625.373	3.73
625.705	4.01
626.038	3.82
626.37	3.89
626.703	3.84
627.035	3.86
627.368	3.92
627.7	4.01
628.032	3.9
628.365	3.2
628.697	3.75
629.029	3.98
629.361	3.72
629.693	3.65
630.025	3.69
630.357	3.7
630.689	3.96
631.021	4.02
631.353	3.71
631.684	3.99
632.016	3.55
632.348	3.94
632.679	3.59
633.011	3.7
633.342	3.76
633.674	3.69
634.005	3.88
634.336	3.61
634.668	3.78
634.999	3.87
635.33	3.85
635.661	4
635.992	3.85
636.323	3.72
636.654	3.56
636.985	3.74
637.316	3.98
637.647	3.83
637.977	3.96
638.308	3.97
638.639	3.77
638.969	4
639.3	3.64
639.63	3.61
639.961	3.81
640.291	3.94
640.622	4.04
640.952	3.52
641.282	4
641.612	3.81
641.943	3.84
642.273	4.27
642.603	3.52
642.933	3.71
643.263	4.01
643.592	3.5
643.922	3.79
644.252	3.71
644.582	3.89
644.911	3.86
645.241	4.29
645.571	3.31
645.9	3.86
646.23	3.72
646.559	3.62
646.888	3.93
647.218	3.41
647.547	3.59
647.876	4.12
648.205	3.75
648.534	4.01
648.863	3.9
649.192	3.91
649.521	3.77
649.85	3.79
650.179	4.04
650.508	4.01
650.837	3.54
651.165	3.61
651.494	4.05
651.822	3.48
652.151	4.05
652.479	4.25
652.808	3.75
653.136	3.91
653.465	4.08
653.793	4.12
654.121	4.08
654.449	4.02
654.777	3.92
655.105	3.66
655.433	4.03
655.761	3.84
656.089	3.83
656.417	3.89
656.745	3.74
657.073	3.59
657.4	3.43
657.728	4.17
658.056	4.07
658.383	3.93
658.711	3.84
659.038	3.81
659.365	4.26
659.693	4.15
660.02	4.09
660.347	4.36
660.674	3.96
661.001	4.37
661.329	3.55
661.656	3.82
661.982	3.89
662.309	4.3
662.636	3.69
662.963	4.31
663.29	3.99
663.616	3.36
663.943	3.87
664.27	4.28
664.596	3.57
664.923	4.49
665.249	4.1
665.576	3.98
665.902	4.18
666.228	4.22
666.554	3.73
666.881	3.98
667.207	4.23
667.533	4.22
667.859	2.97
668.185	3.67
668.511	3.99
668.837	3.51
669.162	3.9
669.488	3.86
669.814	4.68
670.139	3.91
670.465	4.35
670.791	4.18
671.116	3.98
671.442	3.63
671.767	3.6
672.092	4.68
672.418	4.02
672.743	4.32
673.068	3.9
673.393	4.26
673.718	3.88
674.043	4.2
674.368	3.47
674.693	4.44
675.018	4.7
675.343	3.83
675.667	4.7
675.992	3.96
676.317	3.55
676.641	3.9
676.966	3.89
677.29	3.3
677.615	4.31
677.939	4.01
678.264	3.59
678.588	4.3
678.912	4.77
679.236	3.41
679.56	3.58
679.885	4.34
680.209	3.72
680.532	4.39
680.856	3.98
681.18	3.99
681.504	3.79
681.828	3.66
682.152	3.8
682.475	3.96
682.799	3.65
683.122	3.74
683.446	3.79
683.769	3.73
684.093	4.12
684.416	4.32
684.739	3.81
685.062	4.46
685.386	3.61
685.709	4.14
686.032	3.26
686.355	3.92
686.678	3.77
687.001	3.73
687.324	4.23
687.646	3.67
687.969	3.72
688.292	4.04
688.614	4.09
688.937	4.33
689.26	4.26
689.582	4.23
689.904	3.98
690.227	4.33
690.549	3.39
690.871	4.14
691.194	4.24
691.516	3.92
691.838	4.96
692.16	3.93
692.482	4.26
