Data from 97283_chest_Reflection__4__35.txt Node

Date: Fri Sep 23 19:58:39 CDT 2022
User: ToomeyLab
Spectrometer: FLMS14357
Trigger mode: 0
Integration Time (sec): 1.000000E-2
Scans to average: 100
Electric dark correction enabled: true
Nonlinearity correction enabled: false
Boxcar width: 0
XAxis mode: Wavelengths
Number of Pixels in Spectrum: 2048
>>>>>Begin Spectral Data<<<<<
189.047	4.28
189.435	4.28
189.823	4.28
190.211	377.47
190.599	1050.38
190.987	47.02
191.375	87.97
191.763	67.82
192.151	-87.52
192.538	63.7
192.926	59.91
193.314	213.67
193.702	90.15
194.089	-7.24
194.477	25.3
194.864	-160.09
195.252	86.93
195.639	527.79
196.027	-117.34
196.414	223.71
196.801	124.46
197.189	153.68
197.576	-338.01
197.963	-35.39
198.351	25.36
198.738	-3.3
199.125	25.28
199.512	-16.4
199.899	0.79
200.286	-56.97
200.673	45.24
201.06	7.85
201.447	36.3
201.833	58.47
202.22	-14.74
202.607	19.44
202.994	1.36
203.38	-17.22
203.767	-16.94
204.154	34.45
204.54	14.9
204.927	30.45
205.313	26.1
205.699	-3.25
206.086	5.81
206.472	26.3
206.858	20.05
207.245	9.44
207.631	1.69
208.017	-4.16
208.403	8.29
208.789	12.98
209.175	13.23
209.561	29.81
209.947	-19.87
210.333	48.35
210.719	28.86
211.105	17.53
211.491	25.86
211.876	20.59
212.262	-10.32
212.648	7.57
213.034	-18.87
213.419	-8.73
213.805	22.48
214.19	45.4
214.576	15.1
214.961	29.13
215.346	18.38
215.732	27.29
216.117	25.49
216.502	26.51
216.888	11.19
217.273	6.91
217.658	3.01
218.043	18.59
218.428	0.38
218.813	19.08
219.198	-0.36
219.583	2.21
219.968	9.68
220.353	11.07
220.738	14.77
221.122	18.54
221.507	5.81
221.892	-12.26
222.276	-6.83
222.661	-8.84
223.046	6.95
223.43	6.68
223.815	11.77
224.199	-7.92
224.583	17.27
224.968	-1.8
225.352	16.77
225.736	6.52
226.121	13.39
226.505	5.35
226.889	7.25
227.273	-1.31
227.657	2.96
228.041	4.51
228.425	5.2
228.809	5.33
229.193	5.68
229.577	7.12
229.961	6.31
230.344	4.62
230.728	3.58
231.112	4.08
231.495	3.78
231.879	1.94
232.263	4.85
232.646	5.47
233.03	4.68
233.413	5.59
233.797	4.72
234.18	5.65
234.563	2.19
234.946	5.4
235.33	4.11
235.713	5.01
236.096	2.97
236.479	3.31
236.862	4.34
237.245	5.84
237.628	4.54
238.011	5.51
238.394	5.24
238.777	3.67
239.16	4.37
239.543	1.79
239.925	3.71
240.308	5.69
240.691	4.2
241.073	2.67
241.456	2.68
241.838	7.17
242.221	5.2
242.603	5.54
242.986	4.12
243.368	3.92
243.75	4.57
244.133	4.4
244.515	3.94
244.897	4.26
245.279	4.46
245.661	5.28
246.043	5.42
246.425	3.26
246.807	4.1
247.189	4.61
247.571	4.12
247.953	4.37
248.335	4.45
248.717	4.33
249.098	3.89
249.48	3.92
249.862	3.88
250.243	4.33
250.625	4.41
251.006	4.66
251.388	3.39
251.769	4.37
252.151	3.43
252.532	4.48
252.913	4.38
253.295	4.13
253.676	4.61
254.057	3.99
254.438	4.17
254.819	4.64
255.2	4.53
255.581	5.42
255.962	2.96
256.343	5.16
256.724	3.97
257.105	3.21
257.486	2.67
257.867	4.55
258.247	4.74
258.628	4.24
259.009	3.49
259.389	4.03
259.77	3.75
260.15	4.07
260.531	4.03
260.911	4.09
261.292	4
261.672	3.72
262.052	3.67
262.432	3.55
262.813	3.93
263.193	3.38
263.573	4.3
263.953	3.87
264.333	4.13
264.713	3.31
265.093	4.22
265.473	4.32
265.853	3.46
266.233	4.11
266.612	4.07
266.992	4.68
267.372	3.55
267.752	4.41
268.131	4.05
268.511	3.83
268.89	3.43
269.27	4.02
269.649	3.86
270.029	3.85
270.408	4.1
270.787	3.79
271.167	3.55
271.546	3.97
271.925	3.33
272.304	3.82
272.683	3.86
273.062	3.54
273.441	3.43
273.82	3.65
274.199	3.98
274.578	3.17
274.957	3.52
275.336	3.58
275.715	3.95
276.093	4.27
276.472	4.23
276.851	4.67
277.229	3.76
277.608	3.81
277.986	3.52
278.365	4
278.743	4.34
279.122	3.76
279.5	3.63
279.878	3.58
280.257	3.82
280.635	3.99
281.013	3.89
281.391	3.28
281.769	4.31
282.147	3.41
282.525	3.53
282.903	3.82
283.281	3.86
283.659	3.56
284.037	3.44
284.415	3.7
284.792	3.6
285.17	3.57
285.548	3.84
285.925	3.93
286.303	4.2
286.68	3.83
287.058	3.97
287.435	3.65
287.813	4.15
288.19	3.34
288.567	3.82
288.945	3.59
289.322	4.05
289.699	4.01
290.076	4.08
290.453	3.39
290.83	4.08
291.207	3.79
291.584	4.15
291.961	3.88
292.338	3.92
292.715	3.65
293.092	3.67
293.469	4.09
293.845	4.4
294.222	3.79
294.599	3.69
294.975	4.44
295.352	4.01
295.728	3.67
296.105	3.37
296.481	4.13
296.858	3.95
297.234	4.18
297.61	3.53
297.986	3.7
298.363	3.64
298.739	4.04
299.115	3.92
299.491	3.61
299.867	3.56
300.243	3.73
300.619	3.64
300.995	4.06
301.371	3.79
301.746	4.09
302.122	3.96
302.498	3.6
302.874	3.63
303.249	3.73
303.625	4.01
304	3.81
304.376	3.71
304.751	3.67
305.127	4.05
305.502	4.03
305.878	3.97
306.253	4.07
306.628	3.4
307.003	3.47
307.378	4.17
307.754	4.48
308.129	3.39
308.504	3.63
308.879	3.49
309.254	3.75
309.629	4.06
310.003	3.94
310.378	3.85
310.753	4.12
311.128	3.67
311.502	3.35
311.877	3.78
312.252	3.73
312.626	3.9
313.001	3.99
313.375	3.7
313.75	3.47
314.124	3.25
314.498	4.03
314.873	4.28
315.247	4.19
315.621	4.17
315.995	4.18
316.369	3.62
316.743	3.45
317.117	3.4
317.491	3.86
317.865	4.29
318.239	4.05
318.613	2.99
318.987	3.53
319.361	3.61
319.734	3.77
320.108	3.18
320.482	4.24
320.855	3.4
321.229	4.38
321.602	3.79
321.976	4.22
322.349	4.25
322.723	4.26
323.096	4.24
323.469	3.41
323.843	3.58
324.216	4.25
324.589	4.33
324.962	3.77
325.335	3.77
325.708	3.92
326.081	3.96
326.454	3.36
326.827	3.43
327.2	3.27
327.573	4.5
327.945	4.39
328.318	3.67
328.691	3.71
329.063	3.71
329.436	3.39
329.809	4.32
330.181	3.98
330.553	3.54
330.926	3.9
331.298	3.76
331.671	3.63
332.043	4.25
332.415	3.7
332.787	3.69
333.159	3.53
333.532	3.73
333.904	3.62
334.276	3.34
334.648	3.41
335.02	4.21
335.391	4.05
335.763	4
336.135	4.21
336.507	3.82
336.879	3.64
337.25	4.11
337.622	4.01
337.993	3.57
338.365	3.9
338.736	4.26
339.108	4.24
339.479	3.52
339.851	4.2
340.222	4.67
340.593	3.69
340.964	3.85
341.336	3.82
341.707	4.34
342.078	3.75
342.449	4.01
342.82	3.8
343.191	3.91
343.562	3.53
343.933	4.26
344.303	3.88
344.674	4.15
345.045	4.35
345.416	4.08
345.786	4.37
346.157	3.85
346.527	3.72
346.898	3.85
347.268	3.95
347.639	3.94
348.009	3.79
348.38	3.82
348.75	3.94
349.12	4.14
349.49	4.15
349.861	3.89
350.231	3.59
350.601	4.01
350.971	4.06
351.341	3.49
351.711	4.08
352.081	3.66
352.45	3.48
352.82	3.68
353.19	4.42
353.56	4.32
353.929	3.43
354.299	4.11
354.669	4.18
355.038	4.26
355.408	3.59
355.777	3.92
356.147	3.81
356.516	4.08
356.885	3.71
357.254	3.35
357.624	3.79
357.993	4.29
358.362	3.9
358.731	3.95
359.1	4.11
359.469	3.9
359.838	3.96
360.207	3.98
360.576	4.06
360.945	3.68
361.314	3.94
361.682	3.95
362.051	4.13
362.42	4.1
362.788	3.88
363.157	4.26
363.525	4.09
363.894	4.09
364.262	3.83
364.631	3.9
364.999	4.1
365.367	3.78
365.735	4.13
366.104	4.12
366.472	4.24
366.84	4.01
367.208	4.18
367.576	4.35
367.944	4.12
368.312	4.13
368.68	4.1
369.048	3.9
369.416	4.06
369.783	3.86
370.151	4.12
370.519	3.89
370.886	4
371.254	4.34
371.621	4.21
371.989	3.91
372.356	4.55
372.724	3.81
373.091	4.25
373.458	3.82
373.826	4.14
374.193	4.18
374.56	4.06
374.927	4.03
375.294	4.48
375.661	4.06
376.028	3.8
376.395	4.38
376.762	3.85
377.129	3.83
377.496	4.17
377.863	4.32
378.229	3.97
378.596	3.89
378.963	4.46
379.329	4.32
379.696	4.01
380.062	4.26
380.429	3.87
380.795	3.72
381.161	4.28
381.528	4.33
381.894	3.98
382.26	3.94
382.626	3.95
382.993	4.36
383.359	4.17
383.725	4.38
384.091	4.21
384.457	4.29
384.823	4
385.188	4.18
385.554	3.96
385.92	4.24
386.286	4.32
386.651	4.53
387.017	4.36
387.383	4.26
387.748	4.33
388.114	4.32
388.479	4.12
388.845	4.27
389.21	4.05
389.575	4.27
389.94	4.14
390.306	4.16
390.671	4.3
391.036	4.28
391.401	4.19
391.766	4.4
392.131	4.29
392.496	4.33
392.861	4.06
393.226	4.04
393.591	4.19
393.956	4.27
394.32	4.38
394.685	4.18
395.05	4.34
395.414	4.12
395.779	4.1
396.143	4.01
396.508	4.29
396.872	4.22
397.236	4.38
397.601	3.93
397.965	4.52
398.329	4.38
398.694	4.07
399.058	4.23
399.422	4.46
399.786	4.61
400.15	4.16
400.514	3.97
400.878	4.14
401.242	4.24
401.605	4.58
401.969	4.39
402.333	4.34
402.697	4
403.06	4.36
403.424	4.29
403.787	4.36
404.151	4.33
404.514	4.14
404.878	4.48
405.241	4.31
405.604	4.16
405.968	4.19
406.331	4.21
406.694	4.44
407.057	4.38
407.42	4.32
407.783	4.34
408.146	4.46
408.509	4.41
408.872	4.38
409.235	4.34
409.598	4.57
409.961	4.33
410.323	4.14
410.686	4.31
411.049	4.32
411.411	4.53
411.774	4.38
412.136	4.21
412.499	4.23
412.861	4.26
413.223	4.33
413.586	4.07
413.948	4.47
414.31	4.21
414.672	4.3
415.035	4.19
415.397	4.52
415.759	4.4
416.121	4.64
416.483	4.48
416.845	4.26
417.206	4.34
417.568	4.63
417.93	4.31
418.292	4.42
418.653	4.43
419.015	4.63
419.377	4.34
419.738	4.46
420.1	4.26
420.461	4.39
420.822	4.43
421.184	4.48
421.545	4.36
421.906	4.3
422.267	4.39
422.629	4.38
422.99	4.3
423.351	4.3
423.712	4.26
424.073	4.27
424.434	4.25
424.795	4.45
425.155	4.37
425.516	4.41
425.877	4.34
426.238	4.42
426.598	4.33
426.959	4.44
427.32	4.36
427.68	4.48
428.041	4.46
428.401	4.38
428.761	4.43
429.122	4.56
429.482	4.43
429.842	4.73
430.202	4.63
430.563	4.33
430.923	4.64
431.283	4.73
431.643	4.43
432.003	4.56
432.363	4.66
432.722	4.56
433.082	4.42
433.442	4.39
433.802	4.57
434.161	4.56
434.521	4.46
434.881	4.48
435.24	4.41
435.6	4.53
435.959	4.52
436.319	4.54
436.678	4.46
437.037	4.62
437.396	4.5
437.756	4.57
438.115	4.49
438.474	4.55
438.833	4.61
439.192	4.67
439.551	4.56
439.91	4.57
440.269	4.59
440.628	4.67
440.987	4.33
441.345	4.53
441.704	4.48
442.063	4.55
442.421	4.41
442.78	4.46
443.138	4.39
443.497	4.62
443.855	4.53
444.214	4.66
444.572	4.48
444.93	4.58
445.288	4.66
445.647	4.78
446.005	4.61
446.363	4.67
446.721	4.47
447.079	4.66
447.437	4.78
447.795	4.62
448.153	4.4
448.51	4.52
448.868	4.65
449.226	4.52
449.584	4.49
449.941	4.57
450.299	4.74
450.656	4.62
451.014	4.69
451.371	4.43
451.729	4.57
452.086	4.74
452.443	4.61
452.801	4.66
453.158	4.66
453.515	4.66
453.872	4.76
454.229	4.74
454.586	4.58
454.943	4.74
455.3	4.58
455.657	4.64
456.014	4.78
456.371	4.57
456.727	4.69
457.084	4.69
457.441	4.79
457.797	4.63
458.154	4.69
458.51	4.66
458.867	4.73
459.223	4.82
459.58	4.73
459.936	4.76
460.292	4.61
460.648	4.82
461.005	4.75
461.361	4.69
461.717	4.66
462.073	4.68
462.429	4.58
462.785	4.64
463.141	4.63
463.496	4.65
463.852	4.79
464.208	4.71
464.564	4.94
464.919	4.87
465.275	4.82
465.631	4.67
465.986	4.66
466.342	4.97
466.697	4.8
467.052	4.89
467.408	4.9
467.763	4.88
468.118	4.85
468.473	4.78
468.829	4.72
469.184	4.83
469.539	4.69
469.894	4.68
470.249	4.86
470.603	4.95
470.958	4.99
471.313	4.97
471.668	4.78
472.023	4.83
472.377	4.78
472.732	4.8
473.086	4.85
473.441	4.88
473.795	5.08
474.15	4.9
474.504	4.94
474.859	4.94
475.213	4.95
475.567	4.67
475.921	4.91
476.275	4.81
476.63	4.86
476.984	5
477.338	4.85
477.692	4.73
478.045	4.67
478.399	4.98
478.753	4.94
479.107	4.85
479.461	4.98
479.814	4.8
480.168	4.95
480.521	4.87
480.875	4.88
481.228	5.12
481.582	4.98
481.935	4.98
482.289	4.92
482.642	4.89
482.995	5.11
483.348	4.83
483.701	4.91
484.055	4.9
484.408	4.8
484.761	4.84
485.114	4.77
485.466	4.72
485.819	4.63
486.172	4.64
486.525	4.63
486.878	4.66
487.23	4.72
487.583	4.73
487.936	4.84
488.288	4.77
488.641	4.82
488.993	4.82
489.345	4.78
489.698	4.75
490.05	4.77
490.402	4.74
490.754	4.81
491.107	4.85
491.459	4.79
491.811	4.85
492.163	5.03
492.515	4.91
492.866	4.95
493.218	4.78
493.57	4.8
493.922	4.84
494.274	4.84
494.625	4.84
494.977	4.88
495.328	5.01
495.68	5
496.031	4.94
496.383	5.14
496.734	5.06
497.086	5.15
497.437	5.18
497.788	5.17
498.139	5.03
498.49	5.07
498.842	5.07
499.193	5.06
499.544	5
499.894	5.05
500.245	5.06
500.596	5.08
500.947	4.97
501.298	5.16
501.648	5.38
501.999	5.15
502.35	5.26
502.7	5.29
503.051	5.12
503.401	5.15
503.752	5.07
504.102	5.34
504.452	5.16
504.803	5.17
505.153	5.2
505.503	5.15
505.853	5.46
506.203	5.22
506.553	5.37
506.903	5.3
507.253	5.23
507.603	5.03
507.953	5.28
508.303	5.22
508.652	5.27
509.002	5.34
509.352	5.38
509.701	5.2
510.051	5.25
510.4	5.31
510.75	5.3
511.099	5.36
511.449	5.26
511.798	5.38
512.147	5.29
512.496	5.2
512.846	5.36
513.195	5.3
513.544	5.37
513.893	5.37
514.242	5.27
514.591	5.22
514.939	5.35
515.288	5.35
515.637	5.34
515.986	5.47
516.334	5.33
516.683	5.49
517.032	5.33
517.38	5.55
517.729	5.35
518.077	5.3
518.426	5.52
518.774	5.4
519.122	5.45
519.47	5.44
519.819	5.52
520.167	5.38
520.515	5.44
520.863	5.4
521.211	5.32
521.559	5.29
521.907	5.45
522.255	5.46
522.602	5.45
522.95	5.48
523.298	5.44
523.645	5.55
523.993	5.54
524.341	5.63
524.688	5.41
525.036	5.5
525.383	5.58
525.73	5.67
526.078	5.64
526.425	5.59
526.772	5.61
527.119	5.59
527.466	5.52
527.814	5.45
528.161	5.63
528.508	5.57
528.854	5.56
529.201	5.57
529.548	5.61
529.895	5.51
530.242	5.48
530.588	5.45
530.935	5.43
531.282	5.42
531.628	5.42
531.975	5.41
532.321	5.52
532.667	5.56
533.014	5.64
533.36	5.65
533.706	5.7
534.052	5.68
534.399	5.67
534.745	5.6
535.091	5.64
535.437	5.62
535.783	5.65
536.129	5.69
536.474	5.74
536.82	5.8
537.166	5.75
537.512	5.77
537.857	5.87
538.203	5.86
538.549	5.79
538.894	5.85
539.239	5.92
539.585	5.95
539.93	5.83
540.276	6
540.621	6
540.966	5.94
541.311	6.05
541.656	5.95
542.001	6.21
542.346	6
542.691	5.93
543.036	5.97
543.381	5.97
543.726	5.89
544.071	5.84
544.415	5.95
544.76	5.95
545.105	5.97
545.449	6.04
545.794	6.07
546.138	6.14
546.483	6.06
546.827	6.15
547.171	6.18
547.516	6.25
547.86	6.21
548.204	6.28
548.548	6.16
548.892	6.08
549.236	6.26
549.58	6.27
549.924	6.48
550.268	6.44
550.612	6.37
550.956	6.6
551.3	6.36
551.643	6.39
551.987	6.42
552.33	6.38
552.674	6.55
553.017	6.52
553.361	6.6
553.704	6.47
554.048	6.68
554.391	6.69
554.734	6.73
555.077	6.47
555.42	6.45
555.764	6.56
556.107	6.67
556.45	6.74
556.793	6.63
557.135	6.77
557.478	6.81
557.821	6.56
558.164	6.69
558.507	6.71
558.849	6.78
559.192	6.83
559.534	6.95
559.877	6.91
560.219	6.88
560.562	7.07
560.904	6.9
561.246	6.67
561.589	6.97
561.931	6.91
562.273	7.02
562.615	7.18
562.957	6.85
563.299	6.95
563.641	7.01
563.983	7.05
564.325	6.89
564.667	7.1
565.008	7.14
565.35	7.38
565.692	7.09
566.033	7.27
566.375	7.22
566.716	7.36
567.058	7.16
567.399	7.05
567.741	7.03
568.082	7.23
568.423	7.13
568.764	7.22
569.105	7.25
569.447	7.11
569.788	7.23
570.129	7.4
570.47	7.41
570.811	7.45
571.151	7.51
571.492	7.43
571.833	7.43
572.174	7.32
572.514	7.51
572.855	7.43
573.195	7.49
573.536	7.59
573.876	7.5
574.217	7.57
574.557	7.45
574.898	7.59
575.238	7.7
575.578	7.66
575.918	7.69
576.258	7.67
576.598	7.75
576.938	7.88
577.278	7.86
577.618	7.7
577.958	7.9
578.298	7.92
578.638	7.72
578.977	7.88
579.317	7.93
579.657	7.97
579.996	7.76
580.336	8.08
580.675	8.07
581.014	8.03
581.354	8.14
581.693	8.17
582.032	8.1
582.372	8.25
582.711	8.24
583.05	8.29
583.389	8.26
583.728	8.45
584.067	8.31
584.406	8.18
584.745	8.44
585.083	8.26
585.422	8.22
585.761	8.34
586.1	8.26
586.438	8.61
586.777	8.17
587.115	8.47
587.454	8.65
587.792	8.64
588.13	8.74
588.469	8.63
588.807	8.66
589.145	8.57
589.483	8.82
589.821	8.87
590.159	8.76
590.497	8.74
590.835	8.68
591.173	8.84
591.511	9.01
591.849	8.7
592.187	8.85
592.524	9.14
592.862	9.21
593.2	8.83
593.537	9.04
593.875	9.22
594.212	8.99
594.55	8.68
594.887	9
595.224	8.97
595.561	9.26
595.899	9.07
596.236	8.85
596.573	9.19
596.91	9.48
597.247	9.34
597.584	9.16
597.921	9.25
598.258	9.28
598.594	9.32
598.931	9.44
599.268	9.41
599.604	9.24
599.941	9.34
600.277	9.39
600.614	9.31
600.95	9.53
601.287	9.35
601.623	9.34
601.959	9.31
602.296	9.59
602.632	9.78
602.968	9.41
603.304	9.72
603.64	9.68
603.976	9.66
604.312	10.03
604.648	10
604.984	9.96
605.319	10.08
605.655	9.79
605.991	9.7
606.326	9.95
606.662	10.03
606.998	10.03
607.333	9.75
607.668	9.91
608.004	10.01
608.339	9.77
608.674	10.22
609.01	10.06
609.345	10.05
609.68	10.09
610.015	10.51
610.35	10.55
610.685	10.18
611.02	10.41
611.355	10.26
611.689	10.34
612.024	10.15
612.359	10.35
612.694	10.67
613.028	10.52
613.363	10.79
613.697	10.5
614.032	10.66
614.366	10.92
614.7	11
615.035	10.78
615.369	10.78
615.703	10.79
616.037	10.66
616.371	10.97
616.705	10.7
617.039	10.76
617.373	10.98
617.707	11.37
618.041	11.17
618.375	11.18
618.709	10.86
619.042	10.9
619.376	11.43
619.71	11.36
620.043	11.19
620.377	11.28
620.71	11.24
621.043	11.52
621.377	11.17
621.71	11.1
622.043	10.97
622.376	11.21
622.709	11.57
623.043	11.35
623.376	11.47
623.709	11.64
624.041	11.94
624.374	11.67
624.707	11.62
625.04	11.93
625.373	11.79
625.705	11.62
626.038	11.39
626.37	11.67
626.703	11.7
627.035	12.4
627.368	11.74
627.7	12.02
628.032	11.88
628.365	11.84
628.697	11.89
629.029	12.22
629.361	12.32
629.693	12.34
630.025	12.32
630.357	12.4
630.689	12.41
631.021	12.18
631.353	12.55
631.684	12.38
632.016	12.56
632.348	12.28
632.679	12.52
633.011	12.42
633.342	12.59
633.674	12.53
634.005	12.41
634.336	12.86
634.668	12.86
634.999	12.53
635.33	12.63
635.661	12.85
635.992	12.87
636.323	12.7
636.654	12.75
636.985	12.76
637.316	12.79
637.647	12.83
637.977	12.94
638.308	13.13
638.639	12.8
638.969	13.09
639.3	13.13
639.63	12.97
639.961	13.27
640.291	12.81
640.622	13.15
640.952	13.07
641.282	13.69
641.612	13.13
641.943	13.07
642.273	13.55
642.603	13.54
642.933	12.99
643.263	13.48
643.592	13.23
643.922	13.89
644.252	13.94
644.582	13.8
644.911	13.11
645.241	13.08
645.571	14.05
645.9	13.66
646.23	14.52
646.559	13.43
646.888	13.98
647.218	14.09
647.547	13.65
647.876	14.04
648.205	13.7
648.534	14.09
648.863	14.13
649.192	14.54
649.521	13.67
649.85	14.23
650.179	13.92
650.508	14.46
650.837	14.44
651.165	14.17
651.494	14.05
651.822	13.87
652.151	14.08
652.479	14.32
652.808	14.75
653.136	14.37
653.465	14.73
653.793	14.66
654.121	13.99
654.449	14.27
654.777	14.63
655.105	14.16
655.433	14.56
655.761	14.85
656.089	14.86
656.417	14.52
656.745	14.87
657.073	14.25
657.4	15.11
657.728	15.38
658.056	15.37
658.383	15.14
658.711	14.62
659.038	15
659.365	15.17
659.693	14.95
660.02	15.48
660.347	14.68
660.674	15.13
661.001	15.71
661.329	15.26
661.656	15.47
661.982	15.63
662.309	15.84
662.636	15.06
662.963	15.68
663.29	15.58
663.616	15.59
663.943	15.89
664.27	15.64
664.596	15.87
664.923	16.16
665.249	15.87
665.576	15.77
665.902	15.54
666.228	15.63
666.554	15.95
666.881	15.92
667.207	15.93
667.533	16.31
667.859	15.65
668.185	15.63
668.511	15.39
668.837	16.58
669.162	16.59
669.488	16.45
669.814	16.36
670.139	16.28
670.465	16.13
670.791	16.3
671.116	16.3
671.442	16.6
671.767	16.5
672.092	16.12
672.418	16.5
672.743	16.6
673.068	16.12
673.393	16.26
673.718	16.48
674.043	17.2
674.368	16.96
674.693	16.97
675.018	16.6
675.343	17.72
675.667	16.68
675.992	16.86
676.317	16.56
676.641	17.01
676.966	17.25
677.29	17.24
677.615	17.24
677.939	17.21
678.264	16.99
678.588	17.03
678.912	17.23
679.236	16.71
679.56	17.13
679.885	17.79
680.209	16.47
680.532	16.73
680.856	17.52
681.18	17.91
681.504	18.1
681.828	17.32
682.152	18.17
682.475	17.38
682.799	17.8
683.122	17.37
683.446	18.07
683.769	17.24
684.093	18.11
684.416	17.94
684.739	18.28
685.062	17.23
685.386	17.77
685.709	18.03
686.032	17.7
686.355	18
686.678	17.71
687.001	17.56
687.324	18.47
