Data from 97283_crown_Reflection__4__45.txt Node

Date: Fri Sep 23 20:01:42 CDT 2022
User: ToomeyLab
Spectrometer: FLMS14357
Trigger mode: 0
Integration Time (sec): 1.000000E-2
Scans to average: 100
Electric dark correction enabled: true
Nonlinearity correction enabled: false
Boxcar width: 0
XAxis mode: Wavelengths
Number of Pixels in Spectrum: 2048
>>>>>Begin Spectral Data<<<<<
189.047	-8.16
189.435	-8.16
189.823	-8.16
190.211	103.61
190.599	220.61
190.987	-51.24
191.375	1067.01
191.763	158.23
192.151	2.9
192.538	-160.25
192.926	51.99
193.314	94.47
193.702	39.23
194.089	-32.52
194.477	80.69
194.864	-315.42
195.252	119.12
195.639	390.74
196.027	252.3
196.414	81.22
196.801	0.03
197.189	-10.91
197.576	-222.94
197.963	7.3
198.351	20.24
198.738	-24.97
199.125	4.25
199.512	-13.29
199.899	-19.3
200.286	35.76
200.673	25.95
201.06	-0.93
201.447	45.88
201.833	30.88
202.22	14.72
202.607	20.3
202.994	-20.08
203.38	-47.81
203.767	-69.04
204.154	24.43
204.54	20.94
204.927	5.1
205.313	28.93
205.699	-7.24
206.086	33.85
206.472	5.17
206.858	15.03
207.245	20.32
207.631	-9.01
208.017	-11.67
208.403	4.05
208.789	19.97
209.175	48.6
209.561	13.86
209.947	25.66
210.333	-24.02
210.719	3.53
211.105	21.91
211.491	-0.49
211.876	23.8
212.262	-31.74
212.648	-17.31
213.034	-16.78
213.419	-61.52
213.805	22.19
214.19	-9.59
214.576	3.37
214.961	18.72
215.346	-13.31
215.732	1.87
216.117	9.84
216.502	-16.33
216.888	10.72
217.273	-6.18
217.658	-20.11
218.043	5.15
218.428	10.45
218.813	13.32
219.198	14.24
219.583	3.97
219.968	4.7
220.353	-0.18
220.738	-4.37
221.122	7.24
221.507	-10.28
221.892	-3.38
222.276	0.29
222.661	1.34
223.046	-5.98
223.43	-4.84
223.815	14.04
224.199	-2.69
224.583	13
224.968	0.1
225.352	1.14
225.736	-0.74
226.121	7.24
226.505	0.55
226.889	4.08
227.273	5.54
227.657	2.56
228.041	2.06
228.425	5.22
228.809	3.13
229.193	4.89
229.577	5.02
229.961	3.67
230.344	3.58
230.728	3.25
231.112	2.81
231.495	2.81
231.879	0.94
232.263	4.3
232.646	3.67
233.03	4.76
233.413	5.06
233.797	3.43
234.18	7.57
234.563	0.66
234.946	3.51
235.33	2.72
235.713	4.2
236.096	1.77
236.479	0.5
236.862	2.29
237.245	3.7
237.628	3.3
238.011	4.66
238.394	3.78
238.777	4.29
239.16	2.93
239.543	2.18
239.925	2.99
240.308	4.59
240.691	3.92
241.073	1.95
241.456	3.34
241.838	5.26
242.221	3.88
242.603	4.96
242.986	2.71
243.368	3.09
243.75	3.55
244.133	3.49
244.515	3.27
244.897	3.87
245.279	3.41
245.661	3.33
246.043	4.99
246.425	3.05
246.807	2.93
247.189	4.09
247.571	3.25
247.953	3.3
248.335	3.38
248.717	3.61
249.098	3.31
249.48	3.59
249.862	3.41
250.243	3.62
250.625	3.58
251.006	3.01
251.388	3.48
251.769	3.39
252.151	1.29
252.532	3.56
252.913	3.86
253.295	2.81
253.676	2.89
254.057	3.27
254.438	3.34
254.819	3.71
255.2	3.81
255.581	3.3
255.962	2.49
256.343	4.47
256.724	3.58
257.105	3.54
257.486	2.31
257.867	2.93
258.247	3.77
258.628	2.78
259.009	2.92
259.389	3.01
259.77	2.13
260.15	3.12
260.531	3.22
260.911	3.1
261.292	3.14
261.672	3.09
262.052	2.91
262.432	3.2
262.813	3.49
263.193	2.96
263.573	2.93
263.953	2.1
264.333	2.77
264.713	2.99
265.093	3.21
265.473	2.97
265.853	2.83
266.233	2.06
266.612	2.89
266.992	3.58
267.372	2.68
267.752	2.48
268.131	3.25
268.511	2.79
268.89	3.22
269.27	2.8
269.649	2.55
270.029	2.92
270.408	3.34
270.787	2.3
271.167	2.97
271.546	2.85
271.925	2.48
272.304	2.49
272.683	2.3
273.062	2.58
273.441	3.22
273.82	2.98
274.199	2.68
274.578	2.9
274.957	3.18
275.336	2.93
275.715	3
276.093	3.31
276.472	3.43
276.851	3.3
277.229	2.93
277.608	2.65
277.986	2.61
278.365	3.12
278.743	3.36
279.122	2.24
279.5	2.72
279.878	2.4
280.257	2.69
280.635	2.83
281.013	2.96
281.391	2.19
281.769	2.83
282.147	2.91
282.525	2.61
282.903	2.93
283.281	3.35
283.659	3.18
284.037	2.98
284.415	2.9
284.792	3.15
285.17	2.73
285.548	2.71
285.925	3.05
286.303	3.34
286.68	2.77
287.058	2.7
287.435	2.72
287.813	2.95
288.19	2.69
288.567	3.14
288.945	3.19
289.322	3.15
289.699	2.39
290.076	2.97
290.453	2.93
290.83	2.89
291.207	2.91
291.584	2.76
291.961	3.04
292.338	2.73
292.715	2.47
293.092	2.53
293.469	3.18
293.845	3.08
294.222	2.74
294.599	2.53
294.975	3.03
295.352	2.98
295.728	2.84
296.105	2.05
296.481	2.85
296.858	2.82
297.234	2.78
297.61	2.54
297.986	2.54
298.363	2.52
298.739	2.72
299.115	2.67
299.491	2.86
299.867	3
300.243	2.66
300.619	2.86
300.995	3.02
301.371	1.86
301.746	3.25
302.122	3.06
302.498	2.76
302.874	2.02
303.249	2.37
303.625	2.42
304	2.8
304.376	2.58
304.751	2.25
305.127	2.75
305.502	2.89
305.878	3.02
306.253	3.16
306.628	2.5
307.003	1.98
307.378	2.85
307.754	2.97
308.129	2.44
308.504	2.98
308.879	2.85
309.254	2.58
309.629	2.76
310.003	2.83
310.378	2.65
310.753	2.82
311.128	2.67
311.502	2.43
311.877	2.53
312.252	2.35
312.626	2.94
313.001	2.72
313.375	2.67
313.75	2.73
314.124	2.57
314.498	2.97
314.873	2.66
315.247	2.74
315.621	2.58
315.995	3.14
316.369	2.88
316.743	2.19
317.117	2.26
317.491	2.35
317.865	2.79
318.239	3.19
318.613	2.25
318.987	2.35
319.361	2.15
319.734	2.24
320.108	2.17
320.482	2.83
320.855	2.5
321.229	3.25
321.602	2.84
321.976	3.22
322.349	2.77
322.723	3.06
323.096	2.5
323.469	2.16
323.843	2.12
324.216	2.64
324.589	3
324.962	2.44
325.335	2.49
325.708	2.68
326.081	2.74
326.454	2.95
326.827	2.26
327.2	1.95
327.573	2.91
327.945	2.82
328.318	2.1
328.691	2.39
329.063	2.78
329.436	2.41
329.809	3.65
330.181	2.69
330.553	2
330.926	2.7
331.298	2.51
331.671	2.92
332.043	2.74
332.415	2.69
332.787	2.47
333.159	2.43
333.532	2.4
333.904	2.1
334.276	2.35
334.648	2.42
335.02	2.9
335.391	2.85
335.763	2.72
336.135	2.58
336.507	3.06
336.879	2.79
337.25	2.47
337.622	3.22
337.993	2.53
338.365	3.15
338.736	2.97
339.108	3.04
339.479	2.34
339.851	2.74
340.222	2.98
340.593	2.85
340.964	2.54
341.336	2.43
341.707	2.72
342.078	2.54
342.449	2.56
342.82	2.66
343.191	2.96
343.562	2.61
343.933	3.4
344.303	2.58
344.674	2.89
345.045	3.08
345.416	2.88
345.786	3.22
346.157	2.51
346.527	2.62
346.898	2.77
347.268	2.74
347.639	2.36
348.009	2.49
348.38	2.68
348.75	2.73
349.12	2.54
349.49	2.62
349.861	3
350.231	2.53
350.601	2.66
350.971	2.85
351.341	2.63
351.711	2.75
352.081	2.63
352.45	2.41
352.82	2.46
353.19	2.96
353.56	2.63
353.929	2.35
354.299	2.92
354.669	3.05
355.038	2.89
355.408	2.47
355.777	2.76
356.147	2.37
356.516	2.89
356.885	2.65
357.254	2.63
357.624	2.74
357.993	3.01
358.362	2.66
358.731	2.51
359.1	2.92
359.469	2.49
359.838	2.73
360.207	3.15
360.576	2.95
360.945	2.65
361.314	2.52
361.682	2.82
362.051	2.81
362.42	2.85
362.788	2.55
363.157	2.74
363.525	2.96
363.894	2.82
364.262	2.66
364.631	2.81
364.999	2.82
365.367	2.68
365.735	2.91
366.104	2.81
366.472	2.85
366.84	2.71
367.208	3.23
367.576	2.98
367.944	2.85
368.312	3.06
368.68	2.71
369.048	2.96
369.416	2.72
369.783	2.48
370.151	2.92
370.519	2.81
370.886	2.9
371.254	3.09
371.621	2.91
371.989	2.77
372.356	3.22
372.724	2.78
373.091	2.74
373.458	2.64
373.826	2.83
374.193	2.92
374.56	2.94
374.927	3.02
375.294	3.02
375.661	2.63
376.028	2.97
376.395	2.79
376.762	2.92
377.129	2.48
377.496	3.07
377.863	3.1
378.229	2.52
378.596	2.84
378.963	3.17
379.329	3.09
379.696	2.96
380.062	3
380.429	2.76
380.795	2.77
381.161	3.1
381.528	3.02
381.894	2.97
382.26	2.77
382.626	2.99
382.993	3.26
383.359	3.04
383.725	3.27
384.091	3.05
384.457	3.24
384.823	2.9
385.188	3.28
385.554	3.05
385.92	2.95
386.286	2.94
386.651	3.14
387.017	3.26
387.383	3.06
387.748	3.2
388.114	2.96
388.479	2.78
388.845	2.94
389.21	2.95
389.575	2.93
389.94	2.84
390.306	2.77
390.671	2.92
391.036	2.99
391.401	3.23
391.766	3.22
392.131	2.93
392.496	2.85
392.861	3.14
393.226	3.05
393.591	2.77
393.956	3.15
394.32	2.99
394.685	2.99
395.05	3.07
395.414	3.14
395.779	2.87
396.143	2.88
396.508	2.85
396.872	2.9
397.236	3.03
397.601	2.91
397.965	3.2
398.329	3.05
398.694	2.82
399.058	2.84
399.422	3.18
399.786	2.98
400.15	3
400.514	2.9
400.878	3.12
401.242	2.92
401.605	3.18
401.969	2.97
402.333	2.78
402.697	2.92
403.06	3.23
403.424	3.01
403.787	3.17
404.151	2.97
404.514	3.04
404.878	3.17
405.241	3.19
405.604	3.02
405.968	3.04
406.331	2.76
406.694	2.99
407.057	3.05
407.42	3.11
407.783	3.12
408.146	2.97
408.509	3.22
408.872	2.94
409.235	3.16
409.598	3.27
409.961	3.16
410.323	3.01
410.686	2.89
411.049	3.05
411.411	2.95
411.774	3.1
412.136	3.06
412.499	3.05
412.861	2.97
413.223	3.18
413.586	3.01
413.948	3.1
414.31	2.92
414.672	3.29
415.035	3.08
415.397	3.18
415.759	3.28
416.121	3.24
416.483	3.07
416.845	2.86
417.206	3.21
417.568	3.02
417.93	3.17
418.292	3.18
418.653	2.94
419.015	2.89
419.377	2.97
419.738	3.07
420.1	2.96
420.461	3.12
420.822	3.17
421.184	3.11
421.545	3.01
421.906	3.04
422.267	2.95
422.629	2.97
422.99	3.05
423.351	3.1
423.712	2.94
424.073	3.05
424.434	3.09
424.795	3.13
425.155	2.99
425.516	3.05
425.877	3.03
426.238	3.09
426.598	3.1
426.959	3.22
427.32	3.14
427.68	3.14
428.041	3.1
428.401	3.05
428.761	3.23
429.122	3.07
429.482	3.17
429.842	3.25
430.202	3.34
430.563	3.12
430.923	3.05
431.283	3.28
431.643	3.3
432.003	3.2
432.363	3.3
432.722	3.19
433.082	3.02
433.442	2.89
433.802	3.12
434.161	3.11
434.521	3.09
434.881	3.07
435.24	3.16
435.6	3.11
435.959	3.1
436.319	3.21
436.678	3.02
437.037	3.17
437.396	3.13
437.756	3.07
438.115	2.97
438.474	3.18
438.833	3.32
439.192	3.25
439.551	3.18
439.91	3.08
440.269	3.13
440.628	3.17
440.987	3.02
441.345	3.18
441.704	3.08
442.063	3.21
442.421	2.98
442.78	3.14
443.138	2.96
443.497	3.26
443.855	3.18
444.214	3.29
444.572	3.12
444.93	3.1
445.288	3.14
445.647	3.28
446.005	3.3
446.363	3.09
446.721	3.04
447.079	3.12
447.437	3.24
447.795	3.11
448.153	3.01
448.51	3.07
448.868	3.1
449.226	3.28
449.584	3.14
449.941	3.2
450.299	3.25
450.656	3.17
451.014	3.33
451.371	3.09
451.729	3.14
452.086	3.37
452.443	3.3
452.801	3.13
453.158	3.21
453.515	3.17
453.872	3.17
454.229	3.17
454.586	3.17
454.943	3.36
455.3	3.17
455.657	3.21
456.014	3.3
456.371	3.1
456.727	3.31
457.084	3.26
457.441	3.28
457.797	3.17
458.154	3.12
458.51	3.19
458.867	3.24
459.223	3.29
459.58	3.17
459.936	3.11
460.292	3.03
460.648	3.17
461.005	3.19
461.361	3.07
461.717	3.12
462.073	3.17
462.429	3.15
462.785	3.31
463.141	3.23
463.496	3.31
463.852	3.25
464.208	3.33
464.564	3.46
464.919	3.35
465.275	3.32
465.631	3.19
465.986	3.13
466.342	3.34
466.697	3.18
467.052	3.19
467.408	3.28
467.763	3.35
468.118	3.14
468.473	3.29
468.829	3.19
469.184	3.25
469.539	3.2
469.894	3.27
470.249	3.43
470.603	3.33
470.958	3.33
471.313	3.35
471.668	3.27
472.023	3.36
472.377	3.28
472.732	3.3
473.086	3.18
473.441	3.3
473.795	3.31
474.15	3.32
474.504	3.25
474.859	3.33
475.213	3.49
475.567	3.05
475.921	3.39
476.275	3.1
476.63	3.1
476.984	3.5
477.338	3.19
477.692	3.34
478.045	3.16
478.399	3.46
478.753	3.36
479.107	3.21
479.461	3.24
479.814	3.23
480.168	3.21
480.521	3.34
480.875	3.39
481.228	3.4
481.582	3.16
481.935	3.35
482.289	3.37
482.642	3.17
482.995	3.36
483.348	3.09
483.701	3.26
484.055	3.16
484.408	3.19
484.761	3.18
485.114	2.96
485.466	2.94
485.819	2.93
486.172	3.03
486.525	3.22
486.878	3.24
487.23	3.29
487.583	3.26
487.936	3.3
488.288	3.22
488.641	3.1
488.993	3.05
489.345	3.11
489.698	3.09
490.05	3.15
490.402	3.15
490.754	3.27
491.107	3.29
491.459	3.25
491.811	3.24
492.163	3.35
492.515	3.22
492.866	3.15
493.218	3
493.57	3.06
493.922	3.16
494.274	3.21
494.625	3.32
494.977	3.3
495.328	3.45
495.68	3.29
496.031	3.26
496.383	3.33
496.734	3.29
497.086	3.43
497.437	3.45
497.788	3.36
498.139	3.23
498.49	3.17
498.842	3.28
499.193	3.35
499.544	3.16
499.894	3.32
500.245	3.33
500.596	3.27
500.947	3.34
501.298	3.34
501.648	3.53
501.999	3.34
502.35	3.46
502.7	3.46
503.051	3.35
503.401	3.3
503.752	3.24
504.102	3.45
504.452	3.4
504.803	3.44
505.153	3.36
505.503	3.26
505.853	3.41
506.203	3.43
506.553	3.36
506.903	3.41
507.253	3.31
507.603	3.33
507.953	3.3
508.303	3.44
508.652	3.25
509.002	3.44
509.352	3.34
509.701	3.31
510.051	3.4
510.4	3.35
510.75	3.32
511.099	3.34
511.449	3.28
511.798	3.29
512.147	3.38
512.496	3.27
512.846	3.39
513.195	3.34
513.544	3.37
513.893	3.31
514.242	3.33
514.591	3.25
514.939	3.3
515.288	3.35
515.637	3.39
515.986	3.34
516.334	3.14
516.683	3.39
517.032	3.3
517.38	3.36
517.729	3.35
518.077	3.24
518.426	3.37
518.774	3.45
519.122	3.28
519.47	3.31
519.819	3.31
520.167	3.21
520.515	3.28
520.863	3.39
521.211	3.31
521.559	3.43
521.907	3.32
522.255	3.34
522.602	3.47
522.95	3.39
523.298	3.35
523.645	3.2
523.993	3.34
524.341	3.42
524.688	3.39
525.036	3.35
525.383	3.34
525.73	3.44
526.078	3.33
526.425	3.44
526.772	3.3
527.119	3.3
527.466	3.2
527.814	3.31
528.161	3.39
528.508	3.36
528.854	3.43
529.201	3.2
529.548	3.22
529.895	3.17
530.242	3.06
530.588	3.08
530.935	3.14
531.282	3.24
531.628	3.29
531.975	3.32
532.321	3.32
532.667	3.4
533.014	3.37
533.36	3.43
533.706	3.34
534.052	3.26
534.399	3.23
534.745	3.28
535.091	3.18
535.437	3.21
535.783	3.33
536.129	3.35
536.474	3.45
536.82	3.4
537.166	3.44
537.512	3.35
537.857	3.35
538.203	3.29
538.549	3.16
538.894	3.32
539.239	3.38
539.585	3.46
539.93	3.43
540.276	3.48
540.621	3.49
540.966	3.47
541.311	3.53
541.656	3.33
542.001	3.54
542.346	3.27
542.691	3.16
543.036	3.18
543.381	3.18
543.726	3.31
544.071	3.31
544.415	3.46
544.76	3.35
545.105	3.37
545.449	3.48
545.794	3.34
546.138	3.47
546.483	3.43
546.827	3.5
547.171	3.41
547.516	3.4
547.86	3.33
548.204	3.29
548.548	3.26
548.892	3.35
549.236	3.49
549.58	3.42
549.924	3.54
550.268	3.67
550.612	3.57
550.956	3.54
551.3	3.38
551.643	3.43
551.987	3.56
552.33	3.41
552.674	3.32
553.017	3.47
553.361	3.4
553.704	3.29
554.048	3.5
554.391	3.4
554.734	3.47
555.077	3.3
555.42	3.34
555.764	3.47
556.107	3.3
556.45	3.59
556.793	3.37
557.135	3.52
557.478	3.48
557.821	3.55
558.164	3.4
558.507	3.43
558.849	3.66
559.192	3.49
559.534	3.47
559.877	3.62
560.219	3.48
560.562	3.57
560.904	3.41
561.246	3.51
561.589	3.48
561.931	3.56
562.273	3.6
562.615	3.33
562.957	3.48
563.299	3.51
563.641	3.54
563.983	3.54
564.325	3.6
564.667	3.62
565.008	3.5
565.35	3.65
565.692	3.72
566.033	3.64
566.375	3.59
566.716	3.45
567.058	3.53
567.399	3.41
567.741	3.38
568.082	3.43
568.423	3.25
568.764	3.46
569.105	3.38
569.447	3.52
569.788	3.45
570.129	3.41
570.47	3.39
570.811	3.49
571.151	3.7
571.492	3.41
571.833	3.5
572.174	3.56
572.514	3.34
572.855	3.56
573.195	3.46
573.536	3.43
573.876	3.26
574.217	3.43
574.557	3.56
574.898	3.49
575.238	3.51
575.578	3.56
575.918	3.32
576.258	3.39
576.598	3.47
576.938	3.4
577.278	3.47
577.618	3.27
577.958	3.57
578.298	3.39
578.638	3.64
578.977	3.64
579.317	3.77
579.657	3.64
579.996	3.38
580.336	3.68
580.675	3.55
581.014	3.46
581.354	3.68
581.693	3.43
582.032	3.46
582.372	3.81
582.711	3.47
583.05	3.63
583.389	3.49
583.728	3.73
584.067	3.73
584.406	3.37
584.745	3.57
585.083	3.48
585.422	3.5
585.761	3.52
586.1	3.64
586.438	3.47
586.777	3.58
587.115	3.61
587.454	3.49
587.792	3.85
588.13	3.68
588.469	3.44
588.807	3.41
589.145	3.73
589.483	3.67
589.821	3.48
590.159	3.54
590.497	3.48
590.835	3.46
591.173	3.69
591.511	3.68
591.849	3.47
592.187	3.37
592.524	3.95
592.862	3.89
593.2	3.67
593.537	3.6
593.875	3.82
594.212	3.87
594.55	3.11
594.887	3.56
595.224	3.39
595.561	3.7
595.899	3.34
596.236	3.45
596.573	3.87
596.91	3.55
597.247	3.64
597.584	3.66
597.921	3.59
598.258	3.28
598.594	3.4
598.931	3.55
599.268	3.38
599.604	3.41
599.941	3.8
600.277	3.66
600.614	3.69
600.95	3.42
601.287	3.65
601.623	3.53
601.959	3.38
602.296	3.53
602.632	3.8
602.968	3.27
603.304	3.47
603.64	3.66
603.976	3.88
604.312	3.75
604.648	3.39
604.984	3.57
605.319	3.73
605.655	3.51
605.991	3.43
606.326	3.6
606.662	3.65
606.998	3.75
607.333	3.59
607.668	3.58
608.004	3.79
608.339	3.39
608.674	3.65
609.01	3.8
609.345	3.63
609.68	3.49
610.015	3.69
610.35	3.82
610.685	3.23
611.02	3.67
611.355	3.58
611.689	3.65
612.024	3.49
612.359	3.44
612.694	3.81
613.028	3.93
613.363	3.84
613.697	3.65
614.032	3.62
614.366	3.63
614.7	3.49
615.035	3.55
615.369	4.08
615.703	3.76
616.037	3.37
616.371	3.65
616.705	3.65
617.039	3.44
617.373	3.68
617.707	3.77
618.041	3.98
618.375	3.85
618.709	3.47
619.042	3.74
619.376	3.81
619.71	3.59
620.043	3.5
620.377	3.51
620.71	3.64
621.043	3.67
621.377	3.48
621.71	4.02
622.043	3.91
622.376	3.43
622.709	3.8
623.043	3.16
623.376	3.48
623.709	3.47
624.041	3.5
624.374	3.7
624.707	3.78
625.04	4.14
625.373	3.89
625.705	3.82
626.038	3.42
626.37	3.49
626.703	3.79
627.035	3.9
627.368	3.74
627.7	3.63
628.032	3.45
628.365	3.65
628.697	3.6
629.029	3.69
629.361	3.71
629.693	3.62
630.025	3.62
630.357	3.85
630.689	3.59
631.021	3.52
631.353	3.85
631.684	4.05
632.016	3.91
632.348	3.39
632.679	3.92
633.011	3.77
633.342	3.76
633.674	3.7
634.005	3.65
634.336	4.05
634.668	3.67
634.999	3.68
635.33	3.57
635.661	3.69
635.992	3.75
636.323	3.95
636.654	3.66
636.985	3.82
637.316	3.66
637.647	3.8
637.977	3.73
638.308	3.51
638.639	3.12
638.969	3.93
639.3	3.69
639.63	3.57
639.961	4.15
640.291	3.89
640.622	3.73
640.952	3.62
641.282	3.97
641.612	3.8
641.943	4.16
642.273	4.13
642.603	4.05
642.933	3.86
643.263	3.53
643.592	3.34
643.922	3.69
644.252	4
644.582	4.03
644.911	3.9
645.241	3.81
645.571	4.05
645.9	4.09
646.23	4.12
646.559	3.53
646.888	3.89
647.218	4.04
647.547	3.86
647.876	3.65
648.205	3.93
648.534	3.53
648.863	3.86
649.192	4.27
649.521	3.4
649.85	3.64
650.179	3.67
650.508	3.87
650.837	4.28
651.165	3.87
651.494	3.37
651.822	3.58
652.151	3.85
652.479	3.71
652.808	3.86
653.136	3.7
653.465	3.88
653.793	3.98
654.121	3.53
654.449	3.64
654.777	3.95
655.105	3.92
655.433	3.68
655.761	4.24
656.089	3.97
656.417	3.83
656.745	4.01
657.073	3.04
657.4	3.8
657.728	3.75
658.056	4.1
658.383	3.71
658.711	3.61
659.038	3.92
659.365	3.81
659.693	3.59
660.02	3.87
660.347	3.79
660.674	3.33
661.001	4.19
661.329	3.81
661.656	4.1
661.982	3.9
662.309	4.2
662.636	4
662.963	3.91
663.29	4.07
663.616	4.06
663.943	4.21
664.27	3.73
664.596	3.89
664.923	4.37
665.249	3.76
665.576	3.79
665.902	4.18
666.228	4.09
666.554	3.94
666.881	4.01
667.207	3.3
667.533	3.72
667.859	3.79
668.185	3.73
668.511	3.64
668.837	4.5
669.162	3.49
669.488	3.64
669.814	3.71
670.139	3.77
670.465	4.19
670.791	3.79
671.116	4.07
671.442	4.15
671.767	3.61
672.092	3.48
672.418	4.05
672.743	3.85
673.068	3.47
673.393	3.69
673.718	4
674.043	4.29
674.368	4.13
674.693	4.13
675.018	4.16
675.343	4.52
675.667	4
675.992	4.23
676.317	4.38
676.641	4.32
676.966	4.54
677.29	4.23
677.615	3.78
677.939	4.13
678.264	3.35
678.588	3.5
678.912	3.89
679.236	3.91
679.56	3.89
679.885	4.24
680.209	4.31
680.532	3.82
680.856	3.95
681.18	4.24
681.504	3.99
681.828	4.28
682.152	4.64
682.475	3.69
682.799	4.25
683.122	3.88
683.446	3.99
683.769	3.88
684.093	4.57
684.416	4.18
684.739	3.94
685.062	3.98
685.386	4.22
685.709	4.58
686.032	3.74
686.355	3.74
686.678	3.69
687.001	4.45
687.324	4.57
687.646	4.41
687.969	3.78
688.292	3.76
688.614	4.28
688.937	4
689.26	4.04
689.582	4
689.904	4.51
690.227	4
690.549	4.19
690.871	4.55
691.194	3.89
691.516	4.27
691.838	4.2
692.16	4.03
692.482	5.44
692.804	3.62
693.126	5.3
