Data from 97283_crown_Reflection__1__42.txt Node

Date: Fri Sep 23 20:01:15 CDT 2022
User: ToomeyLab
Spectrometer: FLMS14357
Trigger mode: 0
Integration Time (sec): 1.000000E-2
Scans to average: 100
Electric dark correction enabled: true
Nonlinearity correction enabled: false
Boxcar width: 0
XAxis mode: Wavelengths
Number of Pixels in Spectrum: 2048
>>>>>Begin Spectral Data<<<<<
189.047	103.96
189.435	103.96
189.823	103.96
190.211	82.36
190.599	422.14
190.987	-23.54
191.375	-145.36
191.763	126.85
192.151	34.1
192.538	137.56
192.926	53.8
193.314	-4.92
193.702	172.24
194.089	30.08
194.477	57.56
194.864	165.33
195.252	69.33
195.639	265.37
196.027	-198.97
196.414	258.33
196.801	-12.79
197.189	101.52
197.576	89.44
197.963	-10.81
198.351	27.1
198.738	-1.76
199.125	31.04
199.512	37.74
199.899	-8.53
200.286	-26.21
200.673	24.95
201.06	12.41
201.447	50.26
201.833	4.11
202.22	25.97
202.607	5.02
202.994	-26.49
203.38	19.05
203.767	-43.71
204.154	4.91
204.54	2.48
204.927	15.58
205.313	11.42
205.699	-11.15
206.086	-12.58
206.472	32.47
206.858	26.42
207.245	37.84
207.631	-11.76
208.017	-4.22
208.403	32.86
208.789	47.78
209.175	19.73
209.561	21.66
209.947	20.77
210.333	9.91
210.719	17.72
211.105	-5.34
211.491	5.51
211.876	-4.01
212.262	-4.32
212.648	-43.54
213.034	-15.58
213.419	1.25
213.805	50.66
214.19	-6.06
214.576	-23.5
214.961	18.99
215.346	-13.74
215.732	12.7
216.117	-19.21
216.502	1.39
216.888	28.09
217.273	16.38
217.658	-14.18
218.043	6.57
218.428	11.65
218.813	14.78
219.198	-19.45
219.583	7.68
219.968	26.55
220.353	8.45
220.738	5.57
221.122	10.96
221.507	2.67
221.892	-10.17
222.276	-19.48
222.661	12.61
223.046	12.24
223.43	-1.08
223.815	9.44
224.199	-2
224.583	3.85
224.968	-3.51
225.352	3.75
225.736	15.77
226.121	11.79
226.505	8.34
226.889	10.5
227.273	8.79
227.657	1.71
228.041	6.87
228.425	9.53
228.809	7.02
229.193	7.92
229.577	6.3
229.961	6.49
230.344	5.77
230.728	5.75
231.112	5.34
231.495	5.62
231.879	3.26
232.263	7.88
232.646	7.14
233.03	5.91
233.413	5.57
233.797	6.73
234.18	7.67
234.563	5.82
234.946	7.01
235.33	4.69
235.713	7.06
236.096	5.53
236.479	4.89
236.862	4.52
237.245	6.71
237.628	7.7
238.011	7.28
238.394	5.93
238.777	5.16
239.16	7.06
239.543	7.03
239.925	7.39
240.308	6.22
240.691	6.2
241.073	4.39
241.456	5.2
241.838	7.09
242.221	6.11
242.603	6.25
242.986	5.23
243.368	5.57
243.75	5.93
244.133	5.39
244.515	5.23
244.897	5.65
245.279	6.27
245.661	6.28
246.043	6.66
246.425	5.96
246.807	4.43
247.189	5.37
247.571	6.11
247.953	5.49
248.335	5.79
248.717	5.85
249.098	5.76
249.48	5.71
249.862	5.93
250.243	5.95
250.625	5.98
251.006	5.68
251.388	6.01
251.769	6.53
252.151	4.51
252.532	6.92
252.913	6
253.295	5.65
253.676	5.89
254.057	5.49
254.438	5.69
254.819	5.76
255.2	6.01
255.581	5.95
255.962	4.8
256.343	6.09
256.724	4.65
257.105	5.4
257.486	4.46
257.867	5.48
258.247	6.61
258.628	5.56
259.009	5.11
259.389	5.63
259.77	4.38
260.15	4.78
260.531	4.95
260.911	5.62
261.292	5.26
261.672	5.31
262.052	5.13
262.432	5.16
262.813	5.62
263.193	4.72
263.573	5.52
263.953	4.53
264.333	4.52
264.713	5.26
265.093	5.58
265.473	5.09
265.853	5
266.233	4.87
266.612	5.64
266.992	5.81
267.372	5
267.752	5.15
268.131	5.37
268.511	4.63
268.89	5.18
269.27	5.12
269.649	4.84
270.029	4.91
270.408	5.49
270.787	4.98
271.167	4.91
271.546	5.2
271.925	4.68
272.304	5.22
272.683	5.58
273.062	4.81
273.441	5.05
273.82	5.05
274.199	4.94
274.578	4.74
274.957	5.26
275.336	5.45
275.715	4.97
276.093	6.31
276.472	5.72
276.851	5.45
277.229	4.66
277.608	4.85
277.986	4.73
278.365	4.71
278.743	5.67
279.122	4.46
279.5	4.84
279.878	4.17
280.257	4.42
280.635	4.25
281.013	4.92
281.391	5.03
281.769	5.07
282.147	4.98
282.525	4.81
282.903	4.53
283.281	4.87
283.659	5.36
284.037	5
284.415	5.15
284.792	5.03
285.17	4.99
285.548	4.31
285.925	5.32
286.303	5.41
286.68	4.65
287.058	4.44
287.435	4.9
287.813	4.95
288.19	4.86
288.567	5.16
288.945	5.12
289.322	4.98
289.699	5.14
290.076	5.03
290.453	4.91
290.83	4.41
291.207	4.92
291.584	4.94
291.961	4.63
292.338	5.01
292.715	4.58
293.092	4.48
293.469	5.34
293.845	5.15
294.222	5.37
294.599	4.22
294.975	4.97
295.352	4.87
295.728	4.46
296.105	4.28
296.481	5.25
296.858	4.96
297.234	4.92
297.61	4.58
297.986	4.68
298.363	4.83
298.739	5.11
299.115	4.49
299.491	5
299.867	4.83
300.243	4.9
300.619	5.07
300.995	5.08
301.371	4.64
301.746	4.99
302.122	4.92
302.498	4.85
302.874	4.74
303.249	4.82
303.625	4.74
304	4.62
304.376	4.75
304.751	5.04
305.127	4.67
305.502	5.07
305.878	5.04
306.253	5.19
306.628	4.7
307.003	4.18
307.378	5.36
307.754	5.16
308.129	4.51
308.504	5.19
308.879	5.3
309.254	5.5
309.629	4.65
310.003	4.89
310.378	4.71
310.753	5.01
311.128	4.7
311.502	4.52
311.877	4.9
312.252	4.57
312.626	4.98
313.001	4.85
313.375	4.7
313.75	4.65
314.124	4.18
314.498	5.28
314.873	5.32
315.247	5.18
315.621	5
315.995	5.49
316.369	4.93
316.743	4.47
317.117	4.4
317.491	4.34
317.865	5
318.239	5.5
318.613	5.09
318.987	4.59
319.361	4.56
319.734	4.61
320.108	4.68
320.482	5.22
320.855	4.81
321.229	5.27
321.602	5.08
321.976	5.06
322.349	4.48
322.723	5
323.096	4.88
323.469	4.89
323.843	4.28
324.216	5.54
324.589	5.42
324.962	5.16
325.335	4.71
325.708	4.84
326.081	5.29
326.454	4.8
326.827	4.82
327.2	4.68
327.573	5.2
327.945	4.95
328.318	4.85
328.691	5.5
329.063	4.95
329.436	4.87
329.809	5.76
330.181	4.91
330.553	4.04
330.926	4.99
331.298	4.95
331.671	5.14
332.043	5.47
332.415	5.28
332.787	4.98
333.159	4.91
333.532	4.85
333.904	4.96
334.276	4.39
334.648	4.81
335.02	4.6
335.391	4.57
335.763	4.61
336.135	4.97
336.507	5.02
336.879	4.79
337.25	4.67
337.622	5.47
337.993	5.11
338.365	4.82
338.736	5.13
339.108	5.06
339.479	4.61
339.851	5.62
340.222	5.83
340.593	4.53
340.964	4.76
341.336	4.84
341.707	5.81
342.078	4.65
342.449	4.57
342.82	4.78
343.191	4.87
343.562	4.99
343.933	5.46
344.303	4.86
344.674	5.27
345.045	4.87
345.416	4.79
345.786	5.18
346.157	4.45
346.527	4.9
346.898	5
347.268	4.92
347.639	4.83
348.009	5.01
348.38	4.93
348.75	5.11
349.12	5.25
349.49	4.93
349.861	5.28
350.231	4.69
350.601	4.67
350.971	4.66
351.341	4.9
351.711	5.41
352.081	5.15
352.45	4.6
352.82	4.76
353.19	5.4
353.56	5.66
353.929	4.72
354.299	5.33
354.669	5.22
355.038	5.44
355.408	4.88
355.777	4.9
356.147	4.89
356.516	5.42
356.885	4.86
357.254	4.43
357.624	5.13
357.993	5.51
358.362	5.29
358.731	5.06
359.1	5.24
359.469	4.96
359.838	5.07
360.207	5.04
360.576	5.05
360.945	5.33
361.314	4.91
361.682	5.16
362.051	5.15
362.42	5.05
362.788	5.03
363.157	5.14
363.525	5.52
363.894	5.05
364.262	4.88
364.631	4.93
364.999	5.32
365.367	5.13
365.735	5.17
366.104	5.1
366.472	5.28
366.84	5.22
367.208	5.29
367.576	5.31
367.944	4.99
368.312	5.35
368.68	5.29
369.048	4.99
369.416	5.39
369.783	5.17
370.151	5.53
370.519	4.94
370.886	5.39
371.254	5.44
371.621	5.24
371.989	5.17
372.356	5.65
372.724	5.11
373.091	5.12
373.458	5.21
373.826	5.16
374.193	5.39
374.56	5.08
374.927	5.52
375.294	5.43
375.661	5.22
376.028	5.16
376.395	5.3
376.762	4.87
377.129	5.44
377.496	5.51
377.863	5.35
378.229	5.13
378.596	5.32
378.963	5.1
379.329	5.41
379.696	5.27
380.062	5.25
380.429	5.4
380.795	5.12
381.161	5.54
381.528	5.26
381.894	5.33
382.26	5.5
382.626	5.07
382.993	5.29
383.359	5.5
383.725	5.7
384.091	5.44
384.457	5.74
384.823	5.3
385.188	5.43
385.554	5.74
385.92	5.52
386.286	5.65
386.651	5.47
387.017	5.4
387.383	5.45
387.748	5.72
388.114	5.59
388.479	5.43
388.845	5.44
389.21	5.65
389.575	5.54
389.94	5.22
390.306	5.01
390.671	5.41
391.036	5.35
391.401	5.8
391.766	5.76
392.131	5.42
392.496	5.47
392.861	5.41
393.226	5.31
393.591	5.29
393.956	5.54
394.32	5.67
394.685	5.48
395.05	5.58
395.414	5.6
395.779	5.53
396.143	5.41
396.508	5.53
396.872	5.24
397.236	5.64
397.601	5.38
397.965	5.69
398.329	5.73
398.694	5.51
399.058	5.77
399.422	5.45
399.786	5.64
400.15	5.68
400.514	5.44
400.878	5.56
401.242	5.51
401.605	5.83
401.969	5.68
402.333	5.43
402.697	5.19
403.06	5.85
403.424	5.33
403.787	5.66
404.151	5.43
404.514	5.38
404.878	5.44
405.241	5.5
405.604	5.4
405.968	5.56
406.331	5.53
406.694	5.64
407.057	5.51
407.42	5.57
407.783	5.36
408.146	5.52
408.509	5.6
408.872	5.65
409.235	5.61
409.598	5.71
409.961	5.63
410.323	5.74
410.686	5.53
411.049	5.46
411.411	5.4
411.774	5.4
412.136	5.42
412.499	5.62
412.861	5.29
413.223	5.42
413.586	5.57
413.948	5.53
414.31	5.28
414.672	5.61
415.035	5.46
415.397	5.55
415.759	5.72
416.121	5.67
416.483	5.43
416.845	5.25
417.206	5.41
417.568	5.44
417.93	5.58
418.292	5.61
418.653	5.48
419.015	5.43
419.377	5.33
419.738	5.49
420.1	5.45
420.461	5.57
420.822	5.41
421.184	5.55
421.545	5.4
421.906	5.44
422.267	5.39
422.629	5.4
422.99	5.43
423.351	5.44
423.712	5.38
424.073	5.43
424.434	5.55
424.795	5.54
425.155	5.48
425.516	5.55
425.877	5.4
426.238	5.42
426.598	5.38
426.959	5.44
427.32	5.59
427.68	5.56
428.041	5.61
428.401	5.48
428.761	5.65
429.122	5.57
429.482	5.69
429.842	5.78
430.202	5.72
430.563	5.71
430.923	5.77
431.283	5.72
431.643	5.62
432.003	5.51
432.363	5.7
432.722	5.64
433.082	5.62
433.442	5.54
433.802	5.72
434.161	5.7
434.521	5.64
434.881	5.58
435.24	5.49
435.6	5.6
435.959	5.61
436.319	5.71
436.678	5.65
437.037	5.82
437.396	5.71
437.756	5.53
438.115	5.56
438.474	5.71
438.833	5.75
439.192	5.81
439.551	5.78
439.91	5.7
440.269	5.7
440.628	5.68
440.987	5.6
441.345	5.59
441.704	5.69
442.063	5.82
442.421	5.56
442.78	5.58
443.138	5.65
443.497	5.82
443.855	5.7
444.214	5.72
444.572	5.58
444.93	5.63
445.288	5.74
445.647	5.81
446.005	5.76
446.363	5.77
446.721	5.61
447.079	5.66
447.437	5.73
447.795	5.65
448.153	5.47
448.51	5.62
448.868	5.63
449.226	5.7
449.584	5.69
449.941	5.74
450.299	5.8
450.656	5.72
451.014	5.77
451.371	5.73
451.729	5.74
452.086	5.86
452.443	5.8
452.801	5.75
453.158	5.82
453.515	5.9
453.872	5.92
454.229	5.79
454.586	5.71
454.943	5.77
455.3	5.66
455.657	5.86
456.014	5.9
456.371	5.69
456.727	5.76
457.084	5.87
457.441	5.94
457.797	5.54
458.154	5.81
458.51	5.73
458.867	5.9
459.223	5.91
459.58	5.78
459.936	5.89
460.292	5.68
460.648	5.79
461.005	5.69
461.361	5.67
461.717	5.75
462.073	5.67
462.429	5.7
462.785	5.83
463.141	5.7
463.496	5.79
463.852	5.98
464.208	5.87
464.564	5.95
464.919	5.88
465.275	5.96
465.631	5.8
465.986	5.53
466.342	5.71
466.697	5.9
467.052	5.83
467.408	6.01
467.763	5.83
468.118	5.75
468.473	5.85
468.829	5.93
469.184	5.88
469.539	5.93
469.894	5.75
470.249	5.81
470.603	5.88
470.958	5.66
471.313	5.92
471.668	5.8
472.023	5.88
472.377	5.87
472.732	5.83
473.086	5.85
473.441	6.03
473.795	6.03
474.15	5.92
474.504	6.03
474.859	5.92
475.213	5.89
475.567	5.69
475.921	6.03
476.275	5.85
476.63	5.78
476.984	6
477.338	6.03
477.692	5.88
478.045	5.8
478.399	5.96
478.753	5.81
479.107	5.78
479.461	5.9
479.814	5.74
480.168	5.75
480.521	5.82
480.875	5.83
481.228	6.04
481.582	5.96
481.935	5.98
482.289	5.82
482.642	5.8
482.995	6.03
483.348	5.75
483.701	5.86
484.055	5.79
484.408	5.75
484.761	5.76
485.114	5.42
485.466	5.41
485.819	5.49
486.172	5.5
486.525	5.63
486.878	5.63
487.23	5.74
487.583	5.74
487.936	5.79
488.288	5.71
488.641	5.7
488.993	5.59
489.345	5.61
489.698	5.54
490.05	5.67
490.402	5.63
490.754	5.65
491.107	5.69
491.459	5.68
491.811	5.72
492.163	5.88
492.515	5.83
492.866	5.71
493.218	5.58
493.57	5.58
493.922	5.63
494.274	5.73
494.625	5.67
494.977	5.81
495.328	5.98
495.68	5.97
496.031	5.9
496.383	5.93
496.734	5.77
497.086	5.95
497.437	6.03
497.788	6.04
498.139	5.89
498.49	5.89
498.842	5.76
499.193	5.9
499.544	5.91
499.894	5.89
500.245	6.01
500.596	5.89
500.947	5.81
501.298	6.03
501.648	6.1
501.999	6.06
502.35	5.96
502.7	5.97
503.051	5.82
503.401	5.99
503.752	5.84
504.102	5.96
504.452	5.93
504.803	5.99
505.153	6.07
505.503	5.96
505.853	6.08
506.203	5.91
506.553	5.94
506.903	5.88
507.253	6
507.603	5.99
507.953	5.93
508.303	5.98
508.652	5.85
509.002	6.04
509.352	6.09
509.701	5.91
510.051	5.87
510.4	5.96
510.75	5.76
511.099	5.83
511.449	5.9
511.798	5.92
512.147	5.98
512.496	5.98
512.846	5.89
513.195	5.86
513.544	6.06
513.893	5.9
514.242	5.88
514.591	5.92
514.939	6.03
515.288	5.96
515.637	5.97
515.986	6.07
516.334	5.9
516.683	6.01
517.032	5.95
517.38	6.01
517.729	5.91
518.077	5.86
518.426	6.03
518.774	6.03
519.122	5.94
519.47	5.92
519.819	5.94
520.167	5.78
520.515	5.83
520.863	5.84
521.211	5.88
521.559	5.82
521.907	5.89
522.255	5.9
522.602	6.03
522.95	5.92
523.298	5.9
523.645	5.86
523.993	5.9
524.341	6.03
524.688	6.01
525.036	5.93
525.383	5.93
525.73	6.02
526.078	5.97
526.425	5.87
526.772	5.81
527.119	5.76
527.466	5.8
527.814	5.74
528.161	5.76
528.508	5.88
528.854	5.92
529.201	5.83
529.548	5.76
529.895	5.65
530.242	5.54
530.588	5.57
530.935	5.66
531.282	5.71
531.628	5.72
531.975	5.76
532.321	5.77
532.667	5.85
533.014	5.79
533.36	5.95
533.706	5.82
534.052	5.83
534.399	5.79
534.745	5.67
535.091	5.64
535.437	5.72
535.783	5.77
536.129	5.75
536.474	5.87
536.82	5.87
537.166	5.89
537.512	5.86
537.857	5.95
538.203	5.84
538.549	5.71
538.894	5.87
539.239	5.75
539.585	6.07
539.93	5.95
540.276	5.99
540.621	5.87
540.966	5.86
541.311	6.02
541.656	5.9
542.001	5.98
542.346	5.86
542.691	5.75
543.036	5.68
543.381	5.73
543.726	5.71
544.071	5.75
544.415	5.86
544.76	5.79
545.105	5.81
545.449	5.94
545.794	5.97
546.138	5.97
546.483	5.91
546.827	6.01
547.171	5.94
547.516	5.92
547.86	5.85
548.204	5.93
548.548	5.73
548.892	5.8
549.236	5.91
549.58	5.93
549.924	6.12
550.268	6.11
550.612	6.07
550.956	6.1
551.3	6.12
551.643	5.99
551.987	6.08
552.33	5.98
552.674	6.05
553.017	6.08
553.361	5.93
553.704	5.94
554.048	5.96
554.391	5.94
554.734	5.95
555.077	5.8
555.42	5.94
555.764	5.89
556.107	5.95
556.45	6.09
556.793	5.87
557.135	6.22
557.478	6.07
557.821	6.01
558.164	5.97
558.507	6.02
558.849	6.14
559.192	6.1
559.534	6.16
559.877	6.15
560.219	5.85
560.562	6.18
560.904	5.98
561.246	5.89
561.589	5.98
561.931	6.14
562.273	6.37
562.615	6.06
562.957	6.06
563.299	5.96
563.641	6.26
563.983	5.92
564.325	5.88
564.667	6.2
565.008	6.24
565.35	6.18
565.692	6.03
566.033	5.89
566.375	6.23
566.716	6.11
567.058	5.94
567.399	5.83
567.741	5.94
568.082	5.92
568.423	5.85
568.764	6.11
569.105	6.04
569.447	5.97
569.788	6.06
570.129	6.09
570.47	5.97
570.811	6.07
571.151	6.36
571.492	5.84
571.833	6.13
572.174	6.02
572.514	6.14
572.855	5.89
573.195	6.01
573.536	6.15
573.876	5.89
574.217	6.02
574.557	6
574.898	6
575.238	6.15
575.578	6.04
575.918	6.02
576.258	6
576.598	6.01
576.938	6.07
577.278	6.05
577.618	5.92
577.958	6.06
578.298	5.94
578.638	6.02
578.977	6.09
579.317	6.11
579.657	6.15
579.996	5.97
580.336	6.24
580.675	6.21
581.014	6.14
581.354	6.22
581.693	6.16
582.032	6.26
582.372	6.34
582.711	6.1
583.05	6.19
583.389	5.98
583.728	6.16
584.067	6.06
584.406	6.15
584.745	6.26
585.083	5.93
585.422	6.06
585.761	6.15
586.1	6.09
586.438	6.16
586.777	5.96
587.115	6.11
587.454	6.3
587.792	6.48
588.13	6.23
588.469	6.1
588.807	5.96
589.145	6.23
589.483	6.22
589.821	6.17
590.159	6.21
590.497	6.22
590.835	5.93
591.173	6.19
591.511	6
591.849	5.8
592.187	6.08
592.524	6.27
592.862	6.4
593.2	6.31
593.537	6.28
593.875	6.13
594.212	6.16
594.55	5.99
594.887	6.19
595.224	6
595.561	6.06
595.899	5.99
596.236	5.68
596.573	6.13
596.91	6.05
597.247	5.99
597.584	6.18
597.921	6.09
598.258	5.93
598.594	6.01
598.931	6.12
599.268	5.98
599.604	5.95
599.941	6.25
600.277	6.23
600.614	5.99
600.95	6.07
601.287	6.2
601.623	6.07
601.959	6.08
602.296	6.16
602.632	6.15
602.968	5.93
603.304	6.08
603.64	6.04
603.976	6.2
604.312	6.08
604.648	6.23
604.984	5.89
605.319	6.16
605.655	6.26
605.991	6.06
606.326	6
606.662	6.09
606.998	6.18
607.333	6
607.668	6.25
608.004	6.16
608.339	6.1
608.674	6.05
609.01	6.48
609.345	6.13
609.68	6.21
610.015	6.24
610.35	6.22
610.685	5.89
611.02	6.17
611.355	6.12
611.689	5.92
612.024	6.12
612.359	5.97
612.694	6.16
613.028	6.15
613.363	6.27
613.697	6.18
614.032	5.88
614.366	6.16
614.7	6.24
615.035	6.24
615.369	5.96
615.703	6.09
616.037	5.95
616.371	5.99
616.705	6.01
617.039	6.3
617.373	6.17
617.707	6.57
618.041	6.18
618.375	6.12
618.709	6
619.042	5.75
619.376	6.56
619.71	5.99
620.043	6.11
620.377	5.95
620.71	6.2
621.043	6.49
621.377	5.66
621.71	6.35
622.043	6.19
622.376	6.08
622.709	6.24
623.043	6.02
623.376	6.44
623.709	6.27
624.041	6
624.374	6
624.707	6.35
625.04	6.3
625.373	6.2
625.705	6.21
626.038	6.03
626.37	6.14
626.703	6.17
627.035	6.68
627.368	6.2
627.7	6.36
628.032	5.85
628.365	5.95
628.697	5.84
629.029	6.27
629.361	6.23
629.693	6.17
630.025	6.29
630.357	6.37
630.689	6.37
631.021	6.29
631.353	6.43
631.684	6.12
632.016	6.36
632.348	6.1
632.679	6.23
633.011	6.22
633.342	6.23
633.674	6.49
634.005	6.12
634.336	6.51
634.668	6.46
634.999	6.49
635.33	6.46
635.661	6.65
635.992	5.92
636.323	6.4
636.654	6.37
636.985	6.28
637.316	6.36
637.647	6.31
637.977	6.17
638.308	6.4
638.639	6.23
638.969	6.24
639.3	6.38
639.63	6.04
639.961	6.61
640.291	6.3
640.622	6.03
640.952	6.1
641.282	6.45
641.612	6.05
641.943	6.47
642.273	6.38
642.603	6.46
642.933	6.39
643.263	6
643.592	6.18
643.922	6.25
644.252	6.39
644.582	6.37
644.911	5.9
645.241	6.51
645.571	6.36
645.9	6.45
646.23	6.66
646.559	6.1
646.888	6.06
647.218	6.53
647.547	6.45
647.876	6.03
648.205	6.1
648.534	6.4
648.863	6.37
649.192	6.57
649.521	5.49
649.85	6.16
650.179	6.3
650.508	6.29
650.837	6.19
651.165	6.48
651.494	6.45
651.822	6.46
652.151	6.23
652.479	6.4
652.808	6.23
653.136	6.43
653.465	6.79
653.793	6.62
654.121	5.82
654.449	6.18
654.777	6.45
655.105	6.51
655.433	6.63
655.761	6.27
656.089	6.98
656.417	6.47
656.745	6.34
657.073	5.63
657.4	6.1
657.728	6.47
658.056	6.19
658.383	6.44
658.711	6.17
659.038	6.42
659.365	6.16
659.693	6.59
660.02	6.55
660.347	6.43
660.674	6.05
661.001	6.77
661.329	6.39
661.656	6.6
661.982	6.46
662.309	6.58
662.636	6.11
662.963	6.42
663.29	6.93
663.616	6.32
663.943	6.3
664.27	6.2
664.596	6.44
664.923	6.29
665.249	6.68
665.576	6.97
665.902	6.09
666.228	6.99
666.554	6.06
666.881	6.34
667.207	5.98
667.533	6.85
667.859	6.37
668.185	6.36
668.511	5.87
668.837	6.45
669.162	6.33
669.488	6.1
669.814	6.8
670.139	6.62
670.465	6.47
670.791	6.5
671.116	6.04
671.442	6.82
671.767	6.53
672.092	6.17
672.418	7.05
672.743	6.74
673.068	5.84
673.393	6.42
673.718	6.52
674.043	6.76
674.368	6.74
674.693	6.6
675.018	6.54
675.343	7.01
675.667	6.1
675.992	6.74
676.317	6.7
676.641	7.14
676.966	6.81
677.29	6.8
677.615	6.82
677.939	7.02
678.264	6.38
678.588	6.26
678.912	6.69
679.236	6.76
679.56	6.48
679.885	6.75
680.209	6.49
680.532	6.26
680.856	7
681.18	6.48
681.504	6.57
681.828	6.35
682.152	7.03
682.475	6.46
682.799	6.8
683.122	6.3
683.446	6.58
683.769	6.26
684.093	6.66
684.416	7.02
684.739	6.66
685.062	6.02
685.386	7.05
685.709	6.42
686.032	6.98
686.355	6.65
686.678	7.07
687.001	6.45
687.324	7
687.646	6.87
687.969	6.92
688.292	6.12
688.614	7.14
688.937	6.58
689.26	6.31
689.582	6.63
689.904	6.68
690.227	6.61
690.549	6.14
690.871	7.03
691.194	5.89
691.516	7.03
691.838	6.77
692.16	6.9
692.482	6.95
692.804	6.6
693.126	7.37
693.448	6.71
693.769	6.96
