Data from 97283_chest_Reflection__3__34.txt Node

Date: Fri Sep 23 19:58:25 CDT 2022
User: ToomeyLab
Spectrometer: FLMS14357
Trigger mode: 0
Integration Time (sec): 1.000000E-2
Scans to average: 100
Electric dark correction enabled: true
Nonlinearity correction enabled: false
Boxcar width: 0
XAxis mode: Wavelengths
Number of Pixels in Spectrum: 2048
>>>>>Begin Spectral Data<<<<<
189.047	-17.94
189.435	-17.94
189.823	-17.94
190.211	63.34
190.599	1291.6
190.987	123.48
191.375	1675.6
191.763	127.76
192.151	-111.7
192.538	314
192.926	137.67
193.314	126.27
193.702	43.28
194.089	15.02
194.477	56.15
194.864	-229.08
195.252	6.76
195.639	344.59
196.027	133.52
196.414	225.63
196.801	28.8
197.189	76.32
197.576	-406.23
197.963	3.76
198.351	33.3
198.738	11.98
199.125	1.73
199.512	-29.65
199.899	27.78
200.286	25.3
200.673	28.85
201.06	-17.18
201.447	32.92
201.833	20.47
202.22	26.95
202.607	1.22
202.994	15.43
203.38	20.37
203.767	-41.99
204.154	19.87
204.54	45.01
204.927	23.99
205.313	39.22
205.699	12.13
206.086	18
206.472	22.63
206.858	31.41
207.245	-19.2
207.631	31.19
208.017	2.92
208.403	15.14
208.789	30.67
209.175	50.51
209.561	19.92
209.947	12.96
210.333	12.38
210.719	8.16
211.105	-6.35
211.491	1.2
211.876	20.51
212.262	1.37
212.648	-14.37
213.034	-33.73
213.419	11.48
213.805	34.54
214.19	17.4
214.576	25.87
214.961	36.85
215.346	14.57
215.732	38.34
216.117	16.28
216.502	11.66
216.888	40.97
217.273	20.84
217.658	14.92
218.043	27.62
218.428	-5.63
218.813	22.72
219.198	18.33
219.583	10.31
219.968	24.61
220.353	-0.49
220.738	-12.23
221.122	5.09
221.507	4.54
221.892	11.71
222.276	0.48
222.661	-2.74
223.046	3.79
223.43	6.25
223.815	12.59
224.199	7.78
224.583	3.51
224.968	-7.78
225.352	2.57
225.736	9.41
226.121	6.45
226.505	5.93
226.889	6.59
227.273	13.14
227.657	5.09
228.041	9.12
228.425	9.17
228.809	1.91
229.193	4.4
229.577	5.1
229.961	3.61
230.344	5.08
230.728	3.7
231.112	3.41
231.495	3.68
231.879	1.59
232.263	4.86
232.646	4.9
233.03	4.37
233.413	3.79
233.797	4.74
234.18	6.31
234.563	0.47
234.946	3.79
235.33	2.16
235.713	6.23
236.096	2.38
236.479	3.1
236.862	5.11
237.245	6.1
237.628	5.03
238.011	6.05
238.394	3.68
238.777	3.81
239.16	3.89
239.543	3.8
239.925	4.94
240.308	6.04
240.691	4.85
241.073	3.28
241.456	3
241.838	5.14
242.221	3.84
242.603	5.47
242.986	3.23
243.368	3.24
243.75	4.02
244.133	3.84
244.515	3.94
244.897	3.98
245.279	4.67
245.661	5.02
246.043	4.32
246.425	3.56
246.807	3.69
247.189	4.58
247.571	4.4
247.953	3.79
248.335	4
248.717	4.03
249.098	3.9
249.48	3.9
249.862	3.97
250.243	4.48
250.625	4.13
251.006	3.99
251.388	3.62
251.769	4.06
252.151	1.95
252.532	4.41
252.913	3.4
253.295	4.13
253.676	4.04
254.057	4.05
254.438	4.05
254.819	4.48
255.2	4.3
255.581	5.26
255.962	2.98
256.343	4.69
256.724	3.18
257.105	4.12
257.486	3.77
257.867	4.1
258.247	5.75
258.628	4.13
259.009	3.68
259.389	3.91
259.77	2.99
260.15	3.67
260.531	4.06
260.911	4.17
261.292	3.92
261.672	3.62
262.052	3.52
262.432	3.66
262.813	3.88
263.193	4.18
263.573	4.09
263.953	3.5
264.333	4.06
264.713	4.53
265.093	4.69
265.473	4.29
265.853	3.37
266.233	3.52
266.612	3.81
266.992	4.51
267.372	3.92
267.752	3.7
268.131	4.4
268.511	3.6
268.89	3.62
269.27	3.34
269.649	3.87
270.029	3.79
270.408	4.56
270.787	3.09
271.167	3.64
271.546	3.56
271.925	3.9
272.304	3.71
272.683	3.53
273.062	3.82
273.441	3.89
273.82	3.68
274.199	3.67
274.578	3.24
274.957	3.65
275.336	3.66
275.715	3.05
276.093	3.8
276.472	3.89
276.851	3.72
277.229	3.92
277.608	3.89
277.986	3.32
278.365	3.35
278.743	4.31
279.122	2.75
279.5	4.04
279.878	3.59
280.257	3.68
280.635	3.46
281.013	3.42
281.391	3.8
281.769	4.14
282.147	3.82
282.525	3.18
282.903	4.18
283.281	3.75
283.659	3.75
284.037	3.18
284.415	3.69
284.792	3.77
285.17	3.71
285.548	3.76
285.925	3.86
286.303	4.08
286.68	3.56
287.058	3.66
287.435	3.55
287.813	4.05
288.19	3.41
288.567	3.79
288.945	4.04
289.322	3.58
289.699	4.05
290.076	3.58
290.453	3.87
290.83	3.9
291.207	3.53
291.584	3.81
291.961	3.91
292.338	3.79
292.715	3.51
293.092	3.56
293.469	4.08
293.845	4.48
294.222	3.82
294.599	4.08
294.975	4.26
295.352	4.11
295.728	3.91
296.105	3.99
296.481	3.63
296.858	4.09
297.234	4.26
297.61	3.86
297.986	4.23
298.363	3.92
298.739	4.25
299.115	4.01
299.491	4.22
299.867	3.79
300.243	4.05
300.619	4.36
300.995	4.54
301.371	3.84
301.746	4.71
302.122	4.24
302.498	4.26
302.874	3.66
303.249	4.29
303.625	3.89
304	4.14
304.376	4.41
304.751	3.75
305.127	4.13
305.502	4.62
305.878	4.67
306.253	4.47
306.628	4.43
307.003	3.79
307.378	4.56
307.754	4.59
308.129	4.31
308.504	4.44
308.879	4.88
309.254	4.68
309.629	4.48
310.003	4.45
310.378	4.53
310.753	4.61
311.128	3.99
311.502	4.13
311.877	4.39
312.252	4.27
312.626	4.67
313.001	4.27
313.375	4.44
313.75	4.34
314.124	4.4
314.498	4.36
314.873	4.62
315.247	4.44
315.621	5
315.995	5.13
316.369	4.65
316.743	4.41
317.117	4.6
317.491	4.34
317.865	4.9
318.239	5.69
318.613	4.64
318.987	3.92
319.361	4.58
319.734	4.74
320.108	4.55
320.482	5.27
320.855	4.63
321.229	5.51
321.602	4.68
321.976	5.09
322.349	4.77
322.723	5.29
323.096	5.1
323.469	5.04
323.843	4.49
324.216	4.81
324.589	5.07
324.962	4.85
325.335	4.78
325.708	5.19
326.081	4.81
326.454	5.2
326.827	4.98
327.2	4.66
327.573	5.28
327.945	5.79
328.318	4.57
328.691	5.2
329.063	5.45
329.436	5.31
329.809	5.59
330.181	5.24
330.553	4.4
330.926	4.97
331.298	5.55
331.671	5.01
332.043	5.41
332.415	4.95
332.787	4.41
333.159	5.52
333.532	4.85
333.904	4.6
334.276	4.8
334.648	5.25
335.02	5.2
335.391	5.35
335.763	5.04
336.135	5.28
336.507	5.33
336.879	5.12
337.25	5.58
337.622	5.57
337.993	5.09
338.365	5.6
338.736	5.24
339.108	6.2
339.479	4.76
339.851	5.37
340.222	5.63
340.593	4.95
340.964	5.15
341.336	5.15
341.707	5.81
342.078	4.98
342.449	5.25
342.82	4.66
343.191	5.08
343.562	5.31
343.933	5.68
344.303	5.1
344.674	5.33
345.045	5.41
345.416	5.18
345.786	5.66
346.157	5.02
346.527	5.36
346.898	5.54
347.268	5.56
347.639	5.32
348.009	5.37
348.38	5.58
348.75	5.4
349.12	5.53
349.49	5.5
349.861	5.75
350.231	5.03
350.601	5.32
350.971	5.73
351.341	5.45
351.711	5.43
352.081	5.47
352.45	5.44
352.82	5.18
353.19	5.67
353.56	5.39
353.929	5.67
354.299	5.55
354.669	5.47
355.038	5.64
355.408	5.19
355.777	5.13
356.147	5.42
356.516	5.55
356.885	5.6
357.254	5.14
357.624	4.94
357.993	5.63
358.362	5.58
358.731	5.47
359.1	5.52
359.469	5.34
359.838	5.32
360.207	5.59
360.576	5.62
360.945	5.33
361.314	5.3
361.682	5.22
362.051	5.51
362.42	5.59
362.788	5.69
363.157	5.81
363.525	5.78
363.894	5.57
364.262	5.43
364.631	5.69
364.999	5.58
365.367	5.5
365.735	5.6
366.104	5.63
366.472	5.46
366.84	5.62
367.208	5.66
367.576	5.86
367.944	5.6
368.312	5.79
368.68	5.56
369.048	5.63
369.416	5.91
369.783	5.54
370.151	5.92
370.519	5.51
370.886	6.05
371.254	5.99
371.621	5.87
371.989	5.66
372.356	5.78
372.724	5.7
373.091	5.88
373.458	5.78
373.826	5.71
374.193	6.05
374.56	5.86
374.927	5.64
375.294	6.3
375.661	5.65
376.028	5.59
376.395	5.99
376.762	5.79
377.129	5.58
377.496	6.44
377.863	6.22
378.229	5.91
378.596	5.81
378.963	6
379.329	6.26
379.696	6.17
380.062	5.84
380.429	5.95
380.795	5.73
381.161	6.1
381.528	5.97
381.894	6.16
382.26	5.74
382.626	5.9
382.993	6.14
383.359	6.14
383.725	6.36
384.091	5.63
384.457	6.13
384.823	5.97
385.188	6.22
385.554	6.34
385.92	6.05
386.286	6.02
386.651	6.42
387.017	6.53
387.383	6.05
387.748	6.35
388.114	5.83
388.479	6.01
388.845	6.08
389.21	6.2
389.575	6.03
389.94	5.92
390.306	5.84
390.671	5.87
391.036	6.05
391.401	6.25
391.766	6.27
392.131	6.19
392.496	6.26
392.861	6.32
393.226	6.18
393.591	6.07
393.956	6.19
394.32	6.18
394.685	6.34
395.05	6.27
395.414	6.15
395.779	6.23
396.143	6.02
396.508	6.26
396.872	6.14
397.236	6.23
397.601	6.04
397.965	6.56
398.329	6.64
398.694	6.14
399.058	6.25
399.422	6.64
399.786	6.34
400.15	6.06
400.514	6.33
400.878	6.24
401.242	6.22
401.605	6.52
401.969	6.45
402.333	6.36
402.697	6.04
403.06	6.5
403.424	6.19
403.787	6.37
404.151	6.54
404.514	6.14
404.878	6.27
405.241	6.21
405.604	6.42
405.968	6.09
406.331	6.41
406.694	6.37
407.057	6.3
407.42	6.44
407.783	6.38
408.146	6.48
408.509	6.3
408.872	6.17
409.235	6.57
409.598	6.76
409.961	6.52
410.323	6.31
410.686	6.58
411.049	6.36
411.411	6.65
411.774	6.21
412.136	6.4
412.499	6.32
412.861	6.43
413.223	6.43
413.586	6.5
413.948	6.56
414.31	6.41
414.672	6.57
415.035	6.48
415.397	6.77
415.759	6.58
416.121	6.72
416.483	6.44
416.845	6.2
417.206	6.32
417.568	6.48
417.93	6.39
418.292	6.61
418.653	6.36
419.015	6.57
419.377	6.47
419.738	6.38
420.1	6.48
420.461	6.45
420.822	6.57
421.184	6.46
421.545	6.43
421.906	6.56
422.267	6.35
422.629	6.33
422.99	6.48
423.351	6.44
423.712	6.46
424.073	6.43
424.434	6.48
424.795	6.55
425.155	6.47
425.516	6.56
425.877	6.5
426.238	6.44
426.598	6.51
426.959	6.6
427.32	6.63
427.68	6.7
428.041	6.57
428.401	6.68
428.761	6.73
429.122	6.69
429.482	6.78
429.842	6.98
430.202	6.77
430.563	6.72
430.923	6.93
431.283	6.89
431.643	6.72
432.003	6.82
432.363	7.11
432.722	6.99
433.082	6.71
433.442	6.89
433.802	6.85
434.161	6.83
434.521	6.79
434.881	6.86
435.24	6.8
435.6	6.92
435.959	6.96
436.319	6.84
436.678	6.85
437.037	7.08
437.396	7.08
437.756	7.13
438.115	6.91
438.474	6.92
438.833	7.16
439.192	7.09
439.551	7.05
439.91	7.03
440.269	6.98
440.628	6.98
440.987	6.92
441.345	6.94
441.704	6.92
442.063	6.98
442.421	6.86
442.78	6.85
443.138	6.91
443.497	7.13
443.855	6.88
444.214	7.04
444.572	6.98
444.93	7.06
445.288	7.08
445.647	7.29
446.005	7.24
446.363	7.1
446.721	6.97
447.079	6.93
447.437	7.05
447.795	7.1
448.153	6.92
448.51	7.01
448.868	6.97
449.226	7.16
449.584	7.02
449.941	7.09
450.299	7.22
450.656	7.23
451.014	7.26
451.371	7.11
451.729	7.14
452.086	7.33
452.443	7.39
452.801	7.33
453.158	7.37
453.515	7.23
453.872	7.22
454.229	7.33
454.586	7.21
454.943	7.37
455.3	7.31
455.657	7.33
456.014	7.57
456.371	7.24
456.727	7.26
457.084	7.37
457.441	7.58
457.797	7.24
458.154	7.36
458.51	7.31
458.867	7.66
459.223	7.44
459.58	7.33
459.936	7.4
460.292	7.32
460.648	7.38
461.005	7.36
461.361	7.25
461.717	7.33
462.073	7.38
462.429	7.25
462.785	7.52
463.141	7.54
463.496	7.56
463.852	7.62
464.208	7.49
464.564	7.65
464.919	7.58
465.275	7.74
465.631	7.34
465.986	7.7
466.342	7.75
466.697	7.68
467.052	7.79
467.408	7.64
467.763	7.57
468.118	7.65
468.473	7.69
468.829	7.59
469.184	7.81
469.539	7.68
469.894	7.74
470.249	7.67
470.603	7.7
470.958	7.8
471.313	7.73
471.668	7.95
472.023	7.64
472.377	7.66
472.732	7.69
473.086	7.83
473.441	7.86
473.795	7.96
474.15	7.92
474.504	7.89
474.859	7.8
475.213	8.07
475.567	7.85
475.921	7.98
476.275	7.76
476.63	8.03
476.984	7.96
477.338	7.76
477.692	7.82
478.045	7.76
478.399	7.83
478.753	8.05
479.107	7.85
479.461	7.91
479.814	7.87
480.168	8
480.521	7.9
480.875	7.97
481.228	7.97
481.582	8.08
481.935	7.94
482.289	7.93
482.642	7.89
482.995	8.16
483.348	7.83
483.701	7.94
484.055	7.95
484.408	7.82
484.761	7.75
485.114	7.58
485.466	7.47
485.819	7.4
486.172	7.51
486.525	7.58
486.878	7.69
487.23	7.76
487.583	7.88
487.936	7.98
488.288	7.84
488.641	7.8
488.993	7.78
489.345	7.73
489.698	7.7
490.05	7.77
490.402	7.78
490.754	7.93
491.107	7.93
491.459	7.97
491.811	8.12
492.163	8.15
492.515	8.13
492.866	7.98
493.218	7.81
493.57	7.82
493.922	7.85
494.274	7.99
494.625	8.06
494.977	8.16
495.328	8.29
495.68	8.36
496.031	8.19
496.383	8.36
496.734	8.43
497.086	8.38
497.437	8.57
497.788	8.46
498.139	8.46
498.49	8.18
498.842	8.33
499.193	8.38
499.544	8.27
499.894	8.31
500.245	8.45
500.596	8.41
500.947	8.44
501.298	8.69
501.648	8.6
501.999	8.56
502.35	8.59
502.7	8.71
503.051	8.61
503.401	8.51
503.752	8.55
504.102	8.77
504.452	8.6
504.803	8.58
505.153	8.8
505.503	8.48
505.853	8.74
506.203	8.65
506.553	8.63
506.903	8.8
507.253	8.77
507.603	8.75
507.953	8.73
508.303	8.8
508.652	8.68
509.002	8.69
509.352	8.83
509.701	8.84
510.051	8.7
510.4	8.68
510.75	8.69
511.099	8.73
511.449	8.64
511.798	8.73
512.147	8.89
512.496	8.72
512.846	8.77
513.195	8.63
513.544	8.81
513.893	8.8
514.242	8.76
514.591	8.84
514.939	8.89
515.288	8.79
515.637	8.86
515.986	8.99
516.334	8.96
516.683	8.98
517.032	9.03
517.38	9.09
517.729	9.12
518.077	8.86
518.426	9.05
518.774	9.02
519.122	8.97
519.47	8.93
519.819	8.94
520.167	8.77
520.515	8.87
520.863	8.92
521.211	8.84
521.559	8.96
521.907	8.98
522.255	9.03
522.602	9.13
522.95	9.14
523.298	9.14
523.645	9.09
523.993	9.22
524.341	9.39
524.688	9.08
525.036	9.23
525.383	9.18
525.73	9.3
526.078	9.28
526.425	9.24
526.772	9.09
527.119	9.14
527.466	9.08
527.814	9.08
528.161	9.23
528.508	9.27
528.854	9.15
529.201	9.09
529.548	9.17
529.895	8.97
530.242	8.84
530.588	8.9
530.935	8.96
531.282	8.95
531.628	9.01
531.975	9.12
532.321	9.23
532.667	9.27
533.014	9.26
533.36	9.42
533.706	9.45
534.052	9.4
534.399	9.33
534.745	9.24
535.091	9.22
535.437	9.27
535.783	9.26
536.129	9.38
536.474	9.48
536.82	9.51
537.166	9.6
537.512	9.46
537.857	9.64
538.203	9.65
538.549	9.4
538.894	9.53
539.239	9.64
539.585	9.8
539.93	9.74
540.276	9.91
540.621	9.94
540.966	9.86
541.311	9.89
541.656	9.83
542.001	9.89
542.346	9.74
542.691	9.52
543.036	9.6
543.381	9.55
543.726	9.55
544.071	9.61
544.415	9.71
544.76	9.55
545.105	9.79
545.449	9.84
545.794	10.03
546.138	9.99
546.483	10.1
546.827	10.14
547.171	10.19
547.516	10.07
547.86	10.13
548.204	10.09
548.548	9.98
548.892	10.03
549.236	10.16
549.58	10.13
549.924	10.36
550.268	10.39
550.612	10.39
550.956	10.41
551.3	10.4
551.643	10.25
551.987	10.57
552.33	10.37
552.674	10.48
553.017	10.57
553.361	10.52
553.704	10.59
554.048	10.68
554.391	10.44
554.734	10.6
555.077	10.5
555.42	10.48
555.764	10.6
556.107	10.64
556.45	10.71
556.793	10.65
557.135	10.92
557.478	10.81
557.821	10.78
558.164	10.83
558.507	10.74
558.849	10.98
559.192	10.94
559.534	10.87
559.877	11.1
560.219	10.91
560.562	11.14
560.904	11.11
561.246	10.93
561.589	11.09
561.931	11.06
562.273	11.16
562.615	11.03
562.957	11.08
563.299	10.96
563.641	11.16
563.983	11.2
564.325	11.08
564.667	11.3
565.008	11.26
565.35	11.4
565.692	11.11
566.033	11.28
566.375	11.32
566.716	11.25
567.058	11.37
567.399	11.01
567.741	11.31
568.082	11.19
568.423	11.29
568.764	11.33
569.105	11.32
569.447	11.34
569.788	11.41
570.129	11.47
570.47	11.43
570.811	11.61
571.151	11.6
571.492	11.53
571.833	11.34
572.174	11.58
572.514	11.71
572.855	11.56
573.195	11.61
573.536	11.69
573.876	11.32
574.217	11.43
574.557	11.81
574.898	11.74
575.238	11.75
575.578	11.65
575.918	11.65
576.258	11.84
576.598	11.93
576.938	11.94
577.278	11.83
577.618	11.7
577.958	11.95
578.298	12
578.638	11.99
578.977	12.01
579.317	12.17
579.657	12.21
579.996	12
580.336	12.23
580.675	12.23
581.014	12.35
581.354	12.58
581.693	12.38
582.032	12.33
582.372	12.39
582.711	12.2
583.05	12.47
583.389	12.65
583.728	12.62
584.067	12.7
584.406	12.56
584.745	12.73
585.083	12.5
585.422	12.41
585.761	12.51
586.1	12.59
586.438	12.61
586.777	12.77
587.115	12.62
587.454	12.87
587.792	12.93
588.13	12.86
588.469	12.91
588.807	12.91
589.145	12.87
589.483	12.96
589.821	12.95
590.159	12.84
590.497	12.72
590.835	12.99
591.173	12.92
591.511	12.92
591.849	12.58
592.187	13.03
592.524	13.31
592.862	13.08
593.2	13.02
593.537	13.18
593.875	13.21
594.212	13.18
594.55	12.78
594.887	13.04
595.224	13.17
595.561	13.07
595.899	13.12
596.236	13.11
596.573	13.16
596.91	13.33
597.247	13.52
597.584	13.2
597.921	13.33
598.258	13.25
598.594	13.39
598.931	13.27
599.268	13.27
599.604	13.44
599.941	13.36
600.277	13.49
600.614	13.44
600.95	13.42
601.287	13.6
601.623	13.43
601.959	13.53
602.296	13.49
602.632	13.81
602.968	13.69
603.304	13.46
603.64	13.92
603.976	13.66
604.312	14.08
604.648	13.77
604.984	13.84
605.319	13.88
605.655	13.69
605.991	13.56
606.326	13.86
606.662	13.85
606.998	14.08
607.333	13.72
607.668	13.85
608.004	14.07
608.339	13.95
608.674	14.09
609.01	14.35
609.345	14.26
609.68	14.26
610.015	14.55
610.35	14.34
610.685	14.03
611.02	14.15
611.355	14.39
611.689	14.28
612.024	14.41
612.359	14.4
612.694	14.71
613.028	14.59
613.363	14.47
613.697	14.81
614.032	14.62
614.366	14.78
614.7	14.46
615.035	14.78
615.369	15.25
615.703	14.37
616.037	14.81
616.371	14.64
616.705	14.83
617.039	14.76
617.373	15
617.707	15.09
618.041	15.22
618.375	15.29
618.709	14.54
619.042	15.14
619.376	15.16
619.71	15.32
620.043	15.18
620.377	15.03
620.71	15.01
621.043	15.59
621.377	14.9
621.71	15.48
622.043	15.28
622.376	15.03
622.709	15.4
623.043	15.34
623.376	15.77
623.709	15.37
624.041	15.59
624.374	15.46
624.707	15.78
625.04	16.04
625.373	15.35
625.705	15.57
626.038	15.76
626.37	15.4
626.703	15.49
627.035	16.01
627.368	15.76
627.7	15.26
628.032	15.64
628.365	15.62
628.697	15.61
629.029	15.84
629.361	15.91
629.693	16
630.025	15.98
630.357	16.26
630.689	15.94
631.021	15.75
631.353	16.36
631.684	16.04
632.016	16.14
632.348	15.99
632.679	16.27
633.011	16.49
633.342	16
633.674	16.24
634.005	15.94
634.336	16.87
634.668	16.01
634.999	16.35
635.33	16.41
635.661	16.31
635.992	16.69
636.323	16.6
636.654	16.38
636.985	16.56
637.316	16.53
637.647	16.56
637.977	16.43
638.308	16.68
638.639	16.36
638.969	16.83
639.3	16.62
639.63	16.58
639.961	16.88
640.291	16.94
640.622	17.19
640.952	16.63
641.282	16.95
641.612	16.95
641.943	16.94
642.273	16.9
642.603	16.92
642.933	17.34
643.263	16.66
643.592	17.06
643.922	17.3
644.252	17.54
644.582	17.31
644.911	17.12
645.241	17.05
645.571	17.58
645.9	17.62
646.23	17.63
646.559	17.06
646.888	17.39
647.218	17.48
647.547	17.47
647.876	17.49
648.205	17.28
648.534	17.76
648.863	17.54
649.192	17.69
649.521	17.3
649.85	17.46
650.179	17.26
650.508	17.52
650.837	18.05
651.165	18.01
651.494	18.05
651.822	17.93
652.151	18.01
652.479	17.43
652.808	18.19
653.136	18.12
653.465	17.62
653.793	17.61
654.121	17.51
654.449	17.82
654.777	17.9
655.105	18.09
655.433	17.94
655.761	18.53
656.089	18.47
656.417	18.02
656.745	18.04
657.073	17.86
657.4	18.8
657.728	18.36
658.056	18.73
658.383	18.48
658.711	18.18
659.038	18.31
659.365	18.65
659.693	18.16
660.02	18.55
660.347	18.67
660.674	18.17
661.001	18.74
661.329	18.53
661.656	18.57
661.982	18.49
662.309	18.9
662.636	18.79
662.963	18.98
663.29	18.54
663.616	18.47
663.943	18.79
664.27	19.05
664.596	18.75
664.923	19.54
665.249	19.51
665.576	19.53
665.902	18.92
666.228	19.38
666.554	19.02
666.881	19.03
667.207	19.04
667.533	19.23
667.859	19.08
668.185	18.96
668.511	18.91
668.837	19.43
669.162	18.84
669.488	18.69
669.814	19.55
670.139	19.46
670.465	19.39
670.791	19.34
671.116	19.46
671.442	19.21
671.767	19.43
672.092	19.52
672.418	19.5
672.743	19.5
673.068	19.31
673.393	19.63
673.718	19.57
674.043	19.62
674.368	19.79
674.693	19.63
675.018	19.95
675.343	20.18
675.667	20.3
675.992	20.12
676.317	19.6
676.641	19.43
676.966	20.1
677.29	19.82
677.615	19.89
677.939	20.03
678.264	19.99
678.588	19.78
678.912	20.23
679.236	19.63
679.56	20.27
679.885	20.12
680.209	19.92
680.532	20.07
680.856	21.07
681.18	20.58
681.504	21.14
681.828	20.67
682.152	20.44
682.475	20.15
682.799	20.8
683.122	20.5
683.446	20.8
