Data from 97283_forehead_Reflection__3__39.txt Node

Date: Fri Sep 23 20:00:13 CDT 2022
User: ToomeyLab
Spectrometer: FLMS14357
Trigger mode: 0
Integration Time (sec): 1.000000E-2
Scans to average: 100
Electric dark correction enabled: true
Nonlinearity correction enabled: false
Boxcar width: 0
XAxis mode: Wavelengths
Number of Pixels in Spectrum: 2048
>>>>>Begin Spectral Data<<<<<
189.047	42.17
189.435	42.17
189.823	42.17
190.211	359.09
190.599	3796.18
190.987	27.55
191.375	1252.58
191.763	63.54
192.151	39.44
192.538	165.43
192.926	115.26
193.314	162.55
193.702	88.04
194.089	-10.27
194.477	84.16
194.864	-261.04
195.252	22.52
195.639	163.2
196.027	275.05
196.414	35.98
196.801	169.67
197.189	192.28
197.576	-539.13
197.963	-26.37
198.351	59.35
198.738	-22.18
199.125	21.05
199.512	20.22
199.899	14.03
200.286	-12.51
200.673	20.06
201.06	33.63
201.447	46.32
201.833	29.7
202.22	-43.38
202.607	23.46
202.994	16.93
203.38	45.12
203.767	-1.73
204.154	29.51
204.54	76.15
204.927	22.37
205.313	29.47
205.699	34.11
206.086	-27.84
206.472	40.68
206.858	48.5
207.245	4.57
207.631	42.44
208.017	-5.29
208.403	14.18
208.789	27.3
209.175	24.62
209.561	15.35
209.947	26.53
210.333	33.88
210.719	-3.51
211.105	16.26
211.491	42.07
211.876	17.9
212.262	8.43
212.648	13.01
213.034	-17.28
213.419	-3.25
213.805	33.09
214.19	16.19
214.576	2.86
214.961	22.05
215.346	-10.89
215.732	24.28
216.117	0.98
216.502	9.67
216.888	29.08
217.273	29.78
217.658	27.09
218.043	26.96
218.428	13.35
218.813	15.67
219.198	33.96
219.583	7.07
219.968	26.09
220.353	16.07
220.738	35.84
221.122	20.06
221.507	32.85
221.892	18.65
222.276	15.58
222.661	8.26
223.046	-4.54
223.43	-3.55
223.815	4.69
224.199	3.26
224.583	8.61
224.968	8.87
225.352	7.08
225.736	-2.5
226.121	14.46
226.505	7.27
226.889	10.47
227.273	1.78
227.657	4.93
228.041	3.42
228.425	8.2
228.809	4.9
229.193	2.85
229.577	5.89
229.961	4.18
230.344	2.65
230.728	2.98
231.112	2.27
231.495	2.56
231.879	2.23
232.263	3.87
232.646	4.05
233.03	3.75
233.413	3.88
233.797	4.44
234.18	6.8
234.563	3.84
234.946	6.01
235.33	1.92
235.713	5.19
236.096	2.16
236.479	1.98
236.862	2.61
237.245	2.82
237.628	4.6
238.011	4.66
238.394	4.06
238.777	3.29
239.16	3.38
239.543	2.82
239.925	3.7
240.308	5.48
240.691	3
241.073	2.02
241.456	2.35
241.838	4.69
242.221	4.48
242.603	5.14
242.986	2.75
243.368	3.26
243.75	3.05
244.133	3.41
244.515	2.94
244.897	3.62
245.279	3.95
245.661	4.1
246.043	4.16
246.425	4.11
246.807	2.09
247.189	3.11
247.571	3.87
247.953	3.21
248.335	3.44
248.717	3.26
249.098	3.19
249.48	3.18
249.862	3.31
250.243	3.63
250.625	3.35
251.006	3.95
251.388	3.22
251.769	4.03
252.151	1.84
252.532	2.87
252.913	3.95
253.295	3.57
253.676	3.24
254.057	3.11
254.438	3.16
254.819	3.84
255.2	3.82
255.581	3.77
255.962	3.2
256.343	4.28
256.724	2.55
257.105	3.84
257.486	2.41
257.867	4.19
258.247	4.39
258.628	3.49
259.009	2.7
259.389	4.28
259.77	2.65
260.15	3.3
260.531	3.32
260.911	3.64
261.292	3.14
261.672	3.02
262.052	2.99
262.432	3.06
262.813	3.31
263.193	3.13
263.573	3.6
263.953	3.33
264.333	3.41
264.713	3.55
265.093	3.55
265.473	3.38
265.853	2.56
266.233	3.62
266.612	3.54
266.992	4
267.372	3.08
267.752	3.18
268.131	3.43
268.511	3.04
268.89	3.08
269.27	3.52
269.649	3.09
270.029	3
270.408	3.41
270.787	3.24
271.167	3.05
271.546	3.17
271.925	3
272.304	3.39
272.683	2.93
273.062	2.84
273.441	3.53
273.82	2.87
274.199	2.83
274.578	3.12
274.957	3.02
275.336	2.97
275.715	3.11
276.093	3.81
276.472	3.92
276.851	3.54
277.229	3
277.608	2.87
277.986	2.92
278.365	3.25
278.743	3.87
279.122	2.96
279.5	3.42
279.878	3.21
280.257	2.9
280.635	2.67
281.013	3.05
281.391	2.96
281.769	3.22
282.147	2.61
282.525	2.85
282.903	3.03
283.281	2.97
283.659	2.69
284.037	2.85
284.415	2.87
284.792	3.12
285.17	3.56
285.548	2.8
285.925	2.72
286.303	3.36
286.68	3.14
287.058	3.03
287.435	3
287.813	2.95
288.19	3.34
288.567	3.12
288.945	3.06
289.322	3.3
289.699	3.5
290.076	2.98
290.453	3.06
290.83	3.06
291.207	3.28
291.584	3.52
291.961	3.11
292.338	3.45
292.715	3.06
293.092	3.16
293.469	3.81
293.845	3.56
294.222	3.71
294.599	3.07
294.975	3.69
295.352	3.52
295.728	3.45
296.105	3.55
296.481	3.55
296.858	3.59
297.234	3.94
297.61	3.01
297.986	3.68
298.363	3.32
298.739	3.35
299.115	3.62
299.491	3.59
299.867	3.59
300.243	3.58
300.619	4.44
300.995	4
301.371	3.49
301.746	4.52
302.122	3.45
302.498	4.5
302.874	3.41
303.249	4.18
303.625	3.99
304	4.05
304.376	3.73
304.751	3.63
305.127	4.24
305.502	4.35
305.878	3.87
306.253	3.88
306.628	4.49
307.003	3.81
307.378	4.46
307.754	4.84
308.129	4.64
308.504	4.06
308.879	4.6
309.254	4.49
309.629	4.57
310.003	4.19
310.378	4.46
310.753	4.48
311.128	3.99
311.502	4.3
311.877	4.4
312.252	4.54
312.626	4.62
313.001	4.54
313.375	4.79
313.75	4.7
314.124	4.72
314.498	4.7
314.873	5.21
315.247	5.21
315.621	4.99
315.995	5.18
316.369	5.08
316.743	5.15
317.117	4.39
317.491	4.76
317.865	5.26
318.239	6.19
318.613	4.38
318.987	4.77
319.361	4.67
319.734	5.51
320.108	4.63
320.482	5.21
320.855	5.42
321.229	5.85
321.602	5
321.976	6.02
322.349	5.49
322.723	6.08
323.096	5.63
323.469	5.46
323.843	5.2
324.216	6.27
324.589	5.93
324.962	5.81
325.335	5.42
325.708	5.87
326.081	5.95
326.454	5.83
326.827	5.58
327.2	5.9
327.573	5.51
327.945	6.02
328.318	5.62
328.691	6.1
329.063	6.28
329.436	6.07
329.809	6.44
330.181	6.38
330.553	5.65
330.926	6.12
331.298	5.86
331.671	6.22
332.043	6.3
332.415	6.08
332.787	6.05
333.159	6.31
333.532	5.97
333.904	6.01
334.276	5.82
334.648	6.15
335.02	5.81
335.391	5.89
335.763	6.27
336.135	6.4
336.507	7.1
336.879	6.46
337.25	7.29
337.622	6.74
337.993	6.59
338.365	6.83
338.736	6.72
339.108	6.82
339.479	6.55
339.851	7.11
340.222	7.13
340.593	6.63
340.964	6.8
341.336	6.54
341.707	7.49
342.078	6.63
342.449	6.55
342.82	6.58
343.191	7.13
343.562	7.1
343.933	7.71
344.303	7.21
344.674	7.21
345.045	7.32
345.416	7.33
345.786	7.9
346.157	7.26
346.527	7.62
346.898	7.37
347.268	7.19
347.639	7.17
348.009	7.37
348.38	7.73
348.75	7.61
349.12	7.4
349.49	7.43
349.861	7.96
350.231	7.38
350.601	7.06
350.971	7.6
351.341	7.49
351.711	8.11
352.081	7.86
352.45	7.64
352.82	7.87
353.19	7.9
353.56	7.99
353.929	7.73
354.299	8.05
354.669	8.02
355.038	8.19
355.408	7.65
355.777	7.78
356.147	7.77
356.516	8.15
356.885	8.19
357.254	7.76
357.624	8.27
357.993	8.15
358.362	7.95
358.731	8.27
359.1	8.2
359.469	7.91
359.838	8.29
360.207	8.66
360.576	8.39
360.945	8.51
361.314	8.06
361.682	8.22
362.051	8.6
362.42	8.46
362.788	8.07
363.157	8.23
363.525	8.66
363.894	8.39
364.262	8.2
364.631	8.7
364.999	8.74
365.367	8.42
365.735	8.93
366.104	8.9
366.472	8.73
366.84	8.88
367.208	8.89
367.576	9.24
367.944	9.1
368.312	9.37
368.68	8.67
369.048	8.89
369.416	8.99
369.783	9.23
370.151	9.01
370.519	8.83
370.886	9.27
371.254	9.33
371.621	9.09
371.989	8.84
372.356	9.96
372.724	9.31
373.091	9.29
373.458	9.31
373.826	9.56
374.193	9.33
374.56	9.5
374.927	9.52
375.294	9.69
375.661	9.31
376.028	9.48
376.395	9.98
376.762	9.58
377.129	9.46
377.496	10.06
377.863	9.93
378.229	9.56
378.596	9.74
378.963	9.72
379.329	10.07
379.696	9.96
380.062	9.76
380.429	10.07
380.795	9.95
381.161	10.05
381.528	10.21
381.894	9.72
382.26	9.92
382.626	10
382.993	10.28
383.359	10.46
383.725	10.45
384.091	10.4
384.457	10.4
384.823	10.18
385.188	10.46
385.554	10.78
385.92	10.6
386.286	10.43
386.651	10.6
387.017	10.66
387.383	10.61
387.748	10.79
388.114	10.74
388.479	10.72
388.845	10.73
389.21	10.8
389.575	10.62
389.94	10.46
390.306	10.71
390.671	11.05
391.036	10.95
391.401	11.28
391.766	10.9
392.131	10.92
392.496	10.9
392.861	11.05
393.226	10.8
393.591	11.07
393.956	10.99
394.32	11.29
394.685	10.73
395.05	10.9
395.414	11.16
395.779	11.04
396.143	10.81
396.508	11.19
396.872	11.16
397.236	11.21
397.601	11.34
397.965	11.55
398.329	11.51
398.694	11.38
399.058	11.7
399.422	11.57
399.786	11.59
400.15	11.43
400.514	11.47
400.878	11.59
401.242	11.49
401.605	11.71
401.969	11.63
402.333	11.59
402.697	11.54
403.06	11.74
403.424	11.48
403.787	11.39
404.151	11.54
404.514	11.84
404.878	11.71
405.241	11.76
405.604	11.87
405.968	11.68
406.331	11.78
406.694	11.98
407.057	11.86
407.42	12.06
407.783	11.93
408.146	11.82
408.509	12.01
408.872	11.88
409.235	12.27
409.598	12.25
409.961	12.24
410.323	11.97
410.686	12.31
411.049	12.08
411.411	12.53
411.774	11.8
412.136	12.16
412.499	12.02
412.861	12.13
413.223	12.41
413.586	12.4
413.948	12.23
414.31	12.22
414.672	12.58
415.035	12.55
415.397	12.42
415.759	12.61
416.121	12.6
416.483	12.65
416.845	12.52
417.206	12.4
417.568	12.31
417.93	12.57
418.292	12.49
418.653	12.4
419.015	12.39
419.377	12.52
419.738	12.55
420.1	12.64
420.461	12.52
420.822	12.74
421.184	12.62
421.545	12.76
421.906	12.78
422.267	12.63
422.629	12.63
422.99	12.68
423.351	12.85
423.712	12.72
424.073	12.84
424.434	12.97
424.795	13.02
425.155	12.99
425.516	12.95
425.877	12.93
426.238	13.03
426.598	13.03
426.959	13.03
427.32	13.39
427.68	13.33
428.041	13.48
428.401	13.43
428.761	13.46
429.122	13.68
429.482	13.84
429.842	13.98
430.202	13.89
430.563	13.97
430.923	14.01
431.283	14.17
431.643	14.13
432.003	14.16
432.363	14.11
432.722	14.23
433.082	13.87
433.442	14.33
433.802	14.27
434.161	14.2
434.521	14.21
434.881	14.02
435.24	14.17
435.6	14.26
435.959	14.36
436.319	14.49
436.678	14.48
437.037	14.8
437.396	14.59
437.756	14.72
438.115	14.67
438.474	14.49
438.833	14.85
439.192	15.05
439.551	14.83
439.91	14.75
440.269	14.86
440.628	14.92
440.987	14.72
441.345	14.95
441.704	14.82
442.063	15.09
442.421	14.87
442.78	14.93
443.138	15.1
443.497	15.16
443.855	15.27
444.214	15.48
444.572	15.38
444.93	15.29
445.288	15.59
445.647	15.63
446.005	15.45
446.363	15.56
446.721	15.44
447.079	15.54
447.437	15.5
447.795	15.57
448.153	15.29
448.51	15.44
448.868	15.55
449.226	15.68
449.584	15.65
449.941	15.97
450.299	15.86
450.656	16.02
451.014	16.1
451.371	16.08
451.729	16.21
452.086	16.45
452.443	16.28
452.801	16.49
453.158	16.5
453.515	16.57
453.872	16.46
454.229	16.43
454.586	16.45
454.943	16.47
455.3	16.52
455.657	16.49
456.014	16.81
456.371	16.68
456.727	16.97
457.084	16.87
457.441	16.91
457.797	16.82
458.154	17.07
458.51	17.01
458.867	17.32
459.223	17.1
459.58	17.14
459.936	17.1
460.292	16.87
460.648	17.1
461.005	16.94
461.361	16.86
461.717	16.89
462.073	16.98
462.429	17.03
462.785	17.36
463.141	17.27
463.496	17.6
463.852	17.78
464.208	17.59
464.564	17.87
464.919	17.71
465.275	17.77
465.631	17.95
465.986	17.86
466.342	17.88
466.697	18.05
467.052	17.95
467.408	17.85
467.763	18.17
468.118	18.02
468.473	17.95
468.829	18.11
469.184	18.28
469.539	18.17
469.894	18.03
470.249	18.37
470.603	18.45
470.958	18.32
471.313	18.53
471.668	18.49
472.023	18.31
472.377	18.48
472.732	18.5
473.086	18.62
473.441	18.95
473.795	18.94
474.15	18.88
474.504	18.7
474.859	18.85
475.213	19.11
475.567	18.85
475.921	18.79
476.275	19.02
476.63	18.8
476.984	19.24
477.338	19.24
477.692	19.05
478.045	19.04
478.399	19.01
478.753	19.35
479.107	19.1
479.461	19.25
479.814	19.22
480.168	19.21
480.521	19.2
480.875	19.31
481.228	19.72
481.582	19.57
481.935	19.46
482.289	19.57
482.642	19.49
482.995	19.59
483.348	19.33
483.701	19.44
484.055	19.34
484.408	19.11
484.761	18.94
485.114	18.6
485.466	18.35
485.819	18.42
486.172	18.75
486.525	19.12
486.878	19.21
487.23	19.41
487.583	19.48
487.936	19.59
488.288	19.42
488.641	19.16
488.993	19.14
489.345	19.11
489.698	19.17
490.05	19.35
490.402	19.5
490.754	19.77
491.107	19.89
491.459	20.03
491.811	20.17
492.163	20.19
492.515	20.01
492.866	19.83
493.218	19.5
493.57	19.53
493.922	19.74
494.274	20.13
494.625	20.35
494.977	20.54
495.328	20.79
495.68	20.89
496.031	20.95
496.383	21.08
496.734	21.08
497.086	21.15
497.437	21.3
497.788	21.19
498.139	20.97
498.49	20.87
498.842	20.86
499.193	21
499.544	21.22
499.894	21.2
500.245	21.28
500.596	21.29
500.947	21.31
501.298	21.38
501.648	21.75
501.999	21.67
502.35	21.62
502.7	21.97
503.051	21.66
503.401	21.87
503.752	21.66
504.102	21.93
504.452	21.7
504.803	21.9
505.153	22.01
505.503	21.92
505.853	22.09
506.203	21.98
506.553	22
506.903	22.08
507.253	22.01
507.603	22.09
507.953	22.13
508.303	22.25
508.652	22.13
509.002	22.36
509.352	22.4
509.701	22.23
510.051	22.21
510.4	22.24
510.75	22.32
511.099	22.42
511.449	22.2
511.798	22.39
512.147	22.49
512.496	22.45
512.846	22.51
513.195	22.61
513.544	22.77
513.893	22.52
514.242	22.58
514.591	22.59
514.939	22.69
515.288	22.87
515.637	22.83
515.986	22.97
516.334	22.91
516.683	23.02
517.032	23.05
517.38	22.96
517.729	23.09
518.077	23.02
518.426	23.18
518.774	23.18
519.122	22.98
519.47	22.9
519.819	22.83
520.167	22.79
520.515	22.67
520.863	22.91
521.211	23.04
521.559	23.08
521.907	23.1
522.255	23.24
522.602	23.38
522.95	23.29
523.298	23.48
523.645	23.49
523.993	23.64
524.341	23.53
524.688	23.59
525.036	23.87
525.383	23.67
525.73	23.87
526.078	23.81
526.425	23.7
526.772	23.45
527.119	23.29
527.466	23.24
527.814	23.3
528.161	23.47
528.508	23.61
528.854	23.5
529.201	23.45
529.548	23.35
529.895	22.99
530.242	22.59
530.588	22.76
530.935	23.03
531.282	23.29
531.628	23.43
531.975	23.53
532.321	23.69
532.667	23.86
533.014	24.02
533.36	23.99
533.706	23.93
534.052	24.11
534.399	23.92
534.745	23.59
535.091	23.44
535.437	23.51
535.783	23.79
536.129	23.94
536.474	24.32
536.82	24.51
537.166	24.57
537.512	24.45
537.857	24.37
538.203	24.17
538.549	24.08
538.894	24.35
539.239	24.55
539.585	24.73
539.93	24.73
540.276	25.11
540.621	25.06
540.966	24.9
541.311	25.24
541.656	24.8
542.001	24.96
542.346	24.65
542.691	24.22
543.036	24.07
543.381	24.11
543.726	24.35
544.071	24.57
544.415	24.71
544.76	24.79
545.105	24.82
545.449	24.94
545.794	25.08
546.138	25.18
546.483	25.33
546.827	25.43
547.171	25.53
547.516	25.39
547.86	25.48
548.204	25.48
548.548	25.21
548.892	25.29
549.236	25.46
549.58	25.76
549.924	25.86
550.268	26.03
550.612	26.05
550.956	26.38
551.3	26.07
551.643	26.28
551.987	26.32
552.33	26.21
552.674	26.38
553.017	26.32
553.361	26.42
553.704	26.25
554.048	26.51
554.391	26.2
554.734	26.34
555.077	26.43
555.42	26.42
555.764	26.62
556.107	26.55
556.45	26.54
556.793	26.83
557.135	26.81
557.478	26.85
557.821	26.91
558.164	26.85
558.507	26.65
558.849	27.19
559.192	26.96
559.534	27.14
559.877	27.28
560.219	27.01
560.562	27.45
560.904	27.19
561.246	26.97
561.589	27.37
561.931	27.07
562.273	27.57
562.615	27.2
562.957	27.23
563.299	27.16
563.641	27.32
563.983	27.39
564.325	27.46
564.667	27.55
565.008	27.48
565.35	27.58
565.692	27.63
566.033	27.42
566.375	27.56
566.716	27.59
567.058	27.54
567.399	27.34
567.741	27.52
568.082	27.4
568.423	27.28
568.764	27.46
569.105	27.6
569.447	27.55
569.788	27.83
570.129	27.98
570.47	28.05
570.811	28.02
571.151	27.9
571.492	27.89
571.833	28.11
572.174	28.1
572.514	28.34
572.855	27.82
573.195	27.87
573.536	28
573.876	27.7
574.217	27.97
574.557	28.14
574.898	28.24
575.238	28.26
575.578	28.16
575.918	28.23
576.258	28.35
576.598	28.26
576.938	28.1
577.278	28.25
577.618	28.19
577.958	28.54
578.298	28.32
578.638	28.35
578.977	28.59
579.317	28.46
579.657	28.62
579.996	28.68
580.336	28.74
580.675	28.75
581.014	28.93
581.354	29.29
581.693	29.01
582.032	29.23
582.372	29.16
582.711	29.12
583.05	29.47
583.389	29.13
583.728	29.38
584.067	29.36
584.406	29.08
584.745	29.52
585.083	29.23
585.422	29.37
585.761	29.47
586.1	29.73
586.438	29.4
586.777	29.57
587.115	29.5
587.454	29.47
587.792	29.44
588.13	29.68
588.469	29.59
588.807	29.91
589.145	29.61
589.483	29.8
589.821	29.96
590.159	29.54
590.497	29.91
590.835	29.66
591.173	29.73
591.511	29.82
591.849	29.65
592.187	29.75
592.524	30.04
592.862	30.28
593.2	30.09
593.537	29.99
593.875	30.03
594.212	29.95
594.55	29.86
594.887	30.04
595.224	30.06
595.561	30.1
595.899	30.01
596.236	30.12
596.573	30.24
596.91	30.04
597.247	30.17
597.584	30.16
597.921	30.09
598.258	30.05
598.594	30.09
598.931	30.03
599.268	29.87
599.604	30.14
599.941	30.07
600.277	30.23
600.614	30.49
600.95	30.44
601.287	30.65
601.623	30.61
601.959	30.72
602.296	30.87
602.632	30.8
602.968	30.4
603.304	30.57
603.64	30.87
603.976	30.92
604.312	30.92
604.648	30.77
604.984	30.71
605.319	30.71
605.655	30.53
605.991	30.56
606.326	30.49
606.662	30.42
606.998	30.49
607.333	30.82
607.668	30.85
608.004	31
608.339	30.97
608.674	31.02
609.01	31.23
609.345	31.37
609.68	31.49
610.015	31.43
610.35	30.96
610.685	31.03
611.02	30.84
611.355	31.14
611.689	31.01
612.024	31.42
612.359	31.17
612.694	31.4
613.028	31.4
613.363	31.79
613.697	31.85
614.032	31.6
614.366	31.69
614.7	31.81
615.035	31.99
615.369	32.02
615.703	32.13
616.037	31.54
616.371	31.73
616.705	31.95
617.039	32.11
617.373	31.87
617.707	32.05
618.041	32.12
618.375	32.44
618.709	32
619.042	32.22
619.376	31.91
619.71	32.11
620.043	32.07
620.377	32.08
620.71	32.36
621.043	32.43
621.377	32.08
621.71	32.35
622.043	32.3
622.376	31.92
622.709	32.68
623.043	32.21
623.376	32.43
623.709	32.32
624.041	32.5
624.374	32.34
624.707	32.93
625.04	32.72
625.373	32.39
625.705	32.76
626.038	32.1
626.37	32.37
626.703	32.34
627.035	32.61
627.368	32.71
627.7	32.63
628.032	32.49
628.365	32.63
628.697	32.48
629.029	32.64
629.361	32.71
629.693	32.45
630.025	33.05
630.357	33.04
630.689	33.25
631.021	32.91
631.353	33.22
631.684	32.69
632.016	33.42
632.348	33.08
632.679	33.01
633.011	32.99
633.342	33.02
633.674	33.31
634.005	33.01
634.336	33.58
634.668	33.28
634.999	33.19
635.33	32.99
635.661	33.18
635.992	32.94
636.323	33.63
636.654	33.64
636.985	33.5
637.316	33.44
637.647	33.08
637.977	33.56
638.308	34
638.639	33.11
638.969	33.46
639.3	33.51
639.63	33.7
639.961	33.78
640.291	33.29
640.622	33.64
640.952	33.54
641.282	33.71
641.612	33.91
641.943	33.7
642.273	33.81
642.603	34.04
642.933	33.93
643.263	33.54
643.592	33.95
643.922	34.19
644.252	34.29
644.582	34.45
644.911	33.84
645.241	34.33
645.571	34.46
645.9	34.24
646.23	34.44
646.559	33.73
646.888	34.89
647.218	33.76
647.547	34.05
647.876	34.08
648.205	34.11
648.534	34.3
648.863	34.11
649.192	34.24
649.521	34.21
649.85	34.47
650.179	34.45
650.508	34.66
650.837	34.89
651.165	34.54
651.494	33.95
651.822	34.28
652.151	34.07
652.479	34.29
652.808	34.81
653.136	34.65
653.465	34.55
653.793	34.53
654.121	33.97
654.449	34.71
654.777	35.03
655.105	34.49
655.433	34.63
655.761	35.03
656.089	34.98
656.417	34.6
656.745	35.62
657.073	34.11
657.4	35.15
657.728	34.58
658.056	35.09
658.383	35.06
658.711	34.56
659.038	34.91
659.365	34.79
659.693	34.85
660.02	35.06
660.347	35.14
660.674	34.39
661.001	35.25
661.329	34.56
661.656	35.13
661.982	34.81
662.309	35.3
662.636	34.87
662.963	35.23
663.29	35.51
663.616	35.33
663.943	35.49
664.27	35.14
664.596	35.49
664.923	35.83
665.249	35.39
665.576	35.52
665.902	35.31
666.228	35.63
666.554	35.99
666.881	35.89
667.207	35.35
667.533	35.72
667.859	35.04
668.185	35.33
668.511	35.37
668.837	35.76
669.162	35.9
669.488	35.22
669.814	35.97
670.139	35.58
670.465	35.91
670.791	35.41
671.116	35.75
671.442	35.94
671.767	35.5
672.092	36.18
672.418	35.71
672.743	36.04
673.068	35.62
