Data from 97283_forehead_Reflection__2__38.txt Node

Date: Fri Sep 23 20:00:03 CDT 2022
User: ToomeyLab
Spectrometer: FLMS14357
Trigger mode: 0
Integration Time (sec): 1.000000E-2
Scans to average: 100
Electric dark correction enabled: true
Nonlinearity correction enabled: false
Boxcar width: 0
XAxis mode: Wavelengths
Number of Pixels in Spectrum: 2048
>>>>>Begin Spectral Data<<<<<
189.047	50.21
189.435	50.21
189.823	50.21
190.211	178.21
190.599	1077.1
190.987	122.35
191.375	1254.64
191.763	68.98
192.151	-66.24
192.538	96.81
192.926	226.06
193.314	47.4
193.702	85.62
194.089	-106.24
194.477	50.64
194.864	-119.42
195.252	66.46
195.639	584.85
196.027	108.77
196.414	144.96
196.801	107.64
197.189	-4.68
197.576	-445.8
197.963	40.61
198.351	44.18
198.738	-8.48
199.125	83.47
199.512	14.21
199.899	39.88
200.286	-15.97
200.673	17.16
201.06	55.65
201.447	54.11
201.833	59
202.22	44.68
202.607	23.63
202.994	19.74
203.38	17.57
203.767	6.04
204.154	17.07
204.54	28.04
204.927	38.29
205.313	50.14
205.699	-3.42
206.086	-2.25
206.472	25.33
206.858	49.38
207.245	-9.66
207.631	22.71
208.017	22.27
208.403	40.84
208.789	11.82
209.175	23.4
209.561	23.33
209.947	45.02
210.333	33.65
210.719	5.4
211.105	19.81
211.491	5.93
211.876	38.97
212.262	28.46
212.648	-11.75
213.034	-6.21
213.419	-18.78
213.805	54.24
214.19	16.15
214.576	13.04
214.961	25.8
215.346	25.35
215.732	25.4
216.117	11.32
216.502	12.88
216.888	16.23
217.273	23
217.658	25.61
218.043	26.06
218.428	30.38
218.813	32.27
219.198	30.22
219.583	11.9
219.968	6.26
220.353	3.76
220.738	2.17
221.122	3.91
221.507	22.36
221.892	7.31
222.276	0.34
222.661	1.69
223.046	23.7
223.43	13.71
223.815	14.76
224.199	17.34
224.583	9.5
224.968	10.69
225.352	15.79
225.736	7.41
226.121	16.97
226.505	10.72
226.889	10.97
227.273	1.27
227.657	3.78
228.041	9.34
228.425	8.28
228.809	5.52
229.193	8.78
229.577	6.91
229.961	6.46
230.344	6.77
230.728	5.63
231.112	6.46
231.495	5.63
231.879	5.6
232.263	7.93
232.646	7.7
233.03	7.72
233.413	6.94
233.797	6.34
234.18	9.31
234.563	5.38
234.946	8.22
235.33	6.32
235.713	5.6
236.096	4.71
236.479	5.73
236.862	5
237.245	7.98
237.628	6.69
238.011	8.56
238.394	6.87
238.777	8.54
239.16	7.75
239.543	6.97
239.925	6.42
240.308	7.62
240.691	8.38
241.073	5
241.456	5.95
241.838	7.58
242.221	7.79
242.603	7.83
242.986	5.52
243.368	6.55
243.75	6.57
244.133	6.04
244.515	6.3
244.897	6.7
245.279	7.17
245.661	7.03
246.043	7.34
246.425	6.12
246.807	5.76
247.189	7.31
247.571	6.61
247.953	6.14
248.335	6.61
248.717	6.55
249.098	6.16
249.48	6.35
249.862	6.57
250.243	6.79
250.625	6.9
251.006	6.98
251.388	6.41
251.769	6.64
252.151	5.43
252.532	7.35
252.913	7.43
253.295	7.18
253.676	6.71
254.057	6.69
254.438	6.49
254.819	6.41
255.2	7.07
255.581	7.77
255.962	6
256.343	6.78
256.724	6.56
257.105	7.6
257.486	6.15
257.867	6.43
258.247	7.8
258.628	6.06
259.009	6.06
259.389	6.08
259.77	6.39
260.15	6.27
260.531	6.6
260.911	6.42
261.292	6.21
261.672	5.96
262.052	6.02
262.432	5.97
262.813	6.07
263.193	6.24
263.573	6.65
263.953	6.4
264.333	6.24
264.713	6.04
265.093	7.28
265.473	5.93
265.853	5.74
266.233	6.32
266.612	6.23
266.992	7.05
267.372	6.05
267.752	6.95
268.131	7.06
268.511	6.14
268.89	6.38
269.27	6.54
269.649	6.05
270.029	6.31
270.408	6.46
270.787	5.77
271.167	6.14
271.546	6.1
271.925	6.09
272.304	5.92
272.683	6.25
273.062	5.81
273.441	6.2
273.82	6.14
274.199	5.83
274.578	5.87
274.957	5.85
275.336	6.19
275.715	6.44
276.093	6.48
276.472	6.57
276.851	6.43
277.229	6.7
277.608	6.05
277.986	5.61
278.365	5.4
278.743	7.27
279.122	5.99
279.5	5.89
279.878	5.69
280.257	5.8
280.635	6.22
281.013	5.82
281.391	6.14
281.769	6.17
282.147	6.19
282.525	6.16
282.903	5.85
283.281	6.04
283.659	6.2
284.037	6.4
284.415	5.89
284.792	6.21
285.17	6.03
285.548	5.86
285.925	6.45
286.303	6.83
286.68	6.26
287.058	6.24
287.435	5.89
287.813	6.4
288.19	6.12
288.567	6.15
288.945	6.16
289.322	6.16
289.699	6.38
290.076	6.09
290.453	5.84
290.83	6.51
291.207	6.19
291.584	6.46
291.961	6.11
292.338	6.12
292.715	6.39
293.092	5.82
293.469	6.57
293.845	6.68
294.222	6.49
294.599	6.66
294.975	7.13
295.352	6.38
295.728	6.41
296.105	6.93
296.481	6.71
296.858	6.75
297.234	6.76
297.61	6.8
297.986	6.62
298.363	6.98
298.739	6.97
299.115	6.69
299.491	6.6
299.867	6.44
300.243	6.88
300.619	7.12
300.995	7.22
301.371	7.05
301.746	7.58
302.122	6.91
302.498	7.2
302.874	7.2
303.249	7.57
303.625	7.28
304	7.41
304.376	7.17
304.751	7.03
305.127	7.34
305.502	7.54
305.878	7.79
306.253	8.05
306.628	7.71
307.003	7.19
307.378	7.77
307.754	8.05
308.129	7.46
308.504	8.47
308.879	8.05
309.254	7.9
309.629	8.37
310.003	7.96
310.378	7.68
310.753	7.75
311.128	7.97
311.502	8.29
311.877	8.5
312.252	8.55
312.626	8.36
313.001	8.28
313.375	8.38
313.75	8.2
314.124	8.12
314.498	8.53
314.873	9.1
315.247	8.81
315.621	8.47
315.995	9.22
316.369	8.89
316.743	8.99
317.117	8.62
317.491	8.81
317.865	9.71
318.239	9.54
318.613	9.38
318.987	9.04
319.361	9.16
319.734	9.27
320.108	8.99
320.482	9.48
320.855	9.41
321.229	9.88
321.602	9.21
321.976	9.9
322.349	10.03
322.723	10.47
323.096	9.61
323.469	9.64
323.843	9.78
324.216	9.93
324.589	9.81
324.962	9.98
325.335	10.11
325.708	9.97
326.081	10.38
326.454	10.16
326.827	10.16
327.2	10.14
327.573	10.56
327.945	10.53
328.318	9.91
328.691	10.34
329.063	10.41
329.436	10.45
329.809	11.27
330.181	10.21
330.553	10.17
330.926	10.58
331.298	10.8
331.671	10.78
332.043	11.18
332.415	10.66
332.787	10.59
333.159	10.69
333.532	10.57
333.904	10.62
334.276	10.98
334.648	11.01
335.02	10.75
335.391	11.82
335.763	11.09
336.135	11.19
336.507	11.87
336.879	11.15
337.25	10.93
337.622	11.68
337.993	11.63
338.365	11.49
338.736	11.41
339.108	12.15
339.479	11.4
339.851	11.85
340.222	11.94
340.593	11.86
340.964	11.95
341.336	11.96
341.707	12.34
342.078	11.99
342.449	12.36
342.82	11.88
343.191	11.79
343.562	12.13
343.933	12.71
344.303	12.33
344.674	12.42
345.045	12.85
345.416	12.4
345.786	12.9
346.157	12.21
346.527	12.55
346.898	12.23
347.268	13.13
347.639	12.47
348.009	12.85
348.38	12.3
348.75	13.22
349.12	13.25
349.49	13.19
349.861	12.92
350.231	12.93
350.601	13.05
350.971	13.04
351.341	13.05
351.711	13.46
352.081	13.36
352.45	13.07
352.82	13.27
353.19	13.84
353.56	13.93
353.929	13.11
354.299	13.93
354.669	14.01
355.038	13.96
355.408	13.42
355.777	13.65
356.147	13.59
356.516	13.99
356.885	13.77
357.254	13.52
357.624	13.82
357.993	14.01
358.362	14.2
358.731	13.9
359.1	14.09
359.469	13.95
359.838	14.41
360.207	14.45
360.576	14.13
360.945	14.69
361.314	14.56
361.682	13.94
362.051	14.9
362.42	14.43
362.788	14.42
363.157	14.64
363.525	14.82
363.894	14.68
364.262	14.61
364.631	14.88
364.999	15.14
365.367	14.81
365.735	15.11
366.104	15.17
366.472	14.96
366.84	15.02
367.208	15.44
367.576	15.61
367.944	15.15
368.312	15.7
368.68	15.48
369.048	15.44
369.416	15.59
369.783	15.48
370.151	15.52
370.519	15.73
370.886	16.11
371.254	16.28
371.621	16.22
371.989	16.16
372.356	16.42
372.724	15.88
373.091	16.23
373.458	16.07
373.826	16.24
374.193	16.34
374.56	16.27
374.927	16.48
375.294	16.64
375.661	16.26
376.028	16.61
376.395	16.48
376.762	16.57
377.129	16.56
377.496	17.04
377.863	16.88
378.229	16.78
378.596	16.63
378.963	17.1
379.329	17.12
379.696	17.19
380.062	17.02
380.429	16.83
380.795	17.07
381.161	17.27
381.528	17.16
381.894	17.36
382.26	16.99
382.626	17.56
382.993	17.73
383.359	17.56
383.725	17.61
384.091	17.46
384.457	18.01
384.823	17.58
385.188	17.78
385.554	17.76
385.92	17.96
386.286	17.92
386.651	17.91
387.017	18.42
387.383	18.15
387.748	18.27
388.114	18.13
388.479	17.98
388.845	18.33
389.21	18.39
389.575	18.41
389.94	18.49
390.306	18.42
390.671	18.65
391.036	18.4
391.401	18.39
391.766	18.35
392.131	18.55
392.496	18.39
392.861	18.98
393.226	18.4
393.591	18.58
393.956	18.59
394.32	18.77
394.685	18.87
395.05	19.12
395.414	19.09
395.779	18.98
396.143	19.03
396.508	19
396.872	19.1
397.236	19.41
397.601	19.26
397.965	19.49
398.329	19.55
398.694	19.47
399.058	19.62
399.422	19.68
399.786	19.56
400.15	19.53
400.514	19.59
400.878	19.65
401.242	19.72
401.605	19.74
401.969	19.9
402.333	19.56
402.697	19.69
403.06	19.93
403.424	19.78
403.787	20.09
404.151	19.82
404.514	19.77
404.878	19.82
405.241	19.81
405.604	19.9
405.968	20
406.331	20.03
406.694	19.91
407.057	20.01
407.42	20.22
407.783	20.3
408.146	20.28
408.509	20.34
408.872	20.19
409.235	20.34
409.598	20.43
409.961	20.62
410.323	20.21
410.686	20.28
411.049	20.43
411.411	20.74
411.774	20.5
412.136	20.41
412.499	20.48
412.861	20.37
413.223	20.68
413.586	20.7
413.948	20.68
414.31	20.88
414.672	21.02
415.035	21.01
415.397	21.13
415.759	20.96
416.121	21.09
416.483	20.96
416.845	21.11
417.206	21.44
417.568	21.27
417.93	21.22
418.292	21.4
418.653	21.27
419.015	21.31
419.377	21.14
419.738	21.57
420.1	21.29
420.461	21.5
420.822	21.52
421.184	21.31
421.545	21.45
421.906	21.57
422.267	21.42
422.629	21.21
422.99	21.51
423.351	21.56
423.712	21.57
424.073	21.82
424.434	21.88
424.795	22.01
425.155	22.08
425.516	22.05
425.877	21.99
426.238	21.98
426.598	22.1
426.959	22.25
427.32	22.37
427.68	22.49
428.041	22.66
428.401	22.9
428.761	22.92
429.122	23.13
429.482	23.15
429.842	23.49
430.202	23.67
430.563	23.19
430.923	23.51
431.283	23.83
431.643	23.78
432.003	23.66
432.363	23.96
432.722	24.09
433.082	23.76
433.442	24.02
433.802	24.06
434.161	24.22
434.521	24.21
434.881	24.3
435.24	24.15
435.6	24.28
435.959	24.38
436.319	24.48
436.678	24.47
437.037	24.71
437.396	24.75
437.756	24.71
438.115	24.89
438.474	25.02
438.833	25.04
439.192	25.22
439.551	25.19
439.91	25.34
440.269	25.09
440.628	25.25
440.987	25.21
441.345	25.49
441.704	25.33
442.063	25.44
442.421	25.18
442.78	25.39
443.138	25.5
443.497	25.72
443.855	25.83
444.214	26.11
444.572	25.91
444.93	25.89
445.288	26.36
445.647	26.36
446.005	26.25
446.363	26.3
446.721	26.25
447.079	26.09
447.437	26.29
447.795	26.32
448.153	26.13
448.51	26.33
448.868	26.38
449.226	26.41
449.584	26.79
449.941	26.9
450.299	26.99
450.656	27.09
451.014	27.3
451.371	27.32
451.729	27.37
452.086	27.51
452.443	27.39
452.801	27.75
453.158	27.55
453.515	27.85
453.872	27.82
454.229	27.8
454.586	27.88
454.943	27.93
455.3	27.99
455.657	28.06
456.014	28.43
456.371	28.37
456.727	28.52
457.084	28.47
457.441	28.33
457.797	28.65
458.154	28.86
458.51	28.73
458.867	29
459.223	29.03
459.58	29.07
459.936	28.96
460.292	28.62
460.648	28.97
461.005	28.84
461.361	28.73
461.717	28.64
462.073	28.78
462.429	29.03
462.785	29.36
463.141	29.34
463.496	29.51
463.852	29.76
464.208	29.91
464.564	29.84
464.919	30.06
465.275	30.13
465.631	30.13
465.986	30.09
466.342	30.28
466.697	30.16
467.052	30.3
467.408	30.45
467.763	30.42
468.118	30.44
468.473	30.89
468.829	30.55
469.184	30.94
469.539	30.8
469.894	30.89
470.249	31.1
470.603	31.22
470.958	30.99
471.313	31.23
471.668	31.19
472.023	31.08
472.377	31.34
472.732	31.51
473.086	31.6
473.441	31.72
473.795	31.76
474.15	31.99
474.504	31.74
474.859	31.73
475.213	32.05
475.567	31.91
475.921	31.93
476.275	32.02
476.63	32.25
476.984	32.38
477.338	32.44
477.692	32.41
478.045	32.13
478.399	32.45
478.753	32.54
479.107	32.38
479.461	32.67
479.814	32.55
480.168	32.6
480.521	32.67
480.875	32.62
481.228	33.04
481.582	32.89
481.935	33.2
482.289	32.89
482.642	33.02
482.995	33.18
483.348	32.9
483.701	33.01
484.055	32.88
484.408	32.53
484.761	32.4
485.114	32.2
485.466	31.83
485.819	32.12
486.172	32.36
486.525	32.56
486.878	32.83
487.23	32.96
487.583	33.22
487.936	33.27
488.288	33.26
488.641	33.04
488.993	32.92
489.345	32.91
489.698	33.03
490.05	33.29
490.402	33.31
490.754	33.72
491.107	33.87
491.459	33.9
491.811	34.2
492.163	34.33
492.515	34.13
492.866	33.9
493.218	33.62
493.57	33.69
493.922	33.9
494.274	34.23
494.625	34.5
494.977	34.87
495.328	35.03
495.68	35.32
496.031	35.36
496.383	35.42
496.734	35.59
497.086	35.68
497.437	35.9
497.788	35.76
498.139	35.59
498.49	35.39
498.842	35.41
499.193	35.59
499.544	35.84
499.894	35.84
500.245	36.14
500.596	36.07
500.947	36.02
501.298	36.37
501.648	36.67
501.999	36.56
502.35	36.89
502.7	36.96
503.051	36.73
503.401	36.91
503.752	36.89
504.102	36.77
504.452	37.03
504.803	37.18
505.153	37.38
505.503	37.1
505.853	37.33
506.203	37.28
506.553	37.46
506.903	37.29
507.253	37.34
507.603	37.43
507.953	37.72
508.303	37.72
508.652	37.75
509.002	37.83
509.352	37.74
509.701	37.66
510.051	37.57
510.4	37.66
510.75	37.69
511.099	37.83
511.449	37.93
511.798	37.89
512.147	37.93
512.496	37.84
512.846	38.05
513.195	38.18
513.544	38.17
513.893	38.08
514.242	38.37
514.591	38.28
514.939	38.44
515.288	38.62
515.637	38.64
515.986	38.56
516.334	38.53
516.683	38.68
517.032	39.15
517.38	39.09
517.729	38.95
518.077	38.93
518.426	39.1
518.774	39.06
519.122	38.89
519.47	38.99
519.819	38.85
520.167	38.64
520.515	38.7
520.863	38.88
521.211	39.06
521.559	39.08
521.907	39.17
522.255	39.66
522.602	39.43
522.95	39.41
523.298	39.78
523.645	39.76
523.993	39.86
524.341	40.11
524.688	39.88
525.036	40
525.383	40.09
525.73	40.23
526.078	40.12
526.425	40.05
526.772	39.67
527.119	39.58
527.466	39.51
527.814	39.53
528.161	39.87
528.508	39.83
528.854	39.82
529.201	39.84
529.548	39.59
529.895	39.31
530.242	38.79
530.588	39.28
530.935	39.61
531.282	39.68
531.628	39.79
531.975	40.04
532.321	40.16
532.667	40.44
533.014	40.64
533.36	40.81
533.706	40.5
534.052	40.66
534.399	40.63
534.745	40.25
535.091	39.94
535.437	40.25
535.783	40.51
536.129	40.89
536.474	41.11
536.82	41.27
537.166	41.48
537.512	41.21
537.857	41.43
538.203	41.2
538.549	40.95
538.894	41.31
539.239	41.37
539.585	41.85
539.93	41.86
540.276	42.12
540.621	42.19
540.966	42.14
541.311	42.4
541.656	42.04
542.001	42.05
542.346	41.68
542.691	41.36
543.036	41.28
543.381	41.05
543.726	41.45
544.071	41.67
544.415	41.98
544.76	42.1
545.105	42.17
545.449	42.33
545.794	42.43
546.138	42.66
546.483	42.73
546.827	42.96
547.171	42.88
547.516	43.17
547.86	42.99
548.204	43.12
548.548	42.86
548.892	42.69
549.236	43.16
549.58	43.4
549.924	43.78
550.268	43.84
550.612	44.14
550.956	44.01
551.3	44.16
551.643	44.21
551.987	44.28
552.33	44.28
552.674	44.4
553.017	44.41
553.361	45.01
553.704	44.31
554.048	44.47
554.391	44.52
554.734	44.29
555.077	44.44
555.42	44.49
555.764	44.69
556.107	44.73
556.45	44.75
556.793	44.81
557.135	45.24
557.478	44.88
557.821	45.34
558.164	45.18
558.507	45.29
558.849	45.25
559.192	45.48
559.534	45.26
559.877	45.47
560.219	45.61
560.562	45.71
560.904	45.61
561.246	45.49
561.589	45.88
561.931	45.87
562.273	46.3
562.615	45.95
562.957	45.88
563.299	45.67
563.641	46.11
563.983	45.93
564.325	46.03
564.667	46.19
565.008	46.34
565.35	46.42
565.692	46.22
566.033	46.26
566.375	46.47
566.716	46.56
567.058	46.36
567.399	46.31
567.741	46.15
568.082	46.32
568.423	46.14
568.764	46.48
569.105	46.63
569.447	46.71
569.788	46.46
570.129	46.69
570.47	46.78
570.811	47.05
571.151	46.85
571.492	46.79
571.833	46.97
572.174	47.24
572.514	46.98
572.855	47.17
573.195	46.97
573.536	47.12
573.876	46.71
574.217	46.83
574.557	47.39
574.898	47.45
575.238	47.6
575.578	47.3
575.918	47.74
576.258	47.69
576.598	47.49
576.938	47.46
577.278	47.39
577.618	47.6
577.958	47.91
578.298	47.86
578.638	47.97
578.977	47.99
579.317	48.02
579.657	48.32
579.996	48.5
580.336	48.6
580.675	48.67
581.014	48.53
581.354	48.78
581.693	48.74
582.032	49.09
582.372	48.85
582.711	49.24
583.05	49.03
583.389	49.14
583.728	49.41
584.067	48.94
584.406	49.1
584.745	49.61
585.083	49.43
585.422	49.3
585.761	49.57
586.1	49.57
586.438	49.6
586.777	49.53
587.115	49.93
587.454	49.53
587.792	49.66
588.13	49.68
588.469	50
588.807	49.81
589.145	49.84
589.483	49.86
589.821	49.9
590.159	49.73
590.497	49.99
590.835	50.27
591.173	49.99
591.511	50.16
591.849	49.57
592.187	50.22
592.524	50.07
592.862	50.81
593.2	50.48
593.537	50.61
593.875	50.51
594.212	50.15
594.55	50.37
594.887	50.6
595.224	50.51
595.561	50.5
595.899	50.62
596.236	50.54
596.573	50.55
596.91	50.77
597.247	50.9
597.584	50.82
597.921	50.67
598.258	50.69
598.594	50.71
598.931	50.46
599.268	50.68
599.604	50.84
599.941	50.78
600.277	51.39
600.614	51.3
600.95	51.22
601.287	51.57
601.623	51.38
601.959	51.52
602.296	51.81
602.632	51.73
602.968	51.72
603.304	51.78
603.64	52
603.976	52.02
604.312	51.99
604.648	51.8
604.984	51.39
605.319	51.75
605.655	52.27
605.991	51.62
606.326	51.34
606.662	51.61
606.998	51.75
607.333	51.75
607.668	52.23
608.004	52.15
608.339	52.02
608.674	52.58
609.01	52.04
609.345	52.43
609.68	52.32
610.015	52.68
610.35	52.47
610.685	52.18
611.02	52.47
611.355	52.38
611.689	52.49
612.024	52.7
612.359	52.61
612.694	53
613.028	53.17
613.363	52.88
613.697	53.32
614.032	53.21
614.366	53.24
614.7	53.58
615.035	53.56
615.369	53.31
615.703	54.01
616.037	53.54
616.371	53.39
616.705	53.42
617.039	54.16
617.373	53.66
617.707	54.18
618.041	53.66
618.375	54.1
618.709	54.09
619.042	54.27
619.376	54.32
619.71	54.57
620.043	53.89
620.377	54.23
620.71	53.96
621.043	54.34
621.377	54.49
621.71	54.37
622.043	54.92
622.376	54.61
622.709	54.73
623.043	54.82
623.376	54.85
623.709	54.71
624.041	55.03
624.374	54.84
624.707	55.01
625.04	54.88
625.373	54.92
625.705	55.26
626.038	54.84
626.37	54.85
626.703	54.77
627.035	55.36
627.368	55.02
627.7	55.36
628.032	55.36
628.365	54.77
628.697	54.85
629.029	55.27
629.361	55.24
629.693	55.43
630.025	55.59
630.357	55.85
630.689	55.83
631.021	55.79
631.353	55.95
631.684	55.53
632.016	55.62
632.348	55.31
632.679	55.84
633.011	55.93
633.342	56.06
633.674	55.93
634.005	56.11
634.336	56.46
634.668	55.91
634.999	56.14
635.33	56.12
635.661	55.85
635.992	55.96
636.323	56.39
636.654	56.54
636.985	56.31
637.316	56.01
637.647	56.21
637.977	56.76
638.308	57.23
638.639	56.82
638.969	56.8
639.3	56.29
639.63	57.08
639.961	57.17
640.291	56.9
640.622	57.14
640.952	57.12
641.282	57.17
641.612	57.23
641.943	56.92
642.273	57.97
642.603	57.54
642.933	57.17
643.263	57.06
643.592	57.04
643.922	57.53
644.252	57.58
644.582	57.35
644.911	57.69
645.241	57.65
645.571	57.53
645.9	58.02
646.23	57.89
646.559	57.14
646.888	57.73
647.218	58.05
647.547	58.14
647.876	58.2
648.205	57.93
648.534	58.39
648.863	57.9
649.192	58.65
649.521	57.82
649.85	58.23
650.179	58.63
650.508	58.32
650.837	57.82
651.165	58.63
651.494	57.71
651.822	58.74
652.151	58.04
652.479	58.34
652.808	58.66
653.136	59.01
653.465	57.7
653.793	59.59
654.121	58.04
654.449	58.69
654.777	58.41
655.105	58.4
655.433	58.28
655.761	59.53
656.089	59.93
656.417	58.73
656.745	59.64
657.073	58.57
657.4	59.5
657.728	58.81
658.056	59.56
658.383	59.32
658.711	59.32
659.038	58.61
659.365	59.06
659.693	59.2
660.02	59.54
660.347	59.19
660.674	59.06
661.001	59.71
661.329	58.88
661.656	59.79
661.982	59.45
662.309	59.72
662.636	59.76
662.963	59.7
663.29	60.12
663.616	60.44
663.943	59.55
664.27	59.57
664.596	60.11
664.923	59.82
665.249	59.92
665.576	60.4
665.902	59.58
666.228	60.41
666.554	60.25
666.881	60.73
667.207	59.7
667.533	60.23
667.859	60
668.185	59.59
668.511	60.09
668.837	60.32
669.162	60.85
669.488	60.15
669.814	60.14
