Data from 97283_crown_Reflection__2__43.txt Node

Date: Fri Sep 23 20:01:26 CDT 2022
User: ToomeyLab
Spectrometer: FLMS14357
Trigger mode: 0
Integration Time (sec): 1.000000E-2
Scans to average: 100
Electric dark correction enabled: true
Nonlinearity correction enabled: false
Boxcar width: 0
XAxis mode: Wavelengths
Number of Pixels in Spectrum: 2048
>>>>>Begin Spectral Data<<<<<
189.047	31.07
189.435	31.07
189.823	31.07
190.211	189.16
190.599	45.8
190.987	50.39
191.375	-39.86
191.763	111.17
192.151	-49.73
192.538	430.79
192.926	133.72
193.314	183.07
193.702	189.84
194.089	-90.64
194.477	81.66
194.864	-56.74
195.252	139.89
195.639	160.35
196.027	283.76
196.414	233.31
196.801	-4.5
197.189	13.92
197.576	-241.39
197.963	52.99
198.351	34.3
198.738	-30.61
199.125	-9.94
199.512	31.34
199.899	4
200.286	-40.31
200.673	15.39
201.06	11.46
201.447	55.91
201.833	10.58
202.22	8.6
202.607	-0.95
202.994	27.04
203.38	35.84
203.767	-51.09
204.154	23.88
204.54	16.82
204.927	14.92
205.313	34.14
205.699	-7.04
206.086	27.23
206.472	2.77
206.858	9.14
207.245	9.3
207.631	15.55
208.017	-1.7
208.403	26.02
208.789	3.64
209.175	3.07
209.561	-3.68
209.947	-30.76
210.333	34.89
210.719	13.93
211.105	-1.87
211.491	7.15
211.876	16.25
212.262	27.05
212.648	-25.01
213.034	-49.25
213.419	9.84
213.805	29.32
214.19	-11.11
214.576	23.21
214.961	26.83
215.346	-13.09
215.732	18.65
216.117	6.88
216.502	0.02
216.888	7.32
217.273	22.63
217.658	-3.92
218.043	18.61
218.428	-5.54
218.813	21.69
219.198	-9.5
219.583	3.77
219.968	30.19
220.353	7.06
220.738	-1.82
221.122	14.75
221.507	-14.44
221.892	-2.67
222.276	-2.59
222.661	-10.93
223.046	-2.7
223.43	-6.23
223.815	2.32
224.199	21.25
224.583	14.24
224.968	2.47
225.352	7.49
225.736	3.35
226.121	5.28
226.505	12.07
226.889	7.19
227.273	7.54
227.657	1.6
228.041	4.76
228.425	6.12
228.809	5.01
229.193	6.48
229.577	8.1
229.961	6.52
230.344	6.59
230.728	6.7
231.112	5.52
231.495	5.97
231.879	5.44
232.263	6.34
232.646	7.71
233.03	6.44
233.413	6.73
233.797	6.3
234.18	8.73
234.563	3.63
234.946	6.11
235.33	4.32
235.713	7.73
236.096	3.77
236.479	5.04
236.862	5.31
237.245	7.77
237.628	5.06
238.011	5.58
238.394	6.96
238.777	6.54
239.16	7.24
239.543	5.57
239.925	5.39
240.308	6.54
240.691	7.43
241.073	4.76
241.456	5.39
241.838	7.26
242.221	6.38
242.603	7.25
242.986	5.99
243.368	5.87
243.75	6.25
244.133	6.02
244.515	6.28
244.897	6.15
245.279	6.1
245.661	6.29
246.043	5.98
246.425	4.93
246.807	5.05
247.189	6.61
247.571	6.48
247.953	5.61
248.335	5.94
248.717	5.94
249.098	5.74
249.48	5.71
249.862	5.79
250.243	5.99
250.625	5.53
251.006	6.22
251.388	4.98
251.769	6.07
252.151	5.15
252.532	5.85
252.913	6.57
253.295	5.87
253.676	5.84
254.057	5.64
254.438	5.5
254.819	5.53
255.2	5.21
255.581	6.9
255.962	4.86
256.343	6.92
256.724	5.64
257.105	6.28
257.486	4.35
257.867	5.98
258.247	5.9
258.628	5.16
259.009	5.1
259.389	5.17
259.77	4.53
260.15	5.33
260.531	5.76
260.911	5.18
261.292	5.07
261.672	5.17
262.052	5.34
262.432	5.2
262.813	5.13
263.193	5.56
263.573	5.27
263.953	5.33
264.333	5.43
264.713	5.37
265.093	5.25
265.473	5.76
265.853	5.12
266.233	5.12
266.612	5.45
266.992	5.94
267.372	5.28
267.752	5.46
268.131	5.54
268.511	5.11
268.89	4.99
269.27	5.48
269.649	4.82
270.029	5.39
270.408	5.62
270.787	5.1
271.167	5
271.546	4.57
271.925	5
272.304	4.98
272.683	4.9
273.062	4.71
273.441	4.94
273.82	5.26
274.199	4.55
274.578	4.8
274.957	4.63
275.336	4.98
275.715	5
276.093	6.1
276.472	5.86
276.851	5.73
277.229	4.6
277.608	5.13
277.986	4.35
278.365	5.17
278.743	5.58
279.122	4.71
279.5	4.51
279.878	5.08
280.257	4.69
280.635	4.21
281.013	4.86
281.391	4.99
281.769	4.83
282.147	4.91
282.525	4.9
282.903	4.74
283.281	4.82
283.659	4.71
284.037	4.8
284.415	4.75
284.792	4.82
285.17	4.86
285.548	4.62
285.925	5.56
286.303	5.46
286.68	4.75
287.058	4.78
287.435	4.61
287.813	4.9
288.19	4.72
288.567	4.89
288.945	4.77
289.322	4.98
289.699	5.24
290.076	4.59
290.453	4.69
290.83	4.59
291.207	4.72
291.584	4.89
291.961	4.78
292.338	4.86
292.715	4.58
293.092	4.42
293.469	4.93
293.845	5.03
294.222	4.78
294.599	4.51
294.975	4.97
295.352	4.88
295.728	4.83
296.105	4.76
296.481	4.48
296.858	4.69
297.234	4.43
297.61	4.26
297.986	4.89
298.363	4.39
298.739	4.76
299.115	4.56
299.491	4.88
299.867	4.71
300.243	4.48
300.619	4.96
300.995	4.52
301.371	4.22
301.746	5.04
302.122	4.52
302.498	5.12
302.874	3.98
303.249	4.81
303.625	4.58
304	4.41
304.376	4.11
304.751	4.3
305.127	4.56
305.502	4.75
305.878	4.95
306.253	4.91
306.628	4.78
307.003	4.49
307.378	5.08
307.754	4.87
308.129	4.57
308.504	4.37
308.879	5.05
309.254	4.69
309.629	4.93
310.003	4.73
310.378	4.42
310.753	4.57
311.128	4.02
311.502	4.03
311.877	4.4
312.252	4.63
312.626	4.36
313.001	4.47
313.375	4.81
313.75	4.2
314.124	4.1
314.498	4.8
314.873	4.9
315.247	4.55
315.621	4.53
315.995	4.61
316.369	4.49
316.743	4.31
317.117	4.28
317.491	4.31
317.865	4.9
318.239	5.33
318.613	4.1
318.987	4.03
319.361	4.43
319.734	4.26
320.108	4.76
320.482	4.47
320.855	4.16
321.229	4.94
321.602	4.6
321.976	5.12
322.349	4.09
322.723	4.64
323.096	4.52
323.469	4.57
323.843	4.56
324.216	4.71
324.589	4.51
324.962	4.45
325.335	4.66
325.708	4.79
326.081	4.42
326.454	4.43
326.827	4.08
327.2	4.04
327.573	5.07
327.945	4.3
328.318	3.85
328.691	4.86
329.063	4.79
329.436	4.38
329.809	4.88
330.181	4.48
330.553	4.11
330.926	4.14
331.298	4.51
331.671	4.9
332.043	4.32
332.415	4.43
332.787	4.19
333.159	4.14
333.532	4.55
333.904	4.11
334.276	3.61
334.648	4.39
335.02	4.26
335.391	4.3
335.763	4.43
336.135	4.87
336.507	4.53
336.879	4.28
337.25	4.42
337.622	4.53
337.993	4.25
338.365	4
338.736	4.87
339.108	5.01
339.479	4.17
339.851	4.96
340.222	4.83
340.593	4.17
340.964	4.7
341.336	4.07
341.707	4.86
342.078	4.4
342.449	4.48
342.82	4.21
343.191	4.68
343.562	4.22
343.933	4.71
344.303	4.07
344.674	4.6
345.045	4.76
345.416	4.49
345.786	4.91
346.157	4.2
346.527	4.48
346.898	4.76
347.268	4.58
347.639	4.39
348.009	4.28
348.38	4.32
348.75	4.32
349.12	4.63
349.49	4.77
349.861	4.87
350.231	4.57
350.601	4.54
350.971	4.48
351.341	4.34
351.711	4.47
352.081	4.39
352.45	4.11
352.82	4.15
353.19	4.7
353.56	4.91
353.929	4.45
354.299	4.52
354.669	4.61
355.038	4.65
355.408	4.13
355.777	4.36
356.147	4.45
356.516	4.54
356.885	4.56
357.254	4.38
357.624	4.41
357.993	4.85
358.362	4.6
358.731	4.63
359.1	4.29
359.469	4.57
359.838	4.37
360.207	4.56
360.576	4.76
360.945	4.34
361.314	4.75
361.682	4.67
362.051	4.77
362.42	4.61
362.788	4.54
363.157	4.41
363.525	4.71
363.894	4.61
364.262	4.45
364.631	4.69
364.999	4.43
365.367	4.92
365.735	4.75
366.104	5.05
366.472	4.84
366.84	4.66
367.208	4.9
367.576	4.87
367.944	4.2
368.312	4.88
368.68	4.58
369.048	4.75
369.416	4.62
369.783	4.42
370.151	4.69
370.519	4.44
370.886	4.6
371.254	5.11
371.621	4.95
371.989	4.9
372.356	5.38
372.724	4.65
373.091	4.84
373.458	4.41
373.826	4.57
374.193	5.02
374.56	4.77
374.927	4.72
375.294	4.81
375.661	4.73
376.028	4.79
376.395	4.83
376.762	4.45
377.129	4.69
377.496	4.98
377.863	5
378.229	4.62
378.596	4.86
378.963	5.08
379.329	5.11
379.696	4.64
380.062	4.54
380.429	4.55
380.795	4.45
381.161	5.13
381.528	5.01
381.894	4.91
382.26	4.62
382.626	4.9
382.993	5.04
383.359	4.83
383.725	5.13
384.091	4.94
384.457	4.83
384.823	4.8
385.188	4.99
385.554	5.08
385.92	5.13
386.286	5.01
386.651	4.99
387.017	5.2
387.383	4.88
387.748	5.13
388.114	5.04
388.479	4.9
388.845	4.99
389.21	4.66
389.575	4.89
389.94	4.72
390.306	4.82
390.671	4.9
391.036	4.89
391.401	4.96
391.766	5.04
392.131	4.82
392.496	5.07
392.861	4.89
393.226	4.91
393.591	4.89
393.956	4.87
394.32	5.06
394.685	4.67
395.05	5.01
395.414	5.06
395.779	4.74
396.143	4.68
396.508	5.02
396.872	4.99
397.236	5.18
397.601	4.95
397.965	5.23
398.329	4.88
398.694	5.22
399.058	5.06
399.422	5.12
399.786	5.25
400.15	5.01
400.514	4.84
400.878	5
401.242	4.89
401.605	5.14
401.969	5.32
402.333	5.1
402.697	4.73
403.06	5.18
403.424	5.12
403.787	5
404.151	5.04
404.514	4.87
404.878	4.93
405.241	5.11
405.604	4.93
405.968	4.91
406.331	5.12
406.694	4.95
407.057	4.92
407.42	4.99
407.783	5.03
408.146	5.13
408.509	5.05
408.872	4.99
409.235	5.27
409.598	5.54
409.961	5.35
410.323	4.88
410.686	5.03
411.049	5.18
411.411	5.13
411.774	5.15
412.136	5.17
412.499	5.19
412.861	5.1
413.223	5.16
413.586	5.42
413.948	5.07
414.31	5.18
414.672	5.08
415.035	5.39
415.397	5.22
415.759	5.35
416.121	5.23
416.483	4.95
416.845	5.06
417.206	5.06
417.568	5.12
417.93	5.16
418.292	5.15
418.653	5.06
419.015	5.1
419.377	4.96
419.738	5.16
420.1	5.11
420.461	5.02
420.822	5.08
421.184	5.18
421.545	5.12
421.906	5.14
422.267	4.99
422.629	4.97
422.99	5.07
423.351	4.95
423.712	5.03
424.073	5
424.434	5.11
424.795	5.14
425.155	5.1
425.516	5.15
425.877	5.07
426.238	5.1
426.598	5.04
426.959	5.06
427.32	5.11
427.68	5.15
428.041	5.13
428.401	5.22
428.761	5.27
429.122	5.05
429.482	5.21
429.842	5.51
430.202	5.22
430.563	4.97
430.923	5.33
431.283	5.32
431.643	5.17
432.003	5.27
432.363	5.35
432.722	5.32
433.082	5.01
433.442	5.07
433.802	5.18
434.161	5.19
434.521	5.31
434.881	5.26
435.24	5.13
435.6	5.12
435.959	5.27
436.319	5.13
436.678	5.2
437.037	5.28
437.396	5.29
437.756	5.14
438.115	5.22
438.474	5.17
438.833	5.31
439.192	5.3
439.551	5.17
439.91	5.3
440.269	5.17
440.628	5.2
440.987	5.16
441.345	5.22
441.704	5.12
442.063	5.16
442.421	5.02
442.78	5.11
443.138	5.14
443.497	5.15
443.855	5.11
444.214	5.18
444.572	5.13
444.93	5.01
445.288	5.37
445.647	5.4
446.005	5.17
446.363	5.17
446.721	5.13
447.079	5.02
447.437	5.19
447.795	5.17
448.153	5.04
448.51	5.1
448.868	5.06
449.226	5.13
449.584	5.09
449.941	5.11
450.299	5.13
450.656	5.27
451.014	5.29
451.371	5.07
451.729	5.22
452.086	5.22
452.443	5.11
452.801	5.26
453.158	5.25
453.515	5.21
453.872	5.26
454.229	5.37
454.586	5.14
454.943	5.23
455.3	5.18
455.657	5.28
456.014	5.41
456.371	5.22
456.727	5.25
457.084	5.16
457.441	5.34
457.797	5.17
458.154	5.24
458.51	5.3
458.867	5.46
459.223	5.21
459.58	5.08
459.936	5.14
460.292	5.05
460.648	5.19
461.005	5.29
461.361	5.15
461.717	5.12
462.073	5.21
462.429	5.11
462.785	5.24
463.141	5.3
463.496	5.3
463.852	5.28
464.208	5.22
464.564	5.28
464.919	5.24
465.275	5.26
465.631	4.98
465.986	5.16
466.342	5.23
466.697	5.23
467.052	5.35
467.408	5.28
467.763	5.2
468.118	5.08
468.473	5.24
468.829	5.2
469.184	5.31
469.539	5.15
469.894	5.36
470.249	5.25
470.603	5.21
470.958	5.3
471.313	5.41
471.668	5.28
472.023	5.3
472.377	5.17
472.732	5.35
473.086	5.31
473.441	5.38
473.795	5.46
474.15	5.21
474.504	5.31
474.859	5.25
475.213	5.38
475.567	5.16
475.921	5.42
476.275	5.16
476.63	5.22
476.984	5.2
477.338	5.2
477.692	5.39
478.045	5.17
478.399	5.28
478.753	5.34
479.107	5.19
479.461	5.25
479.814	5.21
480.168	5.17
480.521	5.23
480.875	5.27
481.228	5.42
481.582	5.17
481.935	5.33
482.289	5.28
482.642	5.03
482.995	5.32
483.348	5.13
483.701	5.11
484.055	5.14
484.408	5.08
484.761	5.05
485.114	4.93
485.466	4.87
485.819	4.88
486.172	4.94
486.525	5.05
486.878	5.02
487.23	5.1
487.583	5.12
487.936	5.17
488.288	5.08
488.641	5.05
488.993	4.97
489.345	4.98
489.698	4.96
490.05	5.01
490.402	4.99
490.754	5.14
491.107	5.19
491.459	5.12
491.811	5.09
492.163	5.22
492.515	5.15
492.866	5.05
493.218	4.98
493.57	4.98
493.922	5.03
494.274	5.08
494.625	5.18
494.977	5.14
495.328	5.32
495.68	5.27
496.031	5.21
496.383	5.21
496.734	5.33
497.086	5.32
497.437	5.45
497.788	5.22
498.139	5.13
498.49	5.14
498.842	5.14
499.193	5.17
499.544	5.18
499.894	5.22
500.245	5.28
500.596	5.24
500.947	5.18
501.298	5.26
501.648	5.33
501.999	5.29
502.35	5.44
502.7	5.17
503.051	5.15
503.401	5.16
503.752	5.23
504.102	5.36
504.452	5.25
504.803	5.23
505.153	5.25
505.503	5.24
505.853	5.35
506.203	5.29
506.553	5.18
506.903	5.32
507.253	5.32
507.603	5.32
507.953	5.26
508.303	5.24
508.652	5.3
509.002	5.29
509.352	5.29
509.701	5.28
510.051	5.32
510.4	5.39
510.75	5.13
511.099	5.22
511.449	5.2
511.798	5.3
512.147	5.26
512.496	5.27
512.846	5.28
513.195	5.22
513.544	5.4
513.893	5.28
514.242	5.29
514.591	5.27
514.939	5.34
515.288	5.32
515.637	5.28
515.986	5.38
516.334	5.17
516.683	5.2
517.032	5.26
517.38	5.25
517.729	5.23
518.077	5.09
518.426	5.31
518.774	5.31
519.122	5.24
519.47	5.25
519.819	5.27
520.167	5.2
520.515	5.18
520.863	5.19
521.211	5.18
521.559	5.2
521.907	5.18
522.255	5.25
522.602	5.22
522.95	5.16
523.298	5.22
523.645	5.25
523.993	5.31
524.341	5.44
524.688	5.19
525.036	5.42
525.383	5.14
525.73	5.35
526.078	5.26
526.425	5.27
526.772	5.19
527.119	5.21
527.466	5.08
527.814	5.17
528.161	5.2
528.508	5.22
528.854	5.28
529.201	5.19
529.548	5.18
529.895	5.08
530.242	4.95
530.588	4.99
530.935	5.04
531.282	4.99
531.628	5.09
531.975	5.14
532.321	5.19
532.667	5.22
533.014	5.2
533.36	5.21
533.706	5.19
534.052	5.3
534.399	5.18
534.745	5.11
535.091	5.09
535.437	5.1
535.783	5.11
536.129	5.19
536.474	5.14
536.82	5.18
537.166	5.22
537.512	5.18
537.857	5.21
538.203	5.19
538.549	5.15
538.894	5.15
539.239	5.18
539.585	5.26
539.93	5.34
540.276	5.31
540.621	5.32
540.966	5.23
541.311	5.38
541.656	5.22
542.001	5.34
542.346	5.25
542.691	5.14
543.036	5.1
543.381	5.09
543.726	5.21
544.071	5.12
544.415	5.22
544.76	5.14
545.105	5.15
545.449	5.24
545.794	5.3
546.138	5.35
546.483	5.23
546.827	5.26
547.171	5.3
547.516	5.34
547.86	5.3
548.204	5.25
548.548	5.14
548.892	5.28
549.236	5.21
549.58	5.28
549.924	5.38
550.268	5.3
550.612	5.32
550.956	5.38
551.3	5.36
551.643	5.16
551.987	5.25
552.33	5.18
552.674	5.24
553.017	5.27
553.361	5.21
553.704	5.32
554.048	5.41
554.391	5.25
554.734	5.36
555.077	5.25
555.42	5.25
555.764	5.36
556.107	5.37
556.45	5.39
556.793	5.23
557.135	5.31
557.478	5.46
557.821	5.44
558.164	5.38
558.507	5.13
558.849	5.5
559.192	5.44
559.534	5.38
559.877	5.56
560.219	5.19
560.562	5.57
560.904	5.41
561.246	5.27
561.589	5.43
561.931	5.51
562.273	5.53
562.615	5.42
562.957	5.35
563.299	5.38
563.641	5.49
563.983	5.45
564.325	5.53
564.667	5.27
565.008	5.33
565.35	5.65
565.692	5.34
566.033	5.26
566.375	5.53
566.716	5.31
567.058	5.46
567.399	5.26
567.741	5.37
568.082	5.29
568.423	5.33
568.764	5.31
569.105	5.38
569.447	5.35
569.788	5.36
570.129	5.34
570.47	5.42
570.811	5.41
571.151	5.55
571.492	5.29
571.833	5.3
572.174	5.32
572.514	5.32
572.855	5.36
573.195	5.32
573.536	5.43
573.876	5.17
574.217	5.25
574.557	5.33
574.898	5.35
575.238	5.34
575.578	5.3
575.918	5.26
576.258	5.29
576.598	5.35
576.938	5.36
577.278	5.39
577.618	5.17
577.958	5.54
578.298	5.39
578.638	5.43
578.977	5.44
579.317	5.29
579.657	5.63
579.996	5.28
580.336	5.35
580.675	5.5
581.014	5.35
581.354	5.47
581.693	5.4
582.032	5.33
582.372	5.44
582.711	5.31
583.05	5.48
583.389	5.44
583.728	5.46
584.067	5.53
584.406	5.25
584.745	5.51
585.083	5.22
585.422	5.39
585.761	5.26
586.1	5.44
586.438	5.33
586.777	5.39
587.115	5.49
587.454	5.45
587.792	5.21
588.13	5.6
588.469	5.48
588.807	5.11
589.145	5.5
589.483	5.55
589.821	5.42
590.159	5.53
590.497	5.16
590.835	5.24
591.173	5.48
591.511	5.37
591.849	5.08
592.187	5.23
592.524	5.81
592.862	5.52
593.2	5.56
593.537	5.59
593.875	5.44
594.212	5.55
594.55	5.01
594.887	5.46
595.224	5.22
595.561	5.44
595.899	5.15
596.236	5.24
596.573	5.36
596.91	5.51
597.247	5.43
597.584	5.38
597.921	5.19
598.258	5.07
598.594	5.23
598.931	5.43
599.268	5.22
599.604	5.09
599.941	5.33
600.277	5.28
600.614	5.45
600.95	5.22
601.287	5.23
601.623	5.04
601.959	5.23
602.296	5.37
602.632	5.27
602.968	5.04
603.304	5.42
603.64	5.33
603.976	5.15
604.312	5.32
604.648	5.24
604.984	5.14
605.319	5.3
605.655	5.05
605.991	5.29
606.326	5.28
606.662	5.24
606.998	5.51
607.333	5.23
607.668	5.39
608.004	5.53
608.339	5.26
608.674	5.37
609.01	5.19
609.345	5.44
609.68	5.49
610.015	5.53
610.35	5.41
610.685	5.35
611.02	5.46
611.355	5.17
611.689	5.2
612.024	5.43
612.359	5.36
612.694	5.39
613.028	5.54
613.363	5.5
613.697	5.25
614.032	5.21
614.366	5.58
614.7	5.32
615.035	5.47
615.369	5.2
615.703	5.2
616.037	5.21
616.371	5.55
616.705	5.31
617.039	5.22
617.373	5.43
617.707	5.69
618.041	5.65
618.375	5.7
618.709	5.14
619.042	5.39
619.376	5.61
619.71	5.6
620.043	5.43
620.377	5.13
620.71	4.96
621.043	5.48
621.377	5
621.71	5.6
622.043	5.24
622.376	5.35
622.709	5.31
623.043	5.2
623.376	5.25
623.709	5.25
624.041	5.13
624.374	5.22
624.707	5.44
625.04	5.4
625.373	5.5
625.705	5.34
626.038	5.43
626.37	4.99
626.703	5.21
627.035	5.3
627.368	5.19
627.7	5.29
628.032	5.19
628.365	5.19
628.697	5.04
629.029	5.5
629.361	5.46
629.693	5.34
630.025	5.22
630.357	5.45
630.689	5.08
631.021	5.35
631.353	5.79
631.684	5.36
632.016	5.69
632.348	5.42
632.679	5.6
633.011	5.49
633.342	5.43
633.674	5.49
634.005	5.38
634.336	5.5
634.668	5.61
634.999	5.28
635.33	5.4
635.661	5.23
635.992	5.46
636.323	5.29
636.654	5.62
636.985	5.48
637.316	5.18
637.647	5.26
637.977	5.36
638.308	5.39
638.639	4.94
638.969	5.49
639.3	5.31
639.63	5.1
639.961	5.64
640.291	5.63
640.622	5.57
640.952	5.09
641.282	5.38
641.612	5.34
641.943	5.22
642.273	5.48
642.603	5.58
642.933	5.36
643.263	5.3
643.592	5
643.922	4.99
644.252	5.98
644.582	5.57
644.911	5.07
645.241	5.2
645.571	5.41
645.9	5.37
646.23	5.67
646.559	5.11
646.888	5.3
647.218	5.4
647.547	5.43
647.876	5.4
648.205	5.7
648.534	5.27
648.863	5.9
649.192	5.36
649.521	5.21
649.85	5.28
650.179	5.21
650.508	5.35
650.837	5.78
651.165	5.76
651.494	5.47
651.822	5.13
652.151	5.64
652.479	5.64
652.808	5.14
653.136	5.32
653.465	5.22
653.793	5.6
654.121	4.84
654.449	5.05
654.777	5.24
655.105	5.43
655.433	5.42
655.761	5.13
656.089	5.5
656.417	5.07
656.745	5.23
657.073	4.89
657.4	5.67
657.728	5.4
658.056	5.82
658.383	5.44
658.711	5.54
659.038	5.45
659.365	5.23
659.693	5.68
660.02	5.28
660.347	5.49
660.674	5.22
661.001	5.77
661.329	5.18
661.656	5.33
661.982	5.37
662.309	5.43
662.636	5.66
662.963	5.61
663.29	5.27
663.616	5.82
663.943	5.33
664.27	5.38
664.596	5.35
664.923	6.32
665.249	5.95
665.576	5.76
665.902	5.09
666.228	5.25
666.554	5.09
666.881	5.31
667.207	5.34
667.533	5.63
667.859	5.62
668.185	5.22
668.511	4.96
668.837	6.04
669.162	5.73
669.488	5.37
669.814	5.68
670.139	5.4
670.465	5.79
670.791	5.37
671.116	5.47
671.442	5.53
671.767	5.07
672.092	4.97
672.418	5.24
672.743	5.18
673.068	4.95
673.393	5.32
673.718	5.45
674.043	5.8
674.368	5.3
674.693	5.48
675.018	6.14
675.343	6
675.667	5.53
675.992	5.76
676.317	5.99
676.641	5.6
676.966	5.41
677.29	5.15
677.615	5.91
677.939	5.19
678.264	5.2
678.588	4.96
678.912	5.86
679.236	5.04
679.56	5.29
679.885	6.29
680.209	5.34
680.532	5.23
680.856	5.56
681.18	5.15
681.504	6.01
681.828	5.39
682.152	5.88
682.475	5.34
682.799	5.7
683.122	5.58
683.446	5.81
683.769	5.16
684.093	5.97
684.416	6.13
684.739	5.83
685.062	5.16
685.386	5.58
685.709	4.66
686.032	5.73
686.355	6.07
686.678	5.96
687.001	5.45
687.324	6.18
687.646	5.44
687.969	5.63
688.292	4.68
688.614	5.88
688.937	5.61
689.26	5.52
689.582	5.65
689.904	6.1
690.227	5.3
690.549	5.18
690.871	6.01
691.194	5.59
691.516	5.65
691.838	5.59
692.16	5.57
692.482	5.51
692.804	5.32
693.126	6.43
