Data from 97283_forehead_Reflection__4__40.txt Node

Date: Fri Sep 23 20:00:26 CDT 2022
User: ToomeyLab
Spectrometer: FLMS14357
Trigger mode: 0
Integration Time (sec): 1.000000E-2
Scans to average: 100
Electric dark correction enabled: true
Nonlinearity correction enabled: false
Boxcar width: 0
XAxis mode: Wavelengths
Number of Pixels in Spectrum: 2048
>>>>>Begin Spectral Data<<<<<
189.047	-1.19
189.435	-1.19
189.823	-1.19
190.211	-52.5
190.599	-563.36
190.987	122.49
191.375	1423.37
191.763	129.42
192.151	-64.01
192.538	205.84
192.926	100.1
193.314	68.49
193.702	144.42
194.089	-157.85
194.477	121.09
194.864	-151.74
195.252	-31.87
195.639	146.67
196.027	317.89
196.414	286.09
196.801	76.36
197.189	-3.72
197.576	-256.45
197.963	97.69
198.351	39.1
198.738	-36.14
199.125	18.97
199.512	0.97
199.899	44.15
200.286	-14.9
200.673	22.92
201.06	29
201.447	44.76
201.833	54.31
202.22	70.09
202.607	35.23
202.994	-0.74
203.38	-51.06
203.767	-25.07
204.154	7.84
204.54	35.33
204.927	4.71
205.313	29.26
205.699	-6.03
206.086	5.49
206.472	23.04
206.858	49.24
207.245	11.28
207.631	12.17
208.017	14.22
208.403	8.04
208.789	14.47
209.175	42.53
209.561	6.64
209.947	-4.62
210.333	-20.65
210.719	9.91
211.105	37.07
211.491	17.09
211.876	-1.75
212.262	1.25
212.648	7.41
213.034	26.75
213.419	-2.28
213.805	31.63
214.19	6.96
214.576	15.82
214.961	7.87
215.346	-19.51
215.732	30.24
216.117	-10.01
216.502	-3.06
216.888	18.74
217.273	19.53
217.658	5.4
218.043	28.34
218.428	18.23
218.813	9.91
219.198	4.15
219.583	18.1
219.968	22.42
220.353	1.81
220.738	27.28
221.122	4.48
221.507	3.52
221.892	-12.5
222.276	-8.38
222.661	-7.54
223.046	11.61
223.43	-8.87
223.815	4.69
224.199	9.62
224.583	4.77
224.968	-0.96
225.352	9
225.736	5.85
226.121	12.26
226.505	6.13
226.889	6.48
227.273	7.72
227.657	-3.48
228.041	1.8
228.425	4.93
228.809	-0.02
229.193	4.01
229.577	4.24
229.961	2.21
230.344	3.12
230.728	2.3
231.112	2.21
231.495	2.15
231.879	-0.13
232.263	3.28
232.646	2.21
233.03	3.55
233.413	3.19
233.797	2.13
234.18	6.27
234.563	2.38
234.946	3.5
235.33	1.75
235.713	4.33
236.096	0.85
236.479	2.1
236.862	3.95
237.245	3.26
237.628	3.14
238.011	2.28
238.394	2.56
238.777	3.5
239.16	2.2
239.543	3.8
239.925	4.19
240.308	4.76
240.691	4.66
241.073	1.14
241.456	2.62
241.838	4.54
242.221	3.37
242.603	3.88
242.986	2.2
243.368	2.53
243.75	2.87
244.133	2.88
244.515	2.67
244.897	2.95
245.279	3.39
245.661	3.45
246.043	3.64
246.425	2.58
246.807	2.68
247.189	2.73
247.571	3.28
247.953	2.37
248.335	2.86
248.717	2.91
249.098	2.74
249.48	2.64
249.862	2.74
250.243	3.04
250.625	2.96
251.006	2.93
251.388	2.63
251.769	2.64
252.151	2.06
252.532	2.52
252.913	3.75
253.295	3.1
253.676	3.41
254.057	2.69
254.438	3.1
254.819	3.54
255.2	2.93
255.581	2.54
255.962	2.69
256.343	3.67
256.724	3.22
257.105	3.32
257.486	3.05
257.867	3.64
258.247	2.93
258.628	2.65
259.009	2.72
259.389	3.25
259.77	2.2
260.15	2.51
260.531	3.16
260.911	3.05
261.292	2.76
261.672	2.87
262.052	2.58
262.432	2.79
262.813	2.54
263.193	2.72
263.573	2.85
263.953	2.64
264.333	2.66
264.713	2.57
265.093	3.56
265.473	3.2
265.853	3.26
266.233	2.71
266.612	2.52
266.992	3.52
267.372	3.04
267.752	2.98
268.131	3.46
268.511	2.46
268.89	2.83
269.27	3.05
269.649	2.98
270.029	2.59
270.408	3
270.787	1.96
271.167	2.87
271.546	3.27
271.925	2.69
272.304	2.76
272.683	2.77
273.062	2.62
273.441	2.79
273.82	2.92
274.199	2.48
274.578	2.46
274.957	2.17
275.336	2.86
275.715	2.2
276.093	3.51
276.472	3.74
276.851	3.06
277.229	2.57
277.608	2.96
277.986	1.9
278.365	2.86
278.743	3.45
279.122	2.14
279.5	2.9
279.878	2.84
280.257	2.07
280.635	2.48
281.013	2.39
281.391	2.74
281.769	3.26
282.147	2.59
282.525	2.84
282.903	2.62
283.281	3.03
283.659	2.69
284.037	2.93
284.415	2.85
284.792	2.89
285.17	2.59
285.548	2.72
285.925	3.02
286.303	3.48
286.68	2.57
287.058	2.83
287.435	2.79
287.813	3.23
288.19	2.57
288.567	2.87
288.945	2.85
289.322	2.97
289.699	2.97
290.076	3.06
290.453	2.73
290.83	3.02
291.207	3.06
291.584	3.05
291.961	2.87
292.338	3.06
292.715	3.01
293.092	3.01
293.469	2.89
293.845	3.68
294.222	3.94
294.599	3.68
294.975	2.99
295.352	3.22
295.728	3.06
296.105	2.89
296.481	3.32
296.858	3.06
297.234	3.55
297.61	2.92
297.986	3.06
298.363	3.22
298.739	3.28
299.115	3.2
299.491	3.19
299.867	3.31
300.243	3.32
300.619	3.84
300.995	3.95
301.371	3.35
301.746	4.32
302.122	3.31
302.498	3.41
302.874	3.29
303.249	3.66
303.625	3.36
304	3.73
304.376	3.46
304.751	3.35
305.127	3.36
305.502	4.04
305.878	3.6
306.253	3.72
306.628	3.8
307.003	3.53
307.378	3.96
307.754	3.95
308.129	3.42
308.504	4.26
308.879	3.94
309.254	4.42
309.629	4.81
310.003	3.94
310.378	4.4
310.753	3.88
311.128	3.97
311.502	3.73
311.877	3.96
312.252	4.2
312.626	3.87
313.001	4.15
313.375	4.06
313.75	4.24
314.124	4.2
314.498	4.44
314.873	4.75
315.247	4.61
315.621	4.66
315.995	4.65
316.369	4.57
316.743	4.13
317.117	4.21
317.491	4.81
317.865	5.1
318.239	5.12
318.613	4.29
318.987	4.06
319.361	4.64
319.734	5.04
320.108	4.79
320.482	4.96
320.855	4.91
321.229	5.28
321.602	4.82
321.976	5.05
322.349	4.96
322.723	5.84
323.096	5.41
323.469	4.88
323.843	4.74
324.216	5.5
324.589	5.49
324.962	5.7
325.335	4.83
325.708	5.99
326.081	4.92
326.454	5.48
326.827	5.05
327.2	5.3
327.573	5.95
327.945	5.78
328.318	4.81
328.691	5.77
329.063	5.79
329.436	5.59
329.809	6.49
330.181	5.95
330.553	5.41
330.926	5.05
331.298	5.85
331.671	6.05
332.043	5.85
332.415	5.6
332.787	6.1
333.159	6.18
333.532	5.33
333.904	5.57
334.276	5.7
334.648	5.26
335.02	5.62
335.391	5.91
335.763	5.59
336.135	5.64
336.507	6.46
336.879	5.38
337.25	6.76
337.622	6.11
337.993	6.22
338.365	6.38
338.736	6.57
339.108	6.82
339.479	6.12
339.851	6.57
340.222	6.52
340.593	5.94
340.964	6.63
341.336	6.35
341.707	6.56
342.078	6.19
342.449	6.08
342.82	6.66
343.191	6.25
343.562	6.22
343.933	6.76
344.303	6.04
344.674	6.45
345.045	6.98
345.416	6.41
345.786	7
346.157	6.51
346.527	6.69
346.898	7.08
347.268	6.53
347.639	6.44
348.009	6.7
348.38	6.92
348.75	6.63
349.12	7
349.49	7.24
349.861	6.92
350.231	6.56
350.601	6.97
350.971	6.81
351.341	6.94
351.711	7.35
352.081	6.62
352.45	6.81
352.82	6.86
353.19	7.42
353.56	7.26
353.929	6.92
354.299	7.58
354.669	7.21
355.038	7.7
355.408	7.17
355.777	7.47
356.147	7.1
356.516	7.64
356.885	7.1
357.254	7.14
357.624	7.62
357.993	7.61
358.362	7.43
358.731	7.23
359.1	7.39
359.469	7.14
359.838	7.46
360.207	7.86
360.576	7.6
360.945	7.56
361.314	7.75
361.682	7.46
362.051	7.82
362.42	7.89
362.788	7.74
363.157	7.74
363.525	8.07
363.894	7.85
364.262	7.89
364.631	7.9
364.999	8.09
365.367	8.16
365.735	8.25
366.104	8.01
366.472	8.06
366.84	8.32
367.208	8.35
367.576	8.21
367.944	8.23
368.312	8.61
368.68	8.39
369.048	8.38
369.416	8.3
369.783	7.88
370.151	8.31
370.519	8.27
370.886	8.62
371.254	8.82
371.621	8.76
371.989	8.14
372.356	8.81
372.724	8.65
373.091	8.63
373.458	8.67
373.826	8.67
374.193	8.88
374.56	8.75
374.927	8.71
375.294	9.1
375.661	8.97
376.028	8.92
376.395	8.91
376.762	9
377.129	8.6
377.496	9.11
377.863	9.29
378.229	9.01
378.596	9.12
378.963	9.27
379.329	9.46
379.696	9.32
380.062	9.34
380.429	9.17
380.795	9.09
381.161	9.44
381.528	9.19
381.894	9.33
382.26	9.35
382.626	9.13
382.993	9.62
383.359	9.5
383.725	9.87
384.091	9.58
384.457	9.63
384.823	9.54
385.188	9.8
385.554	10.18
385.92	9.87
386.286	9.84
386.651	9.88
387.017	10.11
387.383	9.93
387.748	9.92
388.114	10.03
388.479	9.82
388.845	10.23
389.21	10.11
389.575	9.95
389.94	9.98
390.306	10.13
390.671	10.03
391.036	10.26
391.401	10.53
391.766	10.14
392.131	10.25
392.496	10.15
392.861	10.38
393.226	10.34
393.591	10.31
393.956	10.35
394.32	10.44
394.685	10.19
395.05	10.56
395.414	10.72
395.779	10.25
396.143	10.35
396.508	10.5
396.872	10.62
397.236	10.71
397.601	10.79
397.965	10.76
398.329	10.95
398.694	10.73
399.058	10.85
399.422	11.04
399.786	11.05
400.15	10.8
400.514	10.75
400.878	11.13
401.242	10.81
401.605	11.17
401.969	11.07
402.333	10.65
402.697	10.7
403.06	11.27
403.424	11.1
403.787	11.1
404.151	11.22
404.514	11.15
404.878	11.04
405.241	11.17
405.604	11.27
405.968	11.07
406.331	11.17
406.694	11.35
407.057	11.06
407.42	11.26
407.783	11.39
408.146	11.34
408.509	11.42
408.872	11.39
409.235	11.3
409.598	11.62
409.961	11.53
410.323	11.64
410.686	11.47
411.049	11.47
411.411	11.45
411.774	11.29
412.136	11.51
412.499	11.57
412.861	11.68
413.223	11.72
413.586	11.73
413.948	11.74
414.31	11.69
414.672	11.99
415.035	12.09
415.397	11.85
415.759	12.1
416.121	12.29
416.483	11.87
416.845	11.88
417.206	11.91
417.568	12.02
417.93	12.02
418.292	12.18
418.653	12.13
419.015	12.03
419.377	11.92
419.738	12.02
420.1	11.89
420.461	12.12
420.822	12.14
421.184	12.11
421.545	12.17
421.906	12.32
422.267	12.07
422.629	12.04
422.99	12.17
423.351	12.22
423.712	12.19
424.073	12.42
424.434	12.44
424.795	12.48
425.155	12.51
425.516	12.59
425.877	12.51
426.238	12.62
426.598	12.65
426.959	12.63
427.32	12.88
427.68	12.83
428.041	12.82
428.401	12.9
428.761	12.96
429.122	13.04
429.482	13
429.842	13.37
430.202	13.26
430.563	13.26
430.923	13.45
431.283	13.4
431.643	13.53
432.003	13.48
432.363	13.67
432.722	13.72
433.082	13.4
433.442	13.54
433.802	13.6
434.161	13.58
434.521	13.43
434.881	13.42
435.24	13.48
435.6	13.71
435.959	13.85
436.319	13.99
436.678	13.87
437.037	14.16
437.396	14.03
437.756	14.16
438.115	13.94
438.474	14.11
438.833	14.12
439.192	14.36
439.551	14.24
439.91	14.15
440.269	14.13
440.628	14.28
440.987	14.15
441.345	14.19
441.704	14.23
442.063	14.35
442.421	14.08
442.78	14.22
443.138	14.33
443.497	14.58
443.855	14.46
444.214	14.62
444.572	14.56
444.93	14.62
445.288	14.9
445.647	14.83
446.005	14.78
446.363	14.85
446.721	14.87
447.079	14.76
447.437	14.7
447.795	14.78
448.153	14.68
448.51	14.74
448.868	14.9
449.226	14.89
449.584	14.96
449.941	15.11
450.299	15.14
450.656	15.23
451.014	15.3
451.371	15.22
451.729	15.43
452.086	15.6
452.443	15.47
452.801	15.73
453.158	15.67
453.515	15.76
453.872	15.63
454.229	15.74
454.586	15.69
454.943	15.74
455.3	15.6
455.657	15.77
456.014	16.07
456.371	15.8
456.727	15.96
457.084	15.9
457.441	16.07
457.797	15.95
458.154	16.26
458.51	16.13
458.867	16.4
459.223	16.32
459.58	16.33
459.936	16.35
460.292	16.26
460.648	16.31
461.005	16.26
461.361	16.12
461.717	16.02
462.073	16.04
462.429	16.23
462.785	16.43
463.141	16.64
463.496	16.69
463.852	16.81
464.208	16.72
464.564	16.73
464.919	16.94
465.275	17.06
465.631	16.98
465.986	16.83
466.342	17
466.697	17.07
467.052	17.04
467.408	17.16
467.763	17.34
468.118	17.08
468.473	17.21
468.829	17.29
469.184	17.23
469.539	17.21
469.894	17.45
470.249	17.49
470.603	17.68
470.958	17.43
471.313	17.66
471.668	17.64
472.023	17.54
472.377	17.7
472.732	17.88
473.086	17.78
473.441	17.9
473.795	18.01
474.15	17.98
474.504	17.82
474.859	17.86
475.213	18.14
475.567	17.82
475.921	18.24
476.275	18.19
476.63	18.23
476.984	18.37
477.338	18.48
477.692	18.28
478.045	18.16
478.399	18.16
478.753	18.41
479.107	18.25
479.461	18.35
479.814	18.4
480.168	18.43
480.521	18.6
480.875	18.63
481.228	18.83
481.582	18.64
481.935	18.67
482.289	18.62
482.642	18.57
482.995	18.81
483.348	18.42
483.701	18.42
484.055	18.58
484.408	18.37
484.761	18.3
485.114	17.87
485.466	17.69
485.819	17.67
486.172	17.94
486.525	18.31
486.878	18.43
487.23	18.56
487.583	18.61
487.936	18.68
488.288	18.64
488.641	18.49
488.993	18.37
489.345	18.32
489.698	18.43
490.05	18.56
490.402	18.69
490.754	18.98
491.107	19.14
491.459	19.09
491.811	19.26
492.163	19.5
492.515	19.16
492.866	18.99
493.218	18.75
493.57	18.74
493.922	18.99
494.274	19.3
494.625	19.51
494.977	19.66
495.328	19.86
495.68	19.96
496.031	19.99
496.383	20.2
496.734	20.16
497.086	20.24
497.437	20.46
497.788	20.34
498.139	20.18
498.49	19.94
498.842	20.15
499.193	20.18
499.544	20.23
499.894	20.28
500.245	20.5
500.596	20.33
500.947	20.31
501.298	20.66
501.648	20.81
501.999	20.64
502.35	20.94
502.7	20.86
503.051	20.91
503.401	20.82
503.752	21.02
504.102	21.06
504.452	21.02
504.803	20.97
505.153	21.19
505.503	21.07
505.853	21.25
506.203	21.24
506.553	21.09
506.903	21.23
507.253	21.31
507.603	21.27
507.953	21.23
508.303	21.47
508.652	21.37
509.002	21.43
509.352	21.23
509.701	21.51
510.051	21.44
510.4	21.44
510.75	21.31
511.099	21.46
511.449	21.45
511.798	21.73
512.147	21.38
512.496	21.57
512.846	21.67
513.195	21.8
513.544	21.85
513.893	21.66
514.242	21.73
514.591	21.74
514.939	22.04
515.288	21.92
515.637	21.94
515.986	22.14
516.334	21.92
516.683	22.32
517.032	22.17
517.38	22.52
517.729	22.22
518.077	22.28
518.426	22.39
518.774	22.26
519.122	22.19
519.47	22.11
519.819	22.25
520.167	22.06
520.515	22.01
520.863	22.13
521.211	22.15
521.559	22.32
521.907	22.36
522.255	22.57
522.602	22.78
522.95	22.66
523.298	22.88
523.645	22.82
523.993	22.91
524.341	23.05
524.688	23.02
525.036	22.96
525.383	22.79
525.73	23.02
526.078	22.98
526.425	22.95
526.772	22.67
527.119	22.56
527.466	22.58
527.814	22.65
528.161	22.84
528.508	23.03
528.854	22.98
529.201	22.92
529.548	22.66
529.895	22.32
530.242	22
530.588	22.18
530.935	22.53
531.282	22.7
531.628	22.93
531.975	22.95
532.321	23.09
532.667	23.24
533.014	23.35
533.36	23.4
533.706	23.47
534.052	23.37
534.399	23.25
534.745	23
535.091	22.88
535.437	22.99
535.783	23.27
536.129	23.49
536.474	23.79
536.82	23.91
537.166	24.06
537.512	23.74
537.857	23.84
538.203	23.63
538.549	23.41
538.894	23.72
539.239	23.9
539.585	24.29
539.93	24.3
540.276	24.51
540.621	24.45
540.966	24.33
541.311	24.54
541.656	24.35
542.001	24.37
542.346	24.11
542.691	23.78
543.036	23.59
543.381	23.62
543.726	23.88
544.071	24.06
544.415	24.31
544.76	24.35
545.105	24.36
545.449	24.5
545.794	24.7
546.138	24.79
546.483	24.88
546.827	25.13
547.171	24.92
547.516	24.91
547.86	24.86
548.204	24.97
548.548	24.8
548.892	24.87
549.236	24.94
549.58	25.31
549.924	25.65
550.268	25.66
550.612	25.58
550.956	25.61
551.3	25.82
551.643	25.81
551.987	25.73
552.33	25.99
552.674	25.98
553.017	25.81
553.361	25.99
553.704	25.88
554.048	26.09
554.391	25.9
554.734	25.98
555.077	25.87
555.42	26.1
555.764	26.14
556.107	26.06
556.45	26.35
556.793	26.38
557.135	26.46
557.478	26.54
557.821	26.59
558.164	26.39
558.507	26.44
558.849	26.41
559.192	26.54
559.534	26.66
559.877	26.84
560.219	26.73
560.562	26.87
560.904	26.86
561.246	26.89
561.589	27.24
561.931	26.95
562.273	27
562.615	26.96
562.957	26.89
563.299	26.74
563.641	27.11
563.983	27.11
564.325	27.21
564.667	27.22
565.008	27.35
565.35	27.1
565.692	27.27
566.033	27.2
566.375	27.5
566.716	27.33
567.058	27.42
567.399	27.05
567.741	27.39
568.082	27.16
568.423	27.09
568.764	27.27
569.105	27.45
569.447	27.41
569.788	27.66
570.129	27.61
570.47	27.56
570.811	27.65
571.151	27.8
571.492	27.72
571.833	27.89
572.174	27.74
572.514	27.82
572.855	27.62
573.195	27.91
573.536	27.8
573.876	27.61
574.217	27.74
574.557	27.77
574.898	28.02
575.238	27.99
575.578	28.12
575.918	28.2
576.258	28.19
576.598	28.01
576.938	28
577.278	28.02
577.618	28.31
577.958	28.36
578.298	28.33
578.638	28.48
578.977	28.61
579.317	28.67
579.657	28.76
579.996	28.68
580.336	29
580.675	28.74
581.014	28.81
581.354	29.17
581.693	28.86
582.032	29.02
582.372	29.27
582.711	29.02
583.05	29.07
583.389	29.07
583.728	29.37
584.067	29.27
584.406	29.4
584.745	29.42
585.083	29.07
585.422	29.28
585.761	29.21
586.1	29.42
586.438	29.38
586.777	29.37
587.115	29.62
587.454	29.53
587.792	29.56
588.13	29.83
588.469	29.46
588.807	29.51
589.145	29.55
589.483	29.7
589.821	29.77
590.159	29.36
590.497	29.52
590.835	29.65
591.173	29.86
591.511	29.72
591.849	29.49
592.187	30.1
592.524	29.92
592.862	30.27
593.2	29.99
593.537	30.02
593.875	30.08
594.212	30.39
594.55	29.85
594.887	30.07
595.224	30.19
595.561	30.13
595.899	30.19
596.236	30.07
596.573	30.37
596.91	30.55
597.247	30.39
597.584	30.44
597.921	30.34
598.258	30.31
598.594	30.36
598.931	30.17
599.268	30.1
599.604	30.25
599.941	30.46
600.277	30.7
600.614	30.76
600.95	30.59
601.287	31.03
601.623	30.79
601.959	30.81
602.296	30.97
602.632	31.03
602.968	30.75
603.304	30.74
603.64	31.06
603.976	30.98
604.312	30.99
604.648	30.96
604.984	30.88
605.319	30.98
605.655	30.8
605.991	30.7
606.326	30.78
606.662	30.76
606.998	31.2
607.333	30.95
607.668	31.22
608.004	31.39
608.339	31.21
608.674	31.57
609.01	31.49
609.345	31.8
609.68	31.66
610.015	31.81
610.35	31.31
610.685	31.26
611.02	31.19
611.355	31.16
611.689	31.11
612.024	31.5
612.359	31.63
612.694	31.81
613.028	32.07
613.363	31.94
613.697	32.56
614.032	32.13
614.366	31.93
614.7	32.12
615.035	32.23
615.369	32.1
615.703	32.12
616.037	32.21
616.371	32.25
616.705	31.99
617.039	32.29
617.373	32.27
617.707	32.46
618.041	32.5
618.375	32.46
618.709	32.27
619.042	32.62
619.376	32.54
619.71	32.66
620.043	32.23
620.377	32.38
620.71	32.81
621.043	32.66
621.377	32.94
621.71	32.49
622.043	32.69
622.376	32.83
622.709	32.73
623.043	32.6
623.376	33.03
623.709	32.81
624.041	32.8
624.374	32.57
624.707	33.08
625.04	33.16
625.373	32.71
625.705	32.85
626.038	33.09
626.37	32.85
626.703	32.93
627.035	33.35
627.368	33.28
627.7	33.29
628.032	33
628.365	33.31
628.697	33.1
629.029	33.3
629.361	33.38
629.693	33.17
630.025	33.79
630.357	33.41
630.689	33.69
631.021	33.52
631.353	33.56
631.684	33.42
632.016	33.95
632.348	33.49
632.679	33.73
633.011	33.66
633.342	33.54
633.674	33.91
634.005	33.39
634.336	34.43
634.668	33.99
634.999	33.99
635.33	33.6
635.661	33.9
635.992	33.64
636.323	34.01
636.654	33.96
636.985	34.16
637.316	33.96
637.647	34.07
637.977	34.27
638.308	34.42
638.639	34.03
638.969	34.47
639.3	34.11
639.63	34.1
639.961	34.23
640.291	34.29
640.622	34.26
640.952	34.37
641.282	34.67
641.612	34.19
641.943	34
642.273	34.75
642.603	34.57
642.933	34.78
643.263	33.94
643.592	34.96
643.922	34.51
644.252	35.02
644.582	34.8
644.911	34.64
645.241	35.1
645.571	34.91
645.9	35.02
646.23	35.06
646.559	34.7
646.888	35
647.218	35.09
647.547	34.96
647.876	34.6
648.205	35.08
648.534	35.17
648.863	34.76
649.192	35.78
649.521	35.23
649.85	34.98
650.179	35.04
650.508	35.36
650.837	34.99
651.165	35.6
651.494	35.18
651.822	35.43
652.151	35.27
652.479	35.28
652.808	35.56
653.136	35.43
653.465	35.45
653.793	35.26
654.121	35.13
654.449	35.06
654.777	35.55
655.105	35.64
655.433	35.92
655.761	35.98
656.089	36.16
656.417	36.03
656.745	36.29
657.073	35.04
657.4	36.2
657.728	36.05
658.056	36.11
658.383	36.18
658.711	36.38
659.038	35.96
659.365	35.43
659.693	35.71
660.02	35.95
660.347	35.9
660.674	35.66
661.001	36.18
661.329	35.54
661.656	36.25
661.982	36.13
662.309	36.25
662.636	35.8
662.963	36.59
663.29	36.44
663.616	36.61
663.943	36.18
664.27	36.3
664.596	36.04
664.923	36.75
665.249	36.37
665.576	36.93
665.902	36.18
666.228	36.79
666.554	36.26
666.881	37.02
667.207	36.07
667.533	36.64
667.859	36.28
668.185	37.1
668.511	36.49
668.837	37.08
669.162	36.85
669.488	36.58
669.814	36.84
670.139	36.61
670.465	36.97
670.791	37.05
671.116	36.29
671.442	37.48
671.767	36.68
672.092	37.02
672.418	37.61
672.743	37.91
673.068	36.61
673.393	37.23
673.718	36.81
