Data from 97283_crown_Reflection__3__44.txt Node

Date: Fri Sep 23 20:01:32 CDT 2022
User: ToomeyLab
Spectrometer: FLMS14357
Trigger mode: 0
Integration Time (sec): 1.000000E-2
Scans to average: 100
Electric dark correction enabled: true
Nonlinearity correction enabled: false
Boxcar width: 0
XAxis mode: Wavelengths
Number of Pixels in Spectrum: 2048
>>>>>Begin Spectral Data<<<<<
189.047	8.44
189.435	8.44
189.823	8.44
190.211	77.58
190.599	1152.67
190.987	22.17
191.375	342.96
191.763	140.6
192.151	-16.49
192.538	402.79
192.926	129.56
193.314	3.08
193.702	94.92
194.089	-213.21
194.477	31.6
194.864	27.66
195.252	89.45
195.639	197.23
196.027	-113.64
196.414	461
196.801	62.98
197.189	84.01
197.576	-505.11
197.963	90.97
198.351	47.27
198.738	-10.71
199.125	23.65
199.512	26.65
199.899	-6
200.286	8.75
200.673	16
201.06	16.13
201.447	38.11
201.833	27.11
202.22	-30.6
202.607	9.9
202.994	-11.52
203.38	-7.43
203.767	-29.3
204.154	7.89
204.54	25.19
204.927	32.04
205.313	30.63
205.699	2.01
206.086	10.2
206.472	9.47
206.858	35.14
207.245	9.37
207.631	10.31
208.017	16.36
208.403	18.11
208.789	33.99
209.175	41.42
209.561	28.4
209.947	-41.3
210.333	13.94
210.719	13.5
211.105	-6.51
211.491	13.62
211.876	14.41
212.262	12.07
212.648	-7.64
213.034	-47.74
213.419	-15.75
213.805	35.08
214.19	-12.62
214.576	8.58
214.961	20.85
215.346	-20.42
215.732	7.73
216.117	22.73
216.502	20.08
216.888	15.9
217.273	13.06
217.658	-1.17
218.043	9.2
218.428	25.66
218.813	13.5
219.198	1.43
219.583	13.14
219.968	23.07
220.353	4.52
220.738	8.02
221.122	6.2
221.507	6.94
221.892	8.42
222.276	-1.93
222.661	10.92
223.046	8.36
223.43	-3.8
223.815	7.64
224.199	10.98
224.583	14.76
224.968	3.07
225.352	12.55
225.736	2.52
226.121	5
226.505	0.72
226.889	1.06
227.273	6.78
227.657	4.51
228.041	6.45
228.425	7.79
228.809	5.27
229.193	4.39
229.577	5.62
229.961	5.76
230.344	6.04
230.728	5.76
231.112	4.43
231.495	5.23
231.879	3.38
232.263	6.43
232.646	5.64
233.03	6.8
233.413	6.18
233.797	5.14
234.18	9.85
234.563	4.84
234.946	7.35
235.33	4.74
235.713	7.74
236.096	3.76
236.479	5.37
236.862	5.88
237.245	6.35
237.628	6.02
238.011	6.26
238.394	5.75
238.777	5.88
239.16	6.78
239.543	6.62
239.925	4.27
240.308	5.55
240.691	5.61
241.073	4.05
241.456	4.65
241.838	5.77
242.221	6.78
242.603	5.8
242.986	4.55
243.368	4.45
243.75	5.18
244.133	5.47
244.515	4.94
244.897	5.18
245.279	5.65
245.661	5.57
246.043	5.43
246.425	5.31
246.807	4.74
247.189	5.58
247.571	5.43
247.953	5.02
248.335	4.91
248.717	5.06
249.098	4.78
249.48	4.52
249.862	5.24
250.243	4.76
250.625	4.94
251.006	5.54
251.388	4.92
251.769	4.83
252.151	3.37
252.532	4.82
252.913	5.58
253.295	5.06
253.676	5.17
254.057	5.1
254.438	5.2
254.819	5.23
255.2	4.7
255.581	5.47
255.962	4.07
256.343	4.95
256.724	3.8
257.105	5.24
257.486	3.48
257.867	4.41
258.247	4.98
258.628	4.3
259.009	4.11
259.389	4.01
259.77	3.8
260.15	4.8
260.531	5.42
260.911	4.8
261.292	4.77
261.672	4.52
262.052	4.58
262.432	4.37
262.813	4.54
263.193	4.29
263.573	5.2
263.953	4.09
264.333	4.83
264.713	4.59
265.093	4.57
265.473	5.07
265.853	3.68
266.233	3.87
266.612	4.9
266.992	5.15
267.372	4.38
267.752	4.96
268.131	5.37
268.511	4.33
268.89	4.64
269.27	4.43
269.649	4.42
270.029	4.04
270.408	4.05
270.787	4.56
271.167	4.67
271.546	4.65
271.925	4.12
272.304	4.43
272.683	4.2
273.062	4.38
273.441	4.54
273.82	4.27
274.199	4.58
274.578	3.93
274.957	4.04
275.336	4.19
275.715	4.31
276.093	4.92
276.472	5.21
276.851	4.7
277.229	3.81
277.608	3.97
277.986	3.87
278.365	4.28
278.743	5.02
279.122	4.24
279.5	4.67
279.878	4.01
280.257	4.03
280.635	3.98
281.013	3.65
281.391	4.53
281.769	4.91
282.147	4.56
282.525	4.19
282.903	4.23
283.281	4.47
283.659	4.25
284.037	4.36
284.415	4.05
284.792	4.16
285.17	4.33
285.548	4.24
285.925	4.52
286.303	4.41
286.68	4.38
287.058	4.24
287.435	4.33
287.813	4.3
288.19	4.29
288.567	4.41
288.945	4.14
289.322	3.92
289.699	4.77
290.076	4.17
290.453	4.29
290.83	4.76
291.207	3.8
291.584	4.19
291.961	3.73
292.338	4.44
292.715	4.3
293.092	3.8
293.469	4.52
293.845	4.53
294.222	4.53
294.599	3.96
294.975	4.69
295.352	4.45
295.728	3.93
296.105	3.97
296.481	4.13
296.858	4.33
297.234	4
297.61	3.46
297.986	3.95
298.363	3.88
298.739	4.46
299.115	3.95
299.491	4.25
299.867	4.21
300.243	4.12
300.619	4.59
300.995	4.39
301.371	3.9
301.746	4.76
302.122	4.08
302.498	4.5
302.874	3.44
303.249	4.43
303.625	4.03
304	4.31
304.376	4.01
304.751	4.04
305.127	4.31
305.502	4.18
305.878	4.53
306.253	4.06
306.628	4.06
307.003	3.41
307.378	4.32
307.754	4.45
308.129	4.18
308.504	4.34
308.879	4.41
309.254	4.01
309.629	3.79
310.003	4.09
310.378	4.06
310.753	4.03
311.128	3.97
311.502	3.89
311.877	3.83
312.252	4.12
312.626	4.21
313.001	3.95
313.375	4.16
313.75	3.96
314.124	3.87
314.498	4.25
314.873	4.24
315.247	4.46
315.621	4.51
315.995	4.49
316.369	4.38
316.743	3.36
317.117	3.53
317.491	4.03
317.865	3.84
318.239	4.71
318.613	3.83
318.987	3.46
319.361	3.45
319.734	3.71
320.108	4.13
320.482	4.45
320.855	3.61
321.229	4.02
321.602	3.44
321.976	4.91
322.349	4.29
322.723	3.96
323.096	4
323.469	3.18
323.843	3.59
324.216	4.6
324.589	4.13
324.962	4.01
325.335	3.63
325.708	4.3
326.081	3.85
326.454	4.09
326.827	3.45
327.2	3.99
327.573	4.46
327.945	4.42
328.318	3.66
328.691	4.23
329.063	4.08
329.436	4.34
329.809	4.91
330.181	3.78
330.553	3.63
330.926	3.94
331.298	4.42
331.671	4.14
332.043	4.07
332.415	3.99
332.787	3.59
333.159	4.12
333.532	3.54
333.904	3.38
334.276	3.4
334.648	3.94
335.02	4.35
335.391	3.76
335.763	3.84
336.135	3.83
336.507	4.48
336.879	4.49
337.25	4.08
337.622	3.94
337.993	4.06
338.365	4.35
338.736	4.45
339.108	4.59
339.479	3.78
339.851	4.22
340.222	4.51
340.593	3.93
340.964	3.93
341.336	4.14
341.707	4.38
342.078	3.81
342.449	4.25
342.82	4.13
343.191	4.06
343.562	3.83
343.933	4.58
344.303	4.28
344.674	4.21
345.045	4.49
345.416	3.95
345.786	4.45
346.157	3.85
346.527	4.31
346.898	4.19
347.268	4.25
347.639	4.1
348.009	4.03
348.38	4.11
348.75	4.4
349.12	4.25
349.49	3.86
349.861	4.56
350.231	4.06
350.601	4.15
350.971	4.24
351.341	4.26
351.711	4.21
352.081	3.99
352.45	4.22
352.82	3.87
353.19	4.72
353.56	4.4
353.929	3.87
354.299	4.09
354.669	4.47
355.038	4.34
355.408	3.81
355.777	4.2
356.147	3.94
356.516	4.07
356.885	3.94
357.254	4.03
357.624	3.88
357.993	4.1
358.362	3.82
358.731	4.07
359.1	4.32
359.469	3.93
359.838	4.23
360.207	4.21
360.576	4.2
360.945	3.94
361.314	3.91
361.682	3.7
362.051	4.15
362.42	4.28
362.788	4
363.157	4.32
363.525	4.27
363.894	4.28
364.262	3.95
364.631	4.27
364.999	4.28
365.367	4.19
365.735	4.2
366.104	4.25
366.472	4.14
366.84	3.97
367.208	4.54
367.576	4.61
367.944	4.03
368.312	4.13
368.68	4.22
369.048	4.32
369.416	4.29
369.783	4.23
370.151	4.28
370.519	4.03
370.886	4.36
371.254	4.38
371.621	4.32
371.989	4.19
372.356	4.57
372.724	3.97
373.091	4.22
373.458	3.94
373.826	4.17
374.193	4.41
374.56	4.31
374.927	4.42
375.294	4.39
375.661	4.42
376.028	4.49
376.395	3.97
376.762	4.06
377.129	3.91
377.496	4.46
377.863	4.62
378.229	4.18
378.596	4.12
378.963	4.46
379.329	4.63
379.696	4.19
380.062	4.45
380.429	4
380.795	4.07
381.161	4.21
381.528	4.45
381.894	4.14
382.26	4.32
382.626	4.37
382.993	4.62
383.359	4.21
383.725	4.49
384.091	4.54
384.457	4.29
384.823	4.17
385.188	4.32
385.554	4.53
385.92	4.51
386.286	4.45
386.651	4.25
387.017	4.65
387.383	4.12
387.748	4.6
388.114	4.31
388.479	4.29
388.845	4.5
389.21	4.12
389.575	4.22
389.94	4.36
390.306	4.3
390.671	4.38
391.036	4.43
391.401	4.73
391.766	4.52
392.131	4.27
392.496	4.22
392.861	4.49
393.226	4.19
393.591	4.25
393.956	4.4
394.32	4.45
394.685	4.27
395.05	4.5
395.414	4.38
395.779	4.4
396.143	4.48
396.508	4.35
396.872	4.66
397.236	4.55
397.601	4.43
397.965	4.52
398.329	4.61
398.694	4.44
399.058	4.58
399.422	4.56
399.786	4.54
400.15	4.28
400.514	4.3
400.878	4.35
401.242	4.31
401.605	4.77
401.969	4.59
402.333	4.44
402.697	4.24
403.06	4.42
403.424	4.28
403.787	4.4
404.151	4.56
404.514	4.48
404.878	4.39
405.241	4.45
405.604	4.42
405.968	4.33
406.331	4.39
406.694	4.72
407.057	4.44
407.42	4.56
407.783	4.5
408.146	4.52
408.509	4.49
408.872	4.32
409.235	4.54
409.598	4.62
409.961	4.59
410.323	4.23
410.686	4.39
411.049	4.6
411.411	4.54
411.774	4.32
412.136	4.56
412.499	4.24
412.861	4.46
413.223	4.4
413.586	4.68
413.948	4.45
414.31	4.38
414.672	4.43
415.035	4.39
415.397	4.64
415.759	4.59
416.121	4.69
416.483	4.45
416.845	4.27
417.206	4.4
417.568	4.58
417.93	4.62
418.292	4.45
418.653	4.42
419.015	4.44
419.377	4.35
419.738	4.62
420.1	4.44
420.461	4.58
420.822	4.48
421.184	4.49
421.545	4.44
421.906	4.48
422.267	4.46
422.629	4.43
422.99	4.46
423.351	4.47
423.712	4.46
424.073	4.34
424.434	4.5
424.795	4.47
425.155	4.39
425.516	4.55
425.877	4.4
426.238	4.55
426.598	4.4
426.959	4.48
427.32	4.52
427.68	4.5
428.041	4.46
428.401	4.46
428.761	4.47
429.122	4.63
429.482	4.47
429.842	4.77
430.202	4.63
430.563	4.42
430.923	4.68
431.283	4.66
431.643	4.59
432.003	4.6
432.363	4.59
432.722	4.68
433.082	4.41
433.442	4.54
433.802	4.62
434.161	4.59
434.521	4.61
434.881	4.55
435.24	4.65
435.6	4.59
435.959	4.56
436.319	4.55
436.678	4.57
437.037	4.65
437.396	4.51
437.756	4.68
438.115	4.57
438.474	4.66
438.833	4.66
439.192	4.67
439.551	4.7
439.91	4.76
440.269	4.63
440.628	4.59
440.987	4.5
441.345	4.58
441.704	4.65
442.063	4.58
442.421	4.54
442.78	4.59
443.138	4.47
443.497	4.58
443.855	4.5
444.214	4.71
444.572	4.42
444.93	4.5
445.288	4.85
445.647	4.7
446.005	4.71
446.363	4.62
446.721	4.55
447.079	4.62
447.437	4.68
447.795	4.68
448.153	4.51
448.51	4.52
448.868	4.54
449.226	4.5
449.584	4.52
449.941	4.63
450.299	4.64
450.656	4.67
451.014	4.67
451.371	4.52
451.729	4.55
452.086	4.7
452.443	4.64
452.801	4.57
453.158	4.68
453.515	4.63
453.872	4.6
454.229	4.71
454.586	4.64
454.943	4.76
455.3	4.64
455.657	4.76
456.014	4.73
456.371	4.75
456.727	4.72
457.084	4.66
457.441	4.89
457.797	4.64
458.154	4.66
458.51	4.54
458.867	4.93
459.223	4.72
459.58	4.86
459.936	4.7
460.292	4.54
460.648	4.68
461.005	4.74
461.361	4.62
461.717	4.64
462.073	4.57
462.429	4.57
462.785	4.58
463.141	4.67
463.496	4.63
463.852	4.79
464.208	4.68
464.564	4.65
464.919	4.67
465.275	4.76
465.631	4.6
465.986	4.63
466.342	4.61
466.697	4.69
467.052	4.77
467.408	4.76
467.763	4.86
468.118	4.81
468.473	4.73
468.829	4.77
469.184	4.66
469.539	4.72
469.894	4.6
470.249	4.74
470.603	4.87
470.958	4.92
471.313	4.88
471.668	4.76
472.023	4.7
472.377	4.6
472.732	4.78
473.086	4.8
473.441	4.9
473.795	4.82
474.15	4.85
474.504	4.73
474.859	4.85
475.213	5.02
475.567	4.72
475.921	4.65
476.275	4.6
476.63	4.72
476.984	4.93
477.338	4.76
477.692	4.7
478.045	4.7
478.399	4.82
478.753	4.96
479.107	4.71
479.461	4.66
479.814	4.69
480.168	4.85
480.521	4.74
480.875	4.75
481.228	4.94
481.582	4.81
481.935	4.84
482.289	4.79
482.642	4.77
482.995	4.85
483.348	4.66
483.701	4.65
484.055	4.71
484.408	4.67
484.761	4.63
485.114	4.5
485.466	4.48
485.819	4.45
486.172	4.47
486.525	4.52
486.878	4.54
487.23	4.63
487.583	4.61
487.936	4.7
488.288	4.58
488.641	4.59
488.993	4.6
489.345	4.55
489.698	4.58
490.05	4.64
490.402	4.51
490.754	4.65
491.107	4.68
491.459	4.59
491.811	4.67
492.163	4.75
492.515	4.66
492.866	4.65
493.218	4.59
493.57	4.59
493.922	4.61
494.274	4.65
494.625	4.64
494.977	4.64
495.328	4.72
495.68	4.8
496.031	4.72
496.383	4.93
496.734	4.84
497.086	4.91
497.437	4.88
497.788	4.93
498.139	4.85
498.49	4.78
498.842	4.83
499.193	4.84
499.544	4.78
499.894	4.8
500.245	4.84
500.596	4.91
500.947	4.8
501.298	4.95
501.648	5.04
501.999	4.84
502.35	5.07
502.7	4.98
503.051	4.75
503.401	4.75
503.752	4.89
504.102	4.99
504.452	4.92
504.803	4.77
505.153	4.98
505.503	4.81
505.853	4.89
506.203	4.86
506.553	4.9
506.903	4.87
507.253	4.86
507.603	4.95
507.953	4.88
508.303	4.94
508.652	4.97
509.002	4.9
509.352	4.89
509.701	4.9
510.051	5
510.4	4.96
510.75	4.87
511.099	4.81
511.449	4.82
511.798	4.88
512.147	4.91
512.496	4.85
512.846	4.82
513.195	4.86
513.544	4.96
513.893	4.74
514.242	4.86
514.591	4.78
514.939	4.99
515.288	4.92
515.637	4.95
515.986	4.88
516.334	4.83
516.683	4.96
517.032	4.97
517.38	5.01
517.729	5
518.077	4.92
518.426	4.98
518.774	5
519.122	4.9
519.47	4.88
519.819	4.95
520.167	4.89
520.515	4.87
520.863	4.91
521.211	4.88
521.559	4.93
521.907	4.92
522.255	4.97
522.602	4.92
522.95	4.93
523.298	4.99
523.645	4.93
523.993	5.02
524.341	5.13
524.688	4.91
525.036	5.01
525.383	4.83
525.73	5.09
526.078	4.89
526.425	5.07
526.772	4.89
527.119	4.89
527.466	4.87
527.814	4.85
528.161	4.97
528.508	4.91
528.854	4.97
529.201	4.85
529.548	4.89
529.895	4.87
530.242	4.75
530.588	4.75
530.935	4.74
531.282	4.8
531.628	4.74
531.975	4.85
532.321	4.88
532.667	4.93
533.014	4.86
533.36	4.87
533.706	4.91
534.052	4.93
534.399	4.91
534.745	4.83
535.091	4.86
535.437	4.84
535.783	4.89
536.129	4.93
536.474	4.91
536.82	4.91
537.166	5.05
537.512	4.97
537.857	4.95
538.203	4.92
538.549	4.83
538.894	4.99
539.239	4.99
539.585	5.01
539.93	4.97
540.276	5.2
540.621	5.1
540.966	5.07
541.311	5.17
541.656	4.93
542.001	5.08
542.346	4.96
542.691	4.92
543.036	4.89
543.381	4.92
543.726	4.91
544.071	4.9
544.415	4.92
544.76	4.9
545.105	5.01
545.449	4.96
545.794	5.06
546.138	5.07
546.483	5.02
546.827	5.1
547.171	5.08
547.516	5.12
547.86	5.12
548.204	5.11
548.548	5.03
548.892	4.99
549.236	5.15
549.58	5.11
549.924	5.15
550.268	5.17
550.612	5.1
550.956	5.12
551.3	5.17
551.643	5.07
551.987	5.15
552.33	5.26
552.674	5.16
553.017	5.28
553.361	5.15
553.704	5.15
554.048	5.28
554.391	5.11
554.734	5.14
555.077	5.18
555.42	5.13
555.764	5.17
556.107	5.23
556.45	5.27
556.793	5.17
557.135	5.26
557.478	5.31
557.821	5.28
558.164	5.2
558.507	5.07
558.849	5.35
559.192	5.28
559.534	5.39
559.877	5.35
560.219	5.07
560.562	5.44
560.904	5.34
561.246	5.11
561.589	5.28
561.931	5.34
562.273	5.37
562.615	5.4
562.957	5.08
563.299	5.17
563.641	5.3
563.983	5.26
564.325	5.22
564.667	5.49
565.008	5.28
565.35	5.44
565.692	5.35
566.033	5.16
566.375	5.3
566.716	5.35
567.058	5.25
567.399	5.06
567.741	5.25
568.082	5.12
568.423	5.17
568.764	5.16
569.105	5.32
569.447	5.18
569.788	5.22
570.129	5.11
570.47	5.37
570.811	5.32
571.151	5.31
571.492	5.27
571.833	5.27
572.174	5.2
572.514	5.44
572.855	5.27
573.195	5.31
573.536	5.42
573.876	5.19
574.217	5.34
574.557	5.39
574.898	5.13
575.238	5.27
575.578	5.41
575.918	5.28
576.258	5.31
576.598	5.21
576.938	5.44
577.278	5.39
577.618	5.25
577.958	5.4
578.298	5.28
578.638	5.23
578.977	5.43
579.317	5.36
579.657	5.48
579.996	5.28
580.336	5.53
580.675	5.64
581.014	5.53
581.354	5.59
581.693	5.44
582.032	5.35
582.372	5.63
582.711	5.36
583.05	5.39
583.389	5.49
583.728	5.6
584.067	5.37
584.406	5.33
584.745	5.33
585.083	5.25
585.422	5.14
585.761	5.44
586.1	5.42
586.438	5.48
586.777	5.39
587.115	5.56
587.454	5.52
587.792	5.55
588.13	5.5
588.469	5.5
588.807	5.3
589.145	5.48
589.483	5.39
589.821	5.36
590.159	5.21
590.497	5.23
590.835	5.41
591.173	5.39
591.511	5.61
591.849	5.16
592.187	5.36
592.524	5.48
592.862	5.93
593.2	5.61
593.537	5.38
593.875	5.61
594.212	5.71
594.55	5.53
594.887	5.36
595.224	5.47
595.561	5.33
595.899	5.42
596.236	5.35
596.573	5.88
596.91	5.49
597.247	5.63
597.584	5.59
597.921	5.51
598.258	5.29
598.594	5.49
598.931	5.52
599.268	5.46
599.604	5.49
599.941	5.64
600.277	5.39
600.614	5.39
600.95	5.47
601.287	5.6
601.623	5.46
601.959	5.42
602.296	5.38
602.632	5.51
602.968	5.18
603.304	5.39
603.64	5.26
603.976	5.49
604.312	5.86
604.648	5.41
604.984	5.49
605.319	5.7
605.655	5.53
605.991	5.41
606.326	5.41
606.662	5.58
606.998	5.75
607.333	5.34
607.668	5.38
608.004	5.47
608.339	5.5
608.674	5.62
609.01	5.73
609.345	5.8
609.68	5.46
610.015	5.66
610.35	5.64
610.685	5.45
611.02	5.82
611.355	5.51
611.689	5.45
612.024	5.49
612.359	5.46
612.694	5.58
613.028	5.62
613.363	5.85
613.697	5.55
614.032	5.8
614.366	5.56
614.7	5.72
615.035	5.68
615.369	5.69
615.703	5.47
616.037	5.53
616.371	5.74
616.705	5.43
617.039	5.41
617.373	5.91
617.707	6.05
618.041	5.77
618.375	6.02
618.709	5.38
619.042	5.2
619.376	5.9
619.71	5.94
620.043	5.45
620.377	5.45
620.71	5.45
621.043	5.57
621.377	5.32
621.71	5.91
622.043	5.78
622.376	5.59
622.709	5.56
623.043	5.43
623.376	5.86
623.709	5.93
624.041	5.96
624.374	5.47
624.707	5.68
625.04	5.83
625.373	5.92
625.705	5.69
626.038	5.63
626.37	5.45
626.703	5.76
627.035	5.78
627.368	6.02
627.7	5.66
628.032	5.6
628.365	5.4
628.697	5.69
629.029	5.87
629.361	5.66
629.693	5.77
630.025	5.65
630.357	5.88
630.689	5.87
631.021	5.54
631.353	6.12
631.684	5.83
632.016	6.37
632.348	5.63
632.679	5.81
633.011	6.25
633.342	6.03
633.674	5.64
634.005	5.79
634.336	6.35
634.668	6.18
634.999	5.61
635.33	5.84
635.661	5.9
635.992	5.56
636.323	6.18
636.654	5.95
636.985	6
637.316	5.93
637.647	5.73
637.977	5.76
638.308	5.95
638.639	5.71
638.969	5.72
639.3	5.72
639.63	5.6
639.961	5.84
640.291	5.89
640.622	5.95
640.952	5.6
641.282	6.48
641.612	5.93
641.943	5.94
642.273	6.09
642.603	6.35
642.933	5.63
643.263	5.82
643.592	6.07
643.922	5.96
644.252	6.45
644.582	6.16
644.911	5.65
645.241	5.87
645.571	5.84
645.9	6.05
646.23	6.26
646.559	5.86
646.888	6.38
647.218	6.1
647.547	5.98
647.876	5.74
648.205	6.31
648.534	6.14
648.863	6.19
649.192	6.4
649.521	5.39
649.85	6.07
650.179	5.76
650.508	6.11
650.837	6.51
651.165	6.02
651.494	5.96
651.822	6.11
652.151	6.06
652.479	6.05
652.808	5.85
653.136	5.95
653.465	5.77
653.793	6.02
654.121	5.75
654.449	5.64
654.777	6.29
655.105	5.75
655.433	5.94
655.761	6.17
656.089	6.49
656.417	6.56
656.745	5.78
657.073	4.99
657.4	6.13
657.728	5.74
658.056	6.4
658.383	6
658.711	5.91
659.038	5.6
659.365	5.89
659.693	6.42
660.02	6.4
660.347	5.95
660.674	5.97
661.001	6.32
661.329	5.82
661.656	6.67
661.982	6.06
662.309	6.35
662.636	6.26
662.963	6.16
663.29	6.48
663.616	6.37
663.943	6.1
664.27	6.1
664.596	6.12
664.923	6.48
665.249	6.05
665.576	6.33
665.902	6.8
666.228	6.54
666.554	6.27
666.881	6.22
667.207	6.24
667.533	6.33
667.859	6.45
668.185	6.31
668.511	5.9
668.837	6.76
669.162	6.41
669.488	6.01
669.814	6.63
670.139	5.95
670.465	6.08
670.791	6.18
671.116	6.43
671.442	6.53
671.767	5.57
672.092	6.1
672.418	6.36
672.743	6.21
673.068	5.89
673.393	6.21
673.718	6.55
674.043	6.61
674.368	6.58
674.693	6.34
675.018	6.34
675.343	6.28
675.667	6.36
675.992	6.82
676.317	6.55
676.641	6.18
676.966	6.46
677.29	6.39
677.615	6.31
677.939	6.42
678.264	6.01
678.588	6.58
678.912	6.43
679.236	5.75
679.56	6.39
679.885	6.13
680.209	6.75
680.532	6.11
680.856	7.04
681.18	6.82
681.504	6.78
681.828	6.31
682.152	6.99
682.475	6.55
682.799	6.75
683.122	5.95
683.446	6.73
683.769	6.22
684.093	6.44
684.416	7
684.739	6.82
685.062	5.77
685.386	6.17
685.709	6.41
686.032	6.72
686.355	7.18
686.678	6.47
687.001	6.87
687.324	6.43
687.646	6.74
687.969	6.36
688.292	6.5
688.614	6.46
688.937	6.4
689.26	6.31
689.582	6.23
689.904	6.86
690.227	7.13
690.549	6.4
690.871	8.08
691.194	6.35
691.516	6.24
691.838	7.06
692.16	6.52
692.482	7.12
692.804	6.86
693.126	7.36
693.448	6.62
