Data from 97283_chest_Reflection__2__33.txt Node

Date: Fri Sep 23 19:58:09 CDT 2022
User: ToomeyLab
Spectrometer: FLMS14357
Trigger mode: 0
Integration Time (sec): 1.000000E-2
Scans to average: 100
Electric dark correction enabled: true
Nonlinearity correction enabled: false
Boxcar width: 0
XAxis mode: Wavelengths
Number of Pixels in Spectrum: 2048
>>>>>Begin Spectral Data<<<<<
189.047	-31.64
189.435	-31.64
189.823	-31.64
190.211	218.81
190.599	1151.91
190.987	8.7
191.375	996.91
191.763	134.36
192.151	0.29
192.538	214.8
192.926	57.17
193.314	65.96
193.702	112.65
194.089	3.12
194.477	39.88
194.864	-100.47
195.252	99.7
195.639	7.36
196.027	78.2
196.414	170.32
196.801	54.76
197.189	125.49
197.576	-423.46
197.963	1.09
198.351	40.36
198.738	-48.15
199.125	15.88
199.512	7.68
199.899	-29.37
200.286	18.09
200.673	24.59
201.06	3.78
201.447	26.26
201.833	17.66
202.22	1.47
202.607	14.22
202.994	6.89
203.38	22.97
203.767	-31.21
204.154	28.7
204.54	59.03
204.927	9.53
205.313	22.61
205.699	-34.42
206.086	-27.93
206.472	5.78
206.858	14.52
207.245	-30.92
207.631	-20.51
208.017	18.44
208.403	23.81
208.789	36.96
209.175	38.5
209.561	8.85
209.947	-42.12
210.333	-9.89
210.719	2.44
211.105	20.99
211.491	24.27
211.876	10.47
212.262	-8.22
212.648	17.07
213.034	-11.04
213.419	-25.67
213.805	39.87
214.19	-1.83
214.576	4.5
214.961	11.38
215.346	-8.84
215.732	19.83
216.117	-6.44
216.502	12.33
216.888	19.87
217.273	17.54
217.658	-32.18
218.043	16.46
218.428	10.71
218.813	11.88
219.198	16.84
219.583	7.55
219.968	12.35
220.353	12.34
220.738	13.9
221.122	13.51
221.507	0.79
221.892	-3.15
222.276	8.14
222.661	6.07
223.046	18.89
223.43	2.89
223.815	4.7
224.199	-0.86
224.583	15.2
224.968	-1.57
225.352	6.49
225.736	-1.71
226.121	10.49
226.505	9.55
226.889	2.61
227.273	5.39
227.657	2.04
228.041	6.4
228.425	6.18
228.809	1.28
229.193	6.8
229.577	6.01
229.961	4.8
230.344	5.4
230.728	4.55
231.112	3.69
231.495	4.33
231.879	2.83
232.263	4.23
232.646	5.42
233.03	5.14
233.413	6.03
233.797	2.46
234.18	4.86
234.563	1.03
234.946	4.95
235.33	5.2
235.713	6.69
236.096	3.37
236.479	3.87
236.862	4.73
237.245	5.74
237.628	5.09
238.011	5.44
238.394	5.41
238.777	4.28
239.16	4.55
239.543	5.31
239.925	4.1
240.308	4.87
240.691	5.82
241.073	3.55
241.456	3.96
241.838	5.73
242.221	5.53
242.603	5.35
242.986	3.69
243.368	4.22
243.75	4.2
244.133	4.56
244.515	4.26
244.897	4.65
245.279	4.69
245.661	4.66
246.043	5.02
246.425	4.46
246.807	3.09
247.189	4.83
247.571	4.43
247.953	4.25
248.335	4.8
248.717	4.81
249.098	4.13
249.48	4.24
249.862	4.2
250.243	4.54
250.625	4.62
251.006	4.44
251.388	4.16
251.769	4.43
252.151	3.83
252.532	5.21
252.913	5.05
253.295	4.4
253.676	4.93
254.057	4.33
254.438	4.04
254.819	4.7
255.2	5.07
255.581	5.09
255.962	4.19
256.343	4.79
256.724	3.13
257.105	4.24
257.486	2.83
257.867	4.39
258.247	5.67
258.628	4.6
259.009	3.54
259.389	4.11
259.77	3.3
260.15	4.09
260.531	4.3
260.911	4.32
261.292	4.25
261.672	3.97
262.052	4.01
262.432	4.02
262.813	3.89
263.193	4.05
263.573	4.48
263.953	4.08
264.333	4.19
264.713	4.51
265.093	4.69
265.473	4.14
265.853	3.96
266.233	3.3
266.612	4.08
266.992	5.5
267.372	4.44
267.752	4.31
268.131	4.98
268.511	3.74
268.89	3.95
269.27	4.34
269.649	4.1
270.029	4.09
270.408	4.29
270.787	3.87
271.167	4.3
271.546	3.95
271.925	3.91
272.304	4.41
272.683	3.67
273.062	3.86
273.441	3.95
273.82	4
274.199	4.09
274.578	4.09
274.957	4.15
275.336	3.96
275.715	3.49
276.093	4.53
276.472	4.16
276.851	3.81
277.229	4.32
277.608	3.99
277.986	4.29
278.365	4.27
278.743	4.35
279.122	3.62
279.5	3.83
279.878	3.75
280.257	3.59
280.635	3.47
281.013	3.78
281.391	3.5
281.769	4.12
282.147	4.01
282.525	3.81
282.903	3.7
283.281	3.94
283.659	3.85
284.037	3.72
284.415	4.18
284.792	4.1
285.17	4.29
285.548	4.12
285.925	4.14
286.303	4.81
286.68	4.14
287.058	3.99
287.435	3.8
287.813	4.15
288.19	3.46
288.567	4.17
288.945	4.13
289.322	4.07
289.699	4.03
290.076	4.05
290.453	3.78
290.83	4.18
291.207	3.73
291.584	4.11
291.961	4.34
292.338	4.25
292.715	4.02
293.092	3.68
293.469	4.17
293.845	4.5
294.222	4.16
294.599	3.61
294.975	4.09
295.352	4.18
295.728	4.04
296.105	4
296.481	3.83
296.858	4.14
297.234	4.26
297.61	4.09
297.986	3.96
298.363	4.03
298.739	4.13
299.115	4.16
299.491	4.12
299.867	3.95
300.243	4.08
300.619	4.54
300.995	4.29
301.371	4.15
301.746	4.3
302.122	4.42
302.498	4.18
302.874	3.68
303.249	4.04
303.625	4.21
304	4.57
304.376	3.88
304.751	3.63
305.127	4.05
305.502	3.98
305.878	4.19
306.253	4.4
306.628	4.13
307.003	3.57
307.378	4.14
307.754	4.58
308.129	4
308.504	4.08
308.879	4.05
309.254	4.02
309.629	4.15
310.003	4
310.378	3.99
310.753	3.97
311.128	3.97
311.502	3.61
311.877	4.19
312.252	3.71
312.626	4.11
313.001	4.13
313.375	4
313.75	3.92
314.124	3.88
314.498	4.15
314.873	4.04
315.247	3.93
315.621	4.2
315.995	3.7
316.369	4.06
316.743	3.82
317.117	3.14
317.491	3.95
317.865	4.81
318.239	4.82
318.613	3.6
318.987	3.65
319.361	4.06
319.734	4.09
320.108	3.62
320.482	4.56
320.855	4.28
321.229	4.29
321.602	4.15
321.976	4.98
322.349	3.95
322.723	3.89
323.096	4.06
323.469	3.53
323.843	3.62
324.216	4.41
324.589	4.18
324.962	4.45
325.335	4.04
325.708	4.35
326.081	4.2
326.454	3.82
326.827	3.93
327.2	4.09
327.573	4.49
327.945	4.32
328.318	3.89
328.691	4.29
329.063	4.4
329.436	4.13
329.809	4.91
330.181	4.12
330.553	3.53
330.926	3.84
331.298	3.78
331.671	4.51
332.043	4.12
332.415	4.48
332.787	3.94
333.159	4.36
333.532	3.75
333.904	3.5
334.276	3.9
334.648	4.3
335.02	4.25
335.391	4.31
335.763	3.84
336.135	4.05
336.507	4.21
336.879	3.74
337.25	3.96
337.622	4.08
337.993	4.04
338.365	4.06
338.736	4.39
339.108	4.53
339.479	4.17
339.851	4.44
340.222	4.54
340.593	4.23
340.964	3.9
341.336	4.34
341.707	5.01
342.078	3.94
342.449	4.33
342.82	4.22
343.191	4.01
343.562	3.85
343.933	4.57
344.303	4.24
344.674	4.76
345.045	4.45
345.416	4.03
345.786	4.59
346.157	4.18
346.527	4.14
346.898	3.96
347.268	4.33
347.639	4.13
348.009	4.59
348.38	4.14
348.75	4.48
349.12	3.97
349.49	4.53
349.861	4.18
350.231	3.89
350.601	4.25
350.971	4.61
351.341	3.95
351.711	4.18
352.081	4.4
352.45	3.83
352.82	3.86
353.19	4.52
353.56	4.48
353.929	4.09
354.299	4.2
354.669	4.54
355.038	4.7
355.408	3.77
355.777	4.04
356.147	3.86
356.516	4.21
356.885	4.31
357.254	4.53
357.624	3.75
357.993	4.43
358.362	4.39
358.731	3.99
359.1	4.26
359.469	4.04
359.838	4.17
360.207	4.61
360.576	4.68
360.945	4
361.314	4.1
361.682	4.16
362.051	4.66
362.42	4.37
362.788	4.14
363.157	4.46
363.525	4.41
363.894	4.28
364.262	4.04
364.631	4.18
364.999	4.21
365.367	4.25
365.735	4.41
366.104	4.29
366.472	4.08
366.84	4.33
367.208	4.47
367.576	4.26
367.944	4.09
368.312	4.55
368.68	4.14
369.048	4.44
369.416	4.36
369.783	3.79
370.151	4.19
370.519	4.27
370.886	4.41
371.254	4.5
371.621	4.41
371.989	4.3
372.356	4.75
372.724	4.12
373.091	4.38
373.458	4.36
373.826	4.06
374.193	4.35
374.56	4.32
374.927	4.61
375.294	4.54
375.661	4.49
376.028	4.07
376.395	4.56
376.762	4.13
377.129	4.18
377.496	4.49
377.863	4.42
378.229	4.23
378.596	4.3
378.963	4.7
379.329	4.6
379.696	4.4
380.062	4.31
380.429	4.18
380.795	3.89
381.161	4.59
381.528	4.64
381.894	4.2
382.26	4.11
382.626	4.23
382.993	4.44
383.359	4.42
383.725	4.7
384.091	4.61
384.457	4.39
384.823	4.45
385.188	4.46
385.554	4.57
385.92	4.74
386.286	4.32
386.651	4.27
387.017	4.79
387.383	4.58
387.748	4.72
388.114	4.55
388.479	4.44
388.845	4.48
389.21	4.56
389.575	4.44
389.94	4.46
390.306	4.5
390.671	4.58
391.036	4.46
391.401	4.71
391.766	4.54
392.131	4.51
392.496	4.46
392.861	4.51
393.226	4.36
393.591	4.42
393.956	4.64
394.32	4.45
394.685	4.41
395.05	4.66
395.414	4.57
395.779	4.38
396.143	4.4
396.508	4.59
396.872	4.35
397.236	4.45
397.601	4.5
397.965	4.73
398.329	4.63
398.694	4.57
399.058	4.62
399.422	4.86
399.786	4.77
400.15	4.68
400.514	4.6
400.878	4.7
401.242	4.6
401.605	4.9
401.969	4.77
402.333	4.63
402.697	4.33
403.06	4.58
403.424	4.44
403.787	4.49
404.151	4.39
404.514	4.43
404.878	4.46
405.241	4.64
405.604	4.61
405.968	4.42
406.331	4.33
406.694	4.66
407.057	4.71
407.42	4.67
407.783	4.59
408.146	4.48
408.509	4.52
408.872	4.53
409.235	4.64
409.598	4.61
409.961	4.81
410.323	4.41
410.686	4.59
411.049	4.58
411.411	4.69
411.774	4.5
412.136	4.76
412.499	4.58
412.861	4.48
413.223	4.66
413.586	4.77
413.948	4.61
414.31	4.44
414.672	4.55
415.035	4.81
415.397	4.9
415.759	4.68
416.121	4.66
416.483	4.75
416.845	4.5
417.206	4.67
417.568	4.59
417.93	4.74
418.292	4.82
418.653	4.66
419.015	4.61
419.377	4.63
419.738	4.52
420.1	4.61
420.461	4.61
420.822	4.76
421.184	4.69
421.545	4.53
421.906	4.62
422.267	4.53
422.629	4.59
422.99	4.55
423.351	4.65
423.712	4.61
424.073	4.62
424.434	4.61
424.795	4.74
425.155	4.67
425.516	4.69
425.877	4.63
426.238	4.59
426.598	4.57
426.959	4.69
427.32	4.66
427.68	4.61
428.041	4.6
428.401	4.61
428.761	4.75
429.122	4.69
429.482	4.67
429.842	4.85
430.202	4.65
430.563	4.71
430.923	4.74
431.283	5.04
431.643	4.76
432.003	4.69
432.363	4.98
432.722	4.82
433.082	4.79
433.442	4.77
433.802	4.82
434.161	4.84
434.521	4.85
434.881	4.64
435.24	4.82
435.6	4.8
435.959	4.73
436.319	4.7
436.678	4.73
437.037	4.9
437.396	4.91
437.756	4.74
438.115	4.61
438.474	4.77
438.833	4.87
439.192	4.84
439.551	4.76
439.91	4.86
440.269	5
440.628	4.73
440.987	4.64
441.345	4.95
441.704	4.79
442.063	4.81
442.421	4.69
442.78	4.78
443.138	4.71
443.497	4.8
443.855	4.74
444.214	4.79
444.572	4.79
444.93	4.78
445.288	5
445.647	4.87
446.005	4.86
446.363	4.84
446.721	4.9
447.079	4.81
447.437	4.91
447.795	4.87
448.153	4.78
448.51	4.83
448.868	4.75
449.226	4.83
449.584	4.76
449.941	4.81
450.299	4.9
450.656	4.9
451.014	4.76
451.371	4.77
451.729	4.88
452.086	4.97
452.443	4.84
452.801	5.04
453.158	5.06
453.515	5.03
453.872	4.9
454.229	4.95
454.586	4.91
454.943	4.86
455.3	4.84
455.657	5
456.014	5.12
456.371	4.94
456.727	5.07
457.084	4.99
457.441	5.05
457.797	4.95
458.154	5.06
458.51	5.05
458.867	5.19
459.223	4.87
459.58	5.03
459.936	5.07
460.292	4.89
460.648	5.07
461.005	4.86
461.361	4.88
461.717	4.84
462.073	4.82
462.429	4.83
462.785	4.95
463.141	4.9
463.496	4.93
463.852	5.03
464.208	5.04
464.564	5.08
464.919	5.08
465.275	4.95
465.631	5.01
465.986	4.94
466.342	5.01
466.697	5.13
467.052	5.14
467.408	5.01
467.763	4.99
468.118	5.03
468.473	4.99
468.829	5.12
469.184	5.08
469.539	5.05
469.894	5.04
470.249	5.15
470.603	5.06
470.958	5.31
471.313	5.27
471.668	5.14
472.023	5.1
472.377	4.88
472.732	5.09
473.086	5.1
473.441	5.28
473.795	5.19
474.15	5.18
474.504	5.08
474.859	5.16
475.213	5.21
475.567	5.01
475.921	5.18
476.275	4.86
476.63	5.01
476.984	5.29
477.338	5.03
477.692	5.1
478.045	5
478.399	5.16
478.753	5.24
479.107	5.1
479.461	5.1
479.814	5.12
480.168	5.19
480.521	5.12
480.875	5.28
481.228	5.19
481.582	5.04
481.935	5.2
482.289	5.12
482.642	5.07
482.995	5.27
483.348	5.06
483.701	5.14
484.055	5.14
484.408	5.12
484.761	5.1
485.114	5
485.466	4.97
485.819	4.86
486.172	4.84
486.525	4.93
486.878	4.87
487.23	4.91
487.583	5.02
487.936	5.11
488.288	5.1
488.641	5.02
488.993	5.03
489.345	5.01
489.698	4.95
490.05	5.05
490.402	4.97
490.754	5.05
491.107	5.1
491.459	5.05
491.811	5.1
492.163	5.22
492.515	5.22
492.866	5.2
493.218	5.03
493.57	5.01
493.922	4.99
494.274	5.04
494.625	5.09
494.977	5.05
495.328	5.28
495.68	5.18
496.031	5.23
496.383	5.37
496.734	5.32
497.086	5.3
497.437	5.5
497.788	5.36
498.139	5.31
498.49	5.27
498.842	5.35
499.193	5.38
499.544	5.25
499.894	5.33
500.245	5.27
500.596	5.31
500.947	5.31
501.298	5.41
501.648	5.61
501.999	5.41
502.35	5.51
502.7	5.43
503.051	5.38
503.401	5.45
503.752	5.38
504.102	5.44
504.452	5.25
504.803	5.44
505.153	5.58
505.503	5.39
505.853	5.61
506.203	5.57
506.553	5.57
506.903	5.48
507.253	5.39
507.603	5.54
507.953	5.61
508.303	5.54
508.652	5.56
509.002	5.56
509.352	5.54
509.701	5.51
510.051	5.54
510.4	5.46
510.75	5.52
511.099	5.4
511.449	5.41
511.798	5.6
512.147	5.56
512.496	5.46
512.846	5.54
513.195	5.51
513.544	5.65
513.893	5.52
514.242	5.55
514.591	5.57
514.939	5.62
515.288	5.61
515.637	5.65
515.986	5.58
516.334	5.56
516.683	5.68
517.032	5.65
517.38	5.83
517.729	5.6
518.077	5.58
518.426	5.63
518.774	5.67
519.122	5.67
519.47	5.77
519.819	5.64
520.167	5.59
520.515	5.61
520.863	5.67
521.211	5.59
521.559	5.63
521.907	5.7
522.255	5.68
522.602	5.66
522.95	5.79
523.298	5.71
523.645	5.72
523.993	5.72
524.341	5.75
524.688	5.79
525.036	5.71
525.383	5.72
525.73	5.9
526.078	5.92
526.425	5.95
526.772	5.87
527.119	5.87
527.466	5.77
527.814	5.75
528.161	5.81
528.508	5.86
528.854	5.83
529.201	5.88
529.548	5.86
529.895	5.81
530.242	5.68
530.588	5.68
530.935	5.7
531.282	5.69
531.628	5.76
531.975	5.76
532.321	5.78
532.667	5.87
533.014	5.87
533.36	6
533.706	5.88
534.052	6.07
534.399	5.96
534.745	5.91
535.091	5.94
535.437	5.91
535.783	5.9
536.129	5.94
536.474	5.94
536.82	5.97
537.166	6.01
537.512	6.14
537.857	6.1
538.203	6.17
538.549	6.06
538.894	6.15
539.239	6.09
539.585	6.17
539.93	6.19
540.276	6.31
540.621	6.16
540.966	6.35
541.311	6.36
541.656	6.32
542.001	6.41
542.346	6.25
542.691	6.24
543.036	6.22
543.381	6.19
543.726	6.14
544.071	6.13
544.415	6.24
544.76	6.21
545.105	6.32
545.449	6.36
545.794	6.36
546.138	6.43
546.483	6.43
546.827	6.51
547.171	6.47
547.516	6.56
547.86	6.44
548.204	6.52
548.548	6.37
548.892	6.46
549.236	6.57
549.58	6.53
549.924	6.83
550.268	6.73
550.612	6.65
550.956	6.71
551.3	6.78
551.643	6.59
551.987	6.73
552.33	6.81
552.674	6.66
553.017	6.78
553.361	6.76
553.704	6.73
554.048	6.83
554.391	6.84
554.734	6.91
555.077	6.8
555.42	6.77
555.764	6.83
556.107	7
556.45	6.98
556.793	6.77
557.135	6.91
557.478	7.06
557.821	6.92
558.164	6.96
558.507	6.94
558.849	7.33
559.192	7.15
559.534	7.33
559.877	7.23
560.219	7.09
560.562	7.31
560.904	7.26
561.246	7.25
561.589	7.22
561.931	7.25
562.273	7.41
562.615	7.37
562.957	7.14
563.299	7.25
563.641	7.28
563.983	7.33
564.325	7.5
564.667	7.48
565.008	7.32
565.35	7.67
565.692	7.45
566.033	7.42
566.375	7.53
566.716	7.55
567.058	7.55
567.399	7.26
567.741	7.47
568.082	7.5
568.423	7.34
568.764	7.62
569.105	7.38
569.447	7.42
569.788	7.57
570.129	7.48
570.47	7.63
570.811	7.73
571.151	8
571.492	7.8
571.833	7.73
572.174	7.88
572.514	7.76
572.855	7.8
573.195	7.83
573.536	7.95
573.876	7.66
574.217	7.72
574.557	7.79
574.898	7.87
575.238	8
575.578	7.97
575.918	7.85
576.258	8
576.598	8.12
576.938	8.06
577.278	8.13
577.618	7.97
577.958	8.26
578.298	8.13
578.638	8.29
578.977	8.27
579.317	8.14
579.657	8.34
579.996	8.22
580.336	8.43
580.675	8.33
581.014	8.31
581.354	8.52
581.693	8.45
582.032	8.58
582.372	8.54
582.711	8.53
583.05	8.68
583.389	8.61
583.728	8.7
584.067	8.63
584.406	8.49
584.745	8.7
585.083	8.64
585.422	8.73
585.761	8.61
586.1	8.52
586.438	8.65
586.777	8.58
587.115	8.79
587.454	8.83
587.792	8.81
588.13	8.91
588.469	8.86
588.807	8.96
589.145	8.98
589.483	9.1
589.821	8.88
590.159	8.94
590.497	9.13
590.835	8.9
591.173	9.07
591.511	9.2
591.849	8.94
592.187	9.3
592.524	9.56
592.862	9.58
593.2	9.34
593.537	9.31
593.875	9.4
594.212	9.56
594.55	9.32
594.887	9.45
595.224	9.34
595.561	9.36
595.899	9.48
596.236	9.47
596.573	9.52
596.91	9.79
597.247	9.61
597.584	9.51
597.921	9.52
598.258	9.59
598.594	9.62
598.931	9.6
599.268	9.57
599.604	9.63
599.941	9.72
600.277	9.69
600.614	9.58
600.95	9.81
601.287	10.01
601.623	9.69
601.959	9.8
602.296	9.93
602.632	9.99
602.968	9.9
603.304	10.11
603.64	10.03
603.976	10.23
604.312	10.08
604.648	10.17
604.984	10.04
605.319	10.28
605.655	10.18
605.991	10.16
606.326	10.1
606.662	10.15
606.998	10.24
607.333	10.16
607.668	10.22
608.004	10.21
608.339	10.43
608.674	10.44
609.01	10.32
609.345	10.43
609.68	10.34
610.015	10.64
610.35	10.63
610.685	10.24
611.02	10.64
611.355	10.6
611.689	10.65
612.024	10.68
612.359	10.64
612.694	10.84
613.028	10.92
613.363	11.21
613.697	10.94
614.032	11.07
614.366	10.83
614.7	10.81
615.035	11.36
615.369	11.09
615.703	10.76
616.037	10.97
616.371	10.83
616.705	11.05
617.039	11.21
617.373	11.48
617.707	11.77
618.041	11.26
618.375	11.49
618.709	11.04
619.042	11.52
619.376	11.46
619.71	11.68
620.043	11.32
620.377	11.16
620.71	11.65
621.043	11.58
621.377	11.56
621.71	11.82
622.043	11.39
622.376	11.57
622.709	11.85
623.043	11.35
623.376	11.68
623.709	11.77
624.041	11.77
624.374	11.77
624.707	11.77
625.04	12.14
625.373	11.95
625.705	11.98
626.038	11.97
626.37	11.65
626.703	11.66
627.035	12.12
627.368	12.44
627.7	12.04
628.032	12.25
628.365	12.23
628.697	12.18
629.029	12.18
629.361	12.39
629.693	12.02
630.025	12.45
630.357	12.65
630.689	12.58
631.021	12.41
631.353	12.87
631.684	12.7
632.016	12.77
632.348	12.23
632.679	12.9
633.011	12.86
633.342	12.65
633.674	12.37
634.005	12.42
634.336	13.27
634.668	12.98
634.999	12.9
635.33	12.63
635.661	12.9
635.992	13.21
636.323	13.14
636.654	13.22
636.985	13.16
637.316	12.93
637.647	12.96
637.977	13.04
638.308	13.08
638.639	12.77
638.969	13.65
639.3	12.65
639.63	13.25
639.961	13.58
640.291	13.02
640.622	13.46
640.952	13.59
641.282	13.46
641.612	13.32
641.943	12.97
642.273	13.62
642.603	13.46
642.933	13.52
643.263	13.51
643.592	13.72
643.922	13.71
644.252	13.81
644.582	13.86
644.911	13.66
645.241	13.48
645.571	13.92
645.9	13.61
646.23	14.01
646.559	13.71
646.888	14.06
647.218	13.85
647.547	14.17
647.876	13.71
648.205	13.95
648.534	14.14
648.863	14.35
649.192	14.5
649.521	13.59
649.85	14.01
650.179	14.01
650.508	14.09
650.837	14.75
651.165	14.25
651.494	14.05
651.822	14.5
652.151	14.36
652.479	14.33
652.808	14.56
653.136	14.34
653.465	14.14
653.793	14.73
654.121	13.9
654.449	14.26
654.777	14.61
655.105	14.53
655.433	14.61
655.761	14.63
656.089	15.03
656.417	14.44
656.745	14.94
657.073	14.15
657.4	15.31
657.728	14.98
658.056	15.36
658.383	14.87
658.711	15.01
659.038	15.11
659.365	15.26
659.693	15.33
660.02	15.32
660.347	15.27
660.674	15.1
661.001	15.75
661.329	15.17
661.656	15.81
661.982	15.43
662.309	15.53
662.636	15.38
662.963	15.53
663.29	15.55
663.616	15.65
663.943	15.72
664.27	15.08
664.596	15.55
664.923	16.07
665.249	15.6
665.576	15.78
665.902	15.39
666.228	16.34
666.554	15.92
666.881	15.59
667.207	16.01
667.533	15.84
667.859	15.92
668.185	16.5
668.511	15.55
668.837	16.08
669.162	16.02
669.488	16.2
669.814	16.7
670.139	15.83
670.465	15.76
670.791	16.71
671.116	16.47
671.442	16.48
671.767	16.21
672.092	15.99
672.418	16.79
672.743	16.43
673.068	15.84
673.393	16.41
673.718	16.36
674.043	16.62
674.368	17.02
674.693	16.54
675.018	16.7
675.343	16.83
675.667	16.38
675.992	16.62
676.317	16.58
676.641	16.72
676.966	17.17
677.29	16.37
677.615	17.1
677.939	17.39
678.264	16.28
678.588	16.74
678.912	17.03
679.236	17.03
679.56	16.61
679.885	17.05
680.209	16.69
680.532	17.16
680.856	17.54
681.18	17.35
681.504	17.42
681.828	17.63
682.152	17.88
682.475	16.94
682.799	17.73
683.122	17.65
683.446	17.45
683.769	17
684.093	17.97
684.416	17.41
684.739	17.61
685.062	17.48
685.386	17.86
685.709	17.52
686.032	17.62
686.355	17.55
686.678	17.57
687.001	18.03
687.324	18.84
