Data from 97283_chest_Reflection__0__31.txt Node

Date: Fri Sep 23 19:57:48 CDT 2022
User: ToomeyLab
Spectrometer: FLMS14357
Trigger mode: 0
Integration Time (sec): 1.000000E-2
Scans to average: 100
Electric dark correction enabled: true
Nonlinearity correction enabled: false
Boxcar width: 0
XAxis mode: Wavelengths
Number of Pixels in Spectrum: 2048
>>>>>Begin Spectral Data<<<<<
189.047	-18.77
189.435	-18.77
189.823	-18.77
190.211	-196.39
190.599	1300.76
190.987	67.73
191.375	1157.39
191.763	56.4
192.151	-68.05
192.538	247.91
192.926	103.52
193.314	86.35
193.702	63.88
194.089	-85.75
194.477	48.01
194.864	-403.53
195.252	50.82
195.639	39.48
196.027	84.99
196.414	71.83
196.801	209.89
197.189	94.43
197.576	-381.65
197.963	52.68
198.351	22.7
198.738	-82.87
199.125	32.51
199.512	-2.1
199.899	40.37
200.286	-12.63
200.673	8.64
201.06	15.65
201.447	34.28
201.833	32.59
202.22	20.55
202.607	19.93
202.994	11.99
203.38	-33.76
203.767	-64.64
204.154	17.13
204.54	5.44
204.927	25.39
205.313	36.61
205.699	10.55
206.086	17.01
206.472	13.36
206.858	12.78
207.245	-25.14
207.631	15.36
208.017	16.46
208.403	7.04
208.789	15.82
209.175	35.43
209.561	52.76
209.947	-7.04
210.333	-43.6
210.719	-1.59
211.105	19.77
211.491	-15.27
211.876	18.77
212.262	-14.18
212.648	-51.46
213.034	-27.1
213.419	-16.96
213.805	24.04
214.19	12.16
214.576	2.18
214.961	21
215.346	-8.57
215.732	23.9
216.117	13.75
216.502	37.47
216.888	24.44
217.273	23.3
217.658	4.83
218.043	8.1
218.428	-14.05
218.813	13.88
219.198	17.77
219.583	12.02
219.968	15.48
220.353	20.82
220.738	7.51
221.122	14.71
221.507	3.75
221.892	1.34
222.276	-6.97
222.661	2.6
223.046	2.27
223.43	-3.01
223.815	3.79
224.199	4.89
224.583	-2.8
224.968	-0.85
225.352	3.72
225.736	11.31
226.121	5.34
226.505	6.55
226.889	7.66
227.273	5.26
227.657	2.86
228.041	3.48
228.425	3.18
228.809	4.02
229.193	4.24
229.577	3.85
229.961	4.83
230.344	4.68
230.728	3.39
231.112	3.97
231.495	3.22
231.879	1.44
232.263	4.91
232.646	5.43
233.03	4.06
233.413	4.42
233.797	4.15
234.18	6.19
234.563	3.12
234.946	6.26
235.33	3.54
235.713	5.6
236.096	1.58
236.479	2.84
236.862	3.7
237.245	4.37
237.628	5.91
238.011	4.98
238.394	4.36
238.777	5.16
239.16	4.86
239.543	3.87
239.925	3.97
240.308	5.24
240.691	3.84
241.073	3.52
241.456	4.38
241.838	6.11
242.221	4.95
242.603	4.52
242.986	3.39
243.368	3.65
243.75	4.02
244.133	4.19
244.515	3.79
244.897	4.07
245.279	4.6
245.661	4.63
246.043	4.44
246.425	5.09
246.807	3.44
247.189	3.88
247.571	4.35
247.953	4.52
248.335	4.4
248.717	4.12
249.098	4.09
249.48	4.09
249.862	4.15
250.243	3.88
250.625	4.27
251.006	4.37
251.388	4.35
251.769	5.2
252.151	3.65
252.532	4.97
252.913	4.15
253.295	4.11
253.676	4.6
254.057	3.91
254.438	3.99
254.819	4.44
255.2	4.41
255.581	5.22
255.962	4.62
256.343	4.23
256.724	3.11
257.105	5.39
257.486	4.25
257.867	3.58
258.247	4.43
258.628	4.64
259.009	3.55
259.389	4.2
259.77	3.59
260.15	3.57
260.531	3.9
260.911	3.73
261.292	4.06
261.672	4.05
262.052	3.81
262.432	3.71
262.813	4
263.193	3.81
263.573	4.31
263.953	3.57
264.333	4.28
264.713	4.43
265.093	4.44
265.473	3.79
265.853	3.69
266.233	3.76
266.612	4.19
266.992	4.94
267.372	3.55
267.752	4.26
268.131	3.92
268.511	3.74
268.89	3.71
269.27	4.1
269.649	3.48
270.029	4.25
270.408	4
270.787	4.13
271.167	3.8
271.546	4.06
271.925	3.78
272.304	3.57
272.683	3.4
273.062	3.65
273.441	3.86
273.82	3.69
274.199	3.61
274.578	3.67
274.957	3.8
275.336	3.64
275.715	3.11
276.093	4.26
276.472	4.58
276.851	4.15
277.229	3.94
277.608	3.91
277.986	3.58
278.365	3.63
278.743	4.19
279.122	3.34
279.5	3.76
279.878	3.47
280.257	3.48
280.635	3.96
281.013	3.44
281.391	3.96
281.769	3.46
282.147	3.44
282.525	4.19
282.903	3.64
283.281	3.48
283.659	3.6
284.037	3.74
284.415	3.64
284.792	3.73
285.17	3.57
285.548	3.58
285.925	3.75
286.303	4.44
286.68	3.76
287.058	3.82
287.435	3.82
287.813	4.13
288.19	3.87
288.567	4.05
288.945	3.97
289.322	3.45
289.699	3.88
290.076	3.59
290.453	3.86
290.83	3.89
291.207	3.72
291.584	4.39
291.961	4.13
292.338	4.03
292.715	3.82
293.092	4
293.469	4.33
293.845	4.29
294.222	3.7
294.599	3.6
294.975	3.93
295.352	4.06
295.728	3.86
296.105	3.97
296.481	3.84
296.858	3.89
297.234	4.15
297.61	3.5
297.986	3.96
298.363	3.9
298.739	4.26
299.115	3.74
299.491	4.16
299.867	3.9
300.243	4.08
300.619	4.83
300.995	4.47
301.371	3.82
301.746	4.19
302.122	4.21
302.498	3.98
302.874	3.66
303.249	4.1
303.625	4.11
304	4.07
304.376	3.71
304.751	3.45
305.127	4.35
305.502	4.41
305.878	4.52
306.253	4.52
306.628	3.84
307.003	3.82
307.378	4.05
307.754	4.69
308.129	4.25
308.504	4.05
308.879	4.13
309.254	4.05
309.629	4.43
310.003	4.29
310.378	4.41
310.753	4.02
311.128	3.92
311.502	3.99
311.877	3.78
312.252	3.88
312.626	4.15
313.001	4.24
313.375	4.28
313.75	4.18
314.124	4.06
314.498	4.42
314.873	4.51
315.247	4.35
315.621	4.61
315.995	4.3
316.369	4.22
316.743	3.72
317.117	3.77
317.491	3.98
317.865	4.4
318.239	4.76
318.613	4.4
318.987	3.97
319.361	4.06
319.734	4.3
320.108	3.92
320.482	4.16
320.855	3.89
321.229	4.42
321.602	4.19
321.976	4.47
322.349	4.31
322.723	4.26
323.096	4.41
323.469	4.49
323.843	4.02
324.216	4.54
324.589	4.51
324.962	4.41
325.335	4.17
325.708	4.1
326.081	3.81
326.454	4.38
326.827	3.87
327.2	3.99
327.573	4.7
327.945	4.55
328.318	3.91
328.691	4.37
329.063	4.58
329.436	4.4
329.809	4.25
330.181	4.12
330.553	4.13
330.926	4.01
331.298	3.99
331.671	4.41
332.043	4.88
332.415	3.84
332.787	3.97
333.159	4.27
333.532	3.72
333.904	3.88
334.276	3.86
334.648	4.63
335.02	4.5
335.391	4.53
335.763	4.03
336.135	4.27
336.507	4.53
336.879	4.13
337.25	4.53
337.622	4.61
337.993	4.43
338.365	4.1
338.736	4.53
339.108	4.56
339.479	3.92
339.851	4.06
340.222	5.07
340.593	4.19
340.964	4.42
341.336	3.87
341.707	5.11
342.078	4.23
342.449	4.2
342.82	4.2
343.191	4.37
343.562	4.23
343.933	4.49
344.303	4.72
344.674	4.31
345.045	4.66
345.416	3.96
345.786	4.79
346.157	4.38
346.527	4.57
346.898	4.41
347.268	4.5
347.639	4.59
348.009	4.14
348.38	4.17
348.75	4.51
349.12	4.11
349.49	4.51
349.861	4.44
350.231	4.44
350.601	3.88
350.971	4.42
351.341	4.51
351.711	4.48
352.081	4.39
352.45	4.14
352.82	4.37
353.19	4.92
353.56	4.64
353.929	4.42
354.299	4.39
354.669	4.26
355.038	4.66
355.408	3.53
355.777	4.38
356.147	4.3
356.516	4.23
356.885	4.33
357.254	4.29
357.624	4.2
357.993	4.26
358.362	4.21
358.731	4.37
359.1	4.42
359.469	4.24
359.838	4.38
360.207	4.64
360.576	4.32
360.945	4.06
361.314	4.46
361.682	4.13
362.051	4.47
362.42	4.75
362.788	4.43
363.157	4.62
363.525	4.46
363.894	4.38
364.262	4.09
364.631	4.27
364.999	4.5
365.367	4.4
365.735	4.62
366.104	4.61
366.472	4.26
366.84	4.43
367.208	4.43
367.576	4.43
367.944	4.59
368.312	4.8
368.68	4.3
369.048	4.5
369.416	4.58
369.783	4.66
370.151	4.84
370.519	4.32
370.886	4.48
371.254	4.54
371.621	4.25
371.989	4.58
372.356	4.82
372.724	4.4
373.091	4.48
373.458	4.8
373.826	4.34
374.193	4.59
374.56	4.45
374.927	4.98
375.294	4.81
375.661	4.59
376.028	4.36
376.395	4.59
376.762	4.3
377.129	4.22
377.496	4.62
377.863	4.66
378.229	4.71
378.596	4.33
378.963	4.92
379.329	4.67
379.696	4.52
380.062	4.69
380.429	4.17
380.795	4.37
381.161	4.74
381.528	4.75
381.894	4.4
382.26	4.5
382.626	3.96
382.993	4.73
383.359	4.48
383.725	4.79
384.091	4.8
384.457	4.82
384.823	4.59
385.188	5.01
385.554	4.66
385.92	4.87
386.286	4.52
386.651	4.68
387.017	5.01
387.383	4.86
387.748	5.08
388.114	4.44
388.479	4.66
388.845	4.8
389.21	4.56
389.575	4.67
389.94	4.66
390.306	4.61
390.671	4.68
391.036	4.75
391.401	4.9
391.766	4.58
392.131	4.52
392.496	4.85
392.861	4.73
393.226	4.69
393.591	4.67
393.956	4.88
394.32	4.67
394.685	4.77
395.05	4.88
395.414	4.72
395.779	4.62
396.143	4.74
396.508	5.1
396.872	4.76
397.236	5.01
397.601	4.54
397.965	5.06
398.329	4.94
398.694	4.77
399.058	4.81
399.422	4.84
399.786	4.92
400.15	4.75
400.514	4.77
400.878	4.95
401.242	4.91
401.605	5.23
401.969	4.85
402.333	4.85
402.697	4.62
403.06	5.09
403.424	4.65
403.787	4.93
404.151	4.97
404.514	4.73
404.878	4.57
405.241	4.89
405.604	4.74
405.968	4.74
406.331	4.73
406.694	4.77
407.057	4.85
407.42	4.81
407.783	4.6
408.146	4.76
408.509	4.81
408.872	4.71
409.235	4.81
409.598	4.97
409.961	4.89
410.323	4.81
410.686	4.95
411.049	4.93
411.411	4.86
411.774	4.82
412.136	4.96
412.499	4.89
412.861	4.76
413.223	4.71
413.586	4.8
413.948	4.88
414.31	4.88
414.672	4.86
415.035	4.87
415.397	4.92
415.759	5.14
416.121	5.2
416.483	4.81
416.845	4.75
417.206	4.87
417.568	5.07
417.93	4.81
418.292	4.9
418.653	4.91
419.015	4.98
419.377	4.77
419.738	4.93
420.1	4.82
420.461	4.77
420.822	5
421.184	4.92
421.545	4.89
421.906	4.82
422.267	4.82
422.629	4.76
422.99	4.81
423.351	4.75
423.712	4.7
424.073	4.84
424.434	5.04
424.795	4.96
425.155	4.86
425.516	4.85
425.877	4.89
426.238	4.82
426.598	4.81
426.959	4.8
427.32	4.88
427.68	4.87
428.041	4.82
428.401	4.97
428.761	4.98
429.122	5.01
429.482	5.03
429.842	5.19
430.202	5.04
430.563	4.99
430.923	5.17
431.283	5.09
431.643	5.01
432.003	5.05
432.363	5.2
432.722	5.1
433.082	4.9
433.442	4.99
433.802	5
434.161	5.04
434.521	4.98
434.881	5.04
435.24	4.9
435.6	4.94
435.959	5.02
436.319	4.96
436.678	5.05
437.037	5.15
437.396	5.04
437.756	5
438.115	5.01
438.474	5.09
438.833	5.13
439.192	5.18
439.551	5.17
439.91	4.98
440.269	5.18
440.628	5.1
440.987	4.99
441.345	5.06
441.704	5.07
442.063	5.1
442.421	4.91
442.78	4.94
443.138	4.98
443.497	5
443.855	4.98
444.214	5.18
444.572	5.07
444.93	5.15
445.288	5.25
445.647	5.28
446.005	5.09
446.363	5.15
446.721	5.1
447.079	5
447.437	5.13
447.795	5.08
448.153	4.94
448.51	5.12
448.868	5.01
449.226	5.06
449.584	5.1
449.941	5.1
450.299	5.08
450.656	5.08
451.014	5.19
451.371	5.06
451.729	5.03
452.086	5.34
452.443	5.25
452.801	5.22
453.158	5.32
453.515	5.33
453.872	5.07
454.229	5.34
454.586	5.06
454.943	5.18
455.3	5.2
455.657	5.31
456.014	5.36
456.371	5.29
456.727	5.39
457.084	5.19
457.441	5.28
457.797	5.25
458.154	5.26
458.51	5.2
458.867	5.46
459.223	5.4
459.58	5.29
459.936	5.22
460.292	5.21
460.648	5.33
461.005	5.22
461.361	5.12
461.717	5.2
462.073	5.22
462.429	5.09
462.785	5.22
463.141	5.12
463.496	5.4
463.852	5.27
464.208	5.24
464.564	5.43
464.919	5.33
465.275	5.43
465.631	5.14
465.986	5.21
466.342	5.26
466.697	5.34
467.052	5.35
467.408	5.5
467.763	5.41
468.118	5.13
468.473	5.41
468.829	5.33
469.184	5.41
469.539	5.24
469.894	5.41
470.249	5.48
470.603	5.6
470.958	5.42
471.313	5.43
471.668	5.48
472.023	5.46
472.377	5.25
472.732	5.38
473.086	5.38
473.441	5.56
473.795	5.51
474.15	5.39
474.504	5.41
474.859	5.38
475.213	5.6
475.567	5.47
475.921	5.38
476.275	5.36
476.63	5.46
476.984	5.66
477.338	5.49
477.692	5.54
478.045	5.37
478.399	5.38
478.753	5.49
479.107	5.31
479.461	5.45
479.814	5.43
480.168	5.43
480.521	5.56
480.875	5.43
481.228	5.62
481.582	5.51
481.935	5.41
482.289	5.54
482.642	5.36
482.995	5.67
483.348	5.33
483.701	5.44
484.055	5.41
484.408	5.43
484.761	5.4
485.114	5.31
485.466	5.26
485.819	5.2
486.172	5.19
486.525	5.24
486.878	5.27
487.23	5.31
487.583	5.36
487.936	5.36
488.288	5.36
488.641	5.37
488.993	5.38
489.345	5.4
489.698	5.33
490.05	5.37
490.402	5.34
490.754	5.39
491.107	5.43
491.459	5.44
491.811	5.45
492.163	5.55
492.515	5.65
492.866	5.51
493.218	5.45
493.57	5.38
493.922	5.41
494.274	5.44
494.625	5.48
494.977	5.55
495.328	5.64
495.68	5.7
496.031	5.64
496.383	5.65
496.734	5.73
497.086	5.82
497.437	5.9
497.788	5.7
498.139	5.71
498.49	5.62
498.842	5.71
499.193	5.7
499.544	5.59
499.894	5.73
500.245	5.76
500.596	5.67
500.947	5.65
501.298	5.7
501.648	5.94
501.999	5.73
502.35	5.82
502.7	5.89
503.051	5.77
503.401	5.86
503.752	5.93
504.102	5.86
504.452	5.81
504.803	5.86
505.153	5.99
505.503	5.84
505.853	6.01
506.203	5.91
506.553	5.93
506.903	5.97
507.253	5.94
507.603	5.97
507.953	5.9
508.303	6.02
508.652	5.91
509.002	5.94
509.352	6.01
509.701	5.85
510.051	6.05
510.4	6
510.75	6
511.099	6.01
511.449	5.89
511.798	6.07
512.147	6.02
512.496	6
512.846	6.09
513.195	6.03
513.544	6.14
513.893	5.98
514.242	6.01
514.591	5.99
514.939	5.99
515.288	6.12
515.637	6.06
515.986	6.12
516.334	6.03
516.683	6.22
517.032	6.24
517.38	6.23
517.729	6.14
518.077	6.16
518.426	6.22
518.774	6.13
519.122	6.12
519.47	6.1
519.819	6.18
520.167	6.08
520.515	6.14
520.863	6.17
521.211	6.13
521.559	6.14
521.907	6.22
522.255	6.18
522.602	6.19
522.95	6.24
523.298	6.2
523.645	6.29
523.993	6.28
524.341	6.32
524.688	6.28
525.036	6.41
525.383	6.26
525.73	6.4
526.078	6.44
526.425	6.43
526.772	6.28
527.119	6.39
527.466	6.25
527.814	6.22
528.161	6.35
528.508	6.4
528.854	6.38
529.201	6.27
529.548	6.37
529.895	6.25
530.242	6.2
530.588	6.15
530.935	6.24
531.282	6.19
531.628	6.26
531.975	6.29
532.321	6.26
532.667	6.41
533.014	6.43
533.36	6.53
533.706	6.43
534.052	6.49
534.399	6.41
534.745	6.48
535.091	6.46
535.437	6.43
535.783	6.53
536.129	6.54
536.474	6.5
536.82	6.51
537.166	6.69
537.512	6.53
537.857	6.71
538.203	6.61
538.549	6.67
538.894	6.68
539.239	6.72
539.585	6.79
539.93	6.78
540.276	6.84
540.621	6.89
540.966	6.87
541.311	6.94
541.656	6.88
542.001	6.99
542.346	6.9
542.691	6.75
543.036	6.82
543.381	6.76
543.726	6.77
544.071	6.79
544.415	6.86
544.76	6.81
545.105	6.97
545.449	6.93
545.794	7.05
546.138	7.04
546.483	7.1
546.827	7.19
547.171	7.22
547.516	7.13
547.86	7.13
548.204	7.19
548.548	7.07
548.892	7.09
549.236	7.18
549.58	7.22
549.924	7.27
550.268	7.23
550.612	7.4
550.956	7.43
551.3	7.25
551.643	7.31
551.987	7.5
552.33	7.27
552.674	7.45
553.017	7.63
553.361	7.45
553.704	7.37
554.048	7.57
554.391	7.44
554.734	7.6
555.077	7.34
555.42	7.35
555.764	7.5
556.107	7.59
556.45	7.46
556.793	7.68
557.135	7.7
557.478	7.78
557.821	7.87
558.164	7.78
558.507	7.66
558.849	7.82
559.192	7.88
559.534	7.87
559.877	7.87
560.219	7.83
560.562	7.99
560.904	7.81
561.246	7.87
561.589	7.9
561.931	8.07
562.273	8.23
562.615	8.06
562.957	7.99
563.299	7.86
563.641	8.17
563.983	7.99
564.325	8.12
564.667	8.07
565.008	8.03
565.35	8.14
565.692	7.97
566.033	8.16
566.375	8.45
566.716	8.34
567.058	8.45
567.399	8.28
567.741	8.3
568.082	8.28
568.423	8.22
568.764	8.39
569.105	8.38
569.447	8.31
569.788	8.38
570.129	8.52
570.47	8.5
570.811	8.56
571.151	8.6
571.492	8.49
571.833	8.65
572.174	8.71
572.514	8.65
572.855	8.52
573.195	8.67
573.536	8.81
573.876	8.52
574.217	8.7
574.557	8.71
574.898	8.8
575.238	8.78
575.578	8.72
575.918	8.74
576.258	8.8
576.598	8.94
576.938	9.19
577.278	8.86
577.618	8.88
577.958	8.99
578.298	8.96
578.638	8.88
578.977	9.05
579.317	9.13
579.657	9.48
579.996	9.06
580.336	9.26
580.675	9.26
581.014	9.31
581.354	9.45
581.693	9.35
582.032	9.34
582.372	9.56
582.711	9.48
583.05	9.59
583.389	9.49
583.728	9.75
584.067	9.77
584.406	9.24
584.745	9.48
585.083	9.56
585.422	9.66
585.761	9.53
586.1	9.44
586.438	9.59
586.777	9.63
587.115	9.55
587.454	9.63
587.792	9.9
588.13	10
588.469	9.93
588.807	9.74
589.145	9.84
589.483	10.05
589.821	9.89
590.159	10.07
590.497	10.03
590.835	9.92
591.173	10.05
591.511	10.27
591.849	10.05
592.187	10.25
592.524	10.31
592.862	10.16
593.2	10.29
593.537	10.26
593.875	10.37
594.212	10.2
594.55	10.16
594.887	10.44
595.224	10.36
595.561	10.3
595.899	10.37
596.236	10.3
596.573	10.52
596.91	10.62
597.247	10.84
597.584	10.75
597.921	10.36
598.258	10.4
598.594	10.61
598.931	10.67
599.268	10.69
599.604	10.66
599.941	10.76
600.277	10.87
600.614	10.74
600.95	10.87
601.287	10.8
601.623	10.77
601.959	11.17
602.296	10.97
602.632	11.01
602.968	10.99
603.304	11.04
603.64	11.44
603.976	10.99
604.312	11.28
604.648	11.21
604.984	10.88
605.319	11.31
605.655	11.41
605.991	11.21
606.326	11.11
606.662	11.29
606.998	11.37
607.333	11.19
607.668	11.37
608.004	11.33
608.339	11.35
608.674	11.65
609.01	11.62
609.345	11.49
609.68	11.62
610.015	11.94
610.35	11.6
610.685	11.47
611.02	11.76
611.355	11.78
611.689	11.61
612.024	11.66
612.359	11.72
612.694	12.11
613.028	12.01
613.363	12.1
613.697	12.23
614.032	11.74
614.366	12.38
614.7	12.35
615.035	12.37
615.369	12.31
615.703	12.28
616.037	12.15
616.371	12.38
616.705	12.18
617.039	12.27
617.373	12.58
617.707	12.41
618.041	12.61
618.375	12.88
618.709	12.18
619.042	12.59
619.376	12.69
619.71	12.27
620.043	12.25
620.377	12.74
620.71	12.49
621.043	12.86
621.377	12.56
621.71	13.21
622.043	12.65
622.376	12.71
622.709	12.68
623.043	12.61
623.376	13.15
623.709	13.2
624.041	12.82
624.374	12.95
624.707	12.99
625.04	12.89
625.373	13.35
625.705	13.26
626.038	13.12
626.37	12.88
626.703	13.21
627.035	13.6
627.368	13.46
627.7	13.33
628.032	13.39
628.365	13.32
628.697	13.29
629.029	13.68
629.361	13.35
629.693	13.57
630.025	13.44
630.357	13.7
630.689	13.81
631.021	13.65
631.353	13.75
631.684	13.57
632.016	13.93
632.348	13.46
632.679	13.72
633.011	13.71
633.342	13.69
633.674	13.94
634.005	13.77
634.336	14.22
634.668	14.13
634.999	13.91
635.33	14.17
635.661	14.37
635.992	14.2
636.323	14.59
636.654	14.23
636.985	14.44
637.316	14.23
637.647	14.44
637.977	14.17
638.308	14.83
638.639	14.08
638.969	14.17
639.3	14.05
639.63	14.79
639.961	14.74
640.291	14.56
640.622	14.58
640.952	15.01
641.282	14.71
641.612	14.38
641.943	14.86
642.273	14.93
642.603	14.79
642.933	14.75
643.263	14.57
643.592	14.57
643.922	14.81
644.252	15.21
644.582	15.18
644.911	14.99
645.241	15.27
645.571	15.43
645.9	14.95
646.23	15.56
646.559	14.72
646.888	14.87
647.218	15.32
647.547	15.29
647.876	15.08
648.205	15.39
648.534	15.32
648.863	15.33
649.192	15.82
649.521	15.23
649.85	15.3
650.179	15.59
650.508	15.44
650.837	15.61
651.165	15.45
651.494	15.58
651.822	15.79
652.151	15.38
652.479	15.69
652.808	16.2
653.136	15.63
653.465	15.44
653.793	16.05
654.121	15.5
654.449	15.7
654.777	15.9
655.105	15.95
655.433	15.84
655.761	16.36
656.089	16.06
656.417	16.23
656.745	16.29
657.073	15.54
657.4	15.65
657.728	16
658.056	16.31
658.383	16.23
658.711	16.16
659.038	16.15
659.365	16.28
659.693	16.29
660.02	16.77
660.347	16.76
660.674	16.52
661.001	17.13
661.329	16.52
661.656	16.96
661.982	16.57
662.309	16.34
662.636	16.47
662.963	17.06
663.29	17.05
663.616	16.92
663.943	16.44
664.27	16.86
664.596	16.71
664.923	16.61
665.249	17.18
665.576	17
665.902	16.75
666.228	17.29
666.554	17.19
666.881	17.37
667.207	17.24
667.533	16.88
667.859	17.02
668.185	17.38
668.511	17.42
668.837	17.39
669.162	17.22
669.488	17.8
669.814	17.08
670.139	17.22
670.465	17.65
670.791	17.67
671.116	17.63
671.442	18.24
671.767	17.44
672.092	17.52
672.418	17.8
672.743	17.31
673.068	17.91
673.393	17.96
673.718	17.84
674.043	18.26
674.368	18.57
674.693	17.79
675.018	18.25
675.343	18.65
675.667	18.25
675.992	18.66
676.317	17.78
676.641	17.99
676.966	18.66
677.29	18.58
677.615	18.4
677.939	18.73
678.264	17.9
678.588	18.04
678.912	18.06
679.236	18.92
679.56	18.14
679.885	18.54
680.209	18.38
680.532	18.62
680.856	18.95
681.18	18.57
681.504	19.1
681.828	18.61
682.152	18.71
682.475	18.82
682.799	19.13
683.122	18.42
683.446	19.18
683.769	18.52
684.093	19.03
684.416	19.66
684.739	19.11
685.062	19.01
685.386	18.47
685.709	18.59
686.032	19.11
686.355	19.05
