Data from 97283_forehead_Reflection__0__36.txt Node

Date: Fri Sep 23 19:59:37 CDT 2022
User: ToomeyLab
Spectrometer: FLMS14357
Trigger mode: 0
Integration Time (sec): 1.000000E-2
Scans to average: 100
Electric dark correction enabled: true
Nonlinearity correction enabled: false
Boxcar width: 0
XAxis mode: Wavelengths
Number of Pixels in Spectrum: 2048
>>>>>Begin Spectral Data<<<<<
189.047	-2.83
189.435	-2.83
189.823	-2.83
190.211	308.71
190.599	-251.15
190.987	9.11
191.375	348.8
191.763	131.44
192.151	-46.66
192.538	60.98
192.926	12.36
193.314	174.83
193.702	173.42
194.089	188.47
194.477	38.25
194.864	-2.41
195.252	31.29
195.639	686.32
196.027	76.15
196.414	-14.87
196.801	-13.41
197.189	34.57
197.576	-96.36
197.963	-19.3
198.351	58.68
198.738	-0.26
199.125	71.17
199.512	37.35
199.899	-5.48
200.286	-16.01
200.673	26.39
201.06	6.42
201.447	61.1
201.833	31.28
202.22	14.11
202.607	36.89
202.994	0.54
203.38	17.52
203.767	2.65
204.154	19.9
204.54	69.49
204.927	38.27
205.313	33.87
205.699	5.54
206.086	9.5
206.472	47.69
206.858	6.29
207.245	6.27
207.631	22.79
208.017	59.32
208.403	8.94
208.789	32.51
209.175	16.93
209.561	33.13
209.947	39.18
210.333	34.6
210.719	1.01
211.105	16.19
211.491	23.28
211.876	22
212.262	21.14
212.648	39.75
213.034	-16.09
213.419	-14.66
213.805	39.79
214.19	16.24
214.576	44.64
214.961	25.7
215.346	3.5
215.732	33.38
216.117	-0.3
216.502	5.1
216.888	30.51
217.273	15.5
217.658	-25.23
218.043	46.38
218.428	37.64
218.813	16.6
219.198	9.27
219.583	17.91
219.968	-10.41
220.353	36.28
220.738	14.73
221.122	28.6
221.507	6.26
221.892	8.42
222.276	-2.57
222.661	4.71
223.046	19.96
223.43	2.57
223.815	14.75
224.199	12.49
224.583	2.48
224.968	-6.52
225.352	16.29
225.736	6.47
226.121	14.57
226.505	5.94
226.889	12.45
227.273	11.92
227.657	6.49
228.041	6.05
228.425	10.76
228.809	5.23
229.193	5.21
229.577	2.98
229.961	4.94
230.344	3.92
230.728	3.67
231.112	2.98
231.495	3.42
231.879	1.92
232.263	2.97
232.646	4.93
233.03	4.05
233.413	3.95
233.797	5.31
234.18	4.79
234.563	3.75
234.946	4.79
235.33	4.61
235.713	4.65
236.096	1.52
236.479	3.93
236.862	3.99
237.245	4.92
237.628	5.55
238.011	5.08
238.394	5.28
238.777	5.02
239.16	5.88
239.543	3.45
239.925	4.05
240.308	3.83
240.691	3.16
241.073	3.26
241.456	2.93
241.838	4.12
242.221	5.03
242.603	4.44
242.986	3.57
243.368	3.42
243.75	3.46
244.133	3.9
244.515	3.69
244.897	3.83
245.279	3.98
245.661	4.56
246.043	4.9
246.425	3.62
246.807	1.87
247.189	4.23
247.571	3.94
247.953	3.82
248.335	3.82
248.717	3.74
249.098	3.51
249.48	3.58
249.862	3.72
250.243	3.97
250.625	3.84
251.006	4.27
251.388	3.95
251.769	4.19
252.151	2.76
252.532	4.48
252.913	4.65
253.295	3.85
253.676	4.22
254.057	3.75
254.438	3.59
254.819	4.66
255.2	4.4
255.581	5.49
255.962	3.27
256.343	5.25
256.724	3.76
257.105	4.37
257.486	4.01
257.867	3.18
258.247	4.55
258.628	3.76
259.009	3.3
259.389	3.81
259.77	3.5
260.15	3.64
260.531	3.58
260.911	3.47
261.292	3.48
261.672	3.35
262.052	3.15
262.432	3.51
262.813	3.94
263.193	3.54
263.573	3.56
263.953	3.42
264.333	3.73
264.713	3.84
265.093	4.16
265.473	4.26
265.853	4.36
266.233	3.28
266.612	3.99
266.992	4.88
267.372	3.83
267.752	3.81
268.131	3.93
268.511	3.26
268.89	3.72
269.27	3.65
269.649	3.88
270.029	3.62
270.408	3.96
270.787	3.82
271.167	3.66
271.546	3.83
271.925	3.86
272.304	3.53
272.683	3.69
273.062	3.1
273.441	3.44
273.82	3.29
274.199	3.56
274.578	3
274.957	3.42
275.336	3.72
275.715	3.65
276.093	4.15
276.472	4.23
276.851	4.16
277.229	3.3
277.608	3.65
277.986	3.44
278.365	3.55
278.743	3.75
279.122	2.59
279.5	3.5
279.878	3.16
280.257	3.57
280.635	3.49
281.013	3.17
281.391	2.91
281.769	3.77
282.147	3.21
282.525	3.39
282.903	3.42
283.281	3.23
283.659	3.4
284.037	3.29
284.415	3.46
284.792	3.79
285.17	3.45
285.548	3.27
285.925	3.71
286.303	3.75
286.68	3.47
287.058	3.54
287.435	3.57
287.813	3.69
288.19	3.6
288.567	3.77
288.945	3.44
289.322	3.77
289.699	3.82
290.076	3.47
290.453	3.36
290.83	3.76
291.207	3.54
291.584	3.77
291.961	3.65
292.338	3.52
292.715	3.52
293.092	3.38
293.469	4.08
293.845	4.53
294.222	4.44
294.599	3.58
294.975	4.12
295.352	3.95
295.728	3.8
296.105	3.69
296.481	3.47
296.858	3.96
297.234	3.78
297.61	3.26
297.986	3.82
298.363	3.92
298.739	4.21
299.115	4.03
299.491	3.89
299.867	4.04
300.243	4.28
300.619	4.63
300.995	4.95
301.371	3.58
301.746	4.85
302.122	4.06
302.498	4.54
302.874	4.07
303.249	4.28
303.625	4.27
304	4.82
304.376	4.11
304.751	4.35
305.127	4.66
305.502	5.14
305.878	4.31
306.253	4.6
306.628	4.28
307.003	4.89
307.378	4.81
307.754	5.39
308.129	4.66
308.504	4.95
308.879	5.29
309.254	4.94
309.629	4.63
310.003	4.97
310.378	4.88
310.753	4.6
311.128	4.46
311.502	4.89
311.877	4.75
312.252	5.12
312.626	4.92
313.001	5.32
313.375	5.08
313.75	4.88
314.124	4.85
314.498	5.19
314.873	5.59
315.247	5.5
315.621	5.3
315.995	5.24
316.369	5.16
316.743	5.33
317.117	5
317.491	5.41
317.865	6.12
318.239	6.36
318.613	5.25
318.987	5.86
319.361	5.25
319.734	5.85
320.108	5.01
320.482	5.82
320.855	5.43
321.229	6.35
321.602	5.54
321.976	6.46
322.349	6.02
322.723	5.93
323.096	6.38
323.469	5.92
323.843	6.11
324.216	6.84
324.589	6.48
324.962	6.51
325.335	5.86
325.708	6.18
326.081	6.31
326.454	6.4
326.827	6.23
327.2	5.96
327.573	6.35
327.945	6.98
328.318	6.59
328.691	6.72
329.063	6.08
329.436	6.5
329.809	7.35
330.181	7.05
330.553	6.56
330.926	6.65
331.298	6.83
331.671	7.17
332.043	6.82
332.415	6.89
332.787	6.55
333.159	7.07
333.532	6.55
333.904	6.76
334.276	6.32
334.648	7.28
335.02	7.19
335.391	6.97
335.763	6.83
336.135	7.04
336.507	7.14
336.879	6.73
337.25	7.12
337.622	7.42
337.993	7.36
338.365	7.48
338.736	8.06
339.108	7.76
339.479	7.31
339.851	7.73
340.222	7.55
340.593	7.24
340.964	7.64
341.336	7.82
341.707	8.27
342.078	7.61
342.449	7.32
342.82	7.57
343.191	7.28
343.562	7.47
343.933	8.54
344.303	7.59
344.674	8.1
345.045	7.99
345.416	8.01
345.786	8.24
346.157	7.86
346.527	8.29
346.898	8.26
347.268	8.22
347.639	8.05
348.009	8.02
348.38	7.97
348.75	8.04
349.12	8.42
349.49	8.41
349.861	8.75
350.231	8.39
350.601	8.17
350.971	8.72
351.341	8.49
351.711	8.51
352.081	8.37
352.45	8.17
352.82	7.73
353.19	8.84
353.56	9.03
353.929	8.41
354.299	8.89
354.669	8.66
355.038	8.95
355.408	8.48
355.777	8.55
356.147	8.52
356.516	8.91
356.885	8.58
357.254	8.6
357.624	8.75
357.993	9.05
358.362	8.99
358.731	9.14
359.1	9.18
359.469	8.92
359.838	9.26
360.207	8.92
360.576	8.9
360.945	9.53
361.314	9.15
361.682	9.14
362.051	9.57
362.42	9.44
362.788	9.21
363.157	9.69
363.525	9.72
363.894	9.64
364.262	9.27
364.631	9.37
364.999	9.46
365.367	9.53
365.735	9.76
366.104	9.86
366.472	9.68
366.84	9.33
367.208	9.94
367.576	10.04
367.944	9.88
368.312	10.04
368.68	9.88
369.048	9.99
369.416	10.22
369.783	10
370.151	10.29
370.519	10.25
370.886	10.59
371.254	10.55
371.621	10.48
371.989	10.36
372.356	10.95
372.724	10.43
373.091	10.19
373.458	10.41
373.826	10.16
374.193	10.61
374.56	10.73
374.927	10.72
375.294	10.7
375.661	11.03
376.028	10.86
376.395	10.73
376.762	10.9
377.129	10.68
377.496	11.19
377.863	11.18
378.229	11.1
378.596	10.96
378.963	11.16
379.329	11.3
379.696	11.21
380.062	11.16
380.429	11.02
380.795	10.97
381.161	11.53
381.528	11.66
381.894	11.4
382.26	11.36
382.626	11.17
382.993	11.85
383.359	11.65
383.725	11.7
384.091	11.39
384.457	11.66
384.823	11.74
385.188	11.82
385.554	11.85
385.92	11.95
386.286	11.94
386.651	12.2
387.017	12.19
387.383	12.17
387.748	11.86
388.114	11.99
388.479	11.96
388.845	12.28
389.21	12.21
389.575	12.28
389.94	12.11
390.306	12.23
390.671	12.43
391.036	12.39
391.401	12.35
391.766	12.48
392.131	12.57
392.496	12.53
392.861	12.6
393.226	12.41
393.591	12.33
393.956	12.48
394.32	12.61
394.685	12.58
395.05	12.94
395.414	12.74
395.779	12.68
396.143	12.79
396.508	12.83
396.872	12.66
397.236	13.01
397.601	12.87
397.965	13.31
398.329	13.03
398.694	13.02
399.058	13.05
399.422	13.35
399.786	13.19
400.15	12.97
400.514	13.05
400.878	13.22
401.242	13.05
401.605	13.45
401.969	13.6
402.333	13.24
402.697	13.11
403.06	13.87
403.424	13.5
403.787	13.73
404.151	13.3
404.514	13.19
404.878	13.42
405.241	13.59
405.604	13.48
405.968	13.71
406.331	13.74
406.694	13.47
407.057	13.69
407.42	13.78
407.783	13.68
408.146	13.75
408.509	13.67
408.872	13.73
409.235	14.03
409.598	14.01
409.961	14.17
410.323	14.08
410.686	14.17
411.049	13.94
411.411	14.19
411.774	13.96
412.136	14.18
412.499	13.91
412.861	13.94
413.223	14.22
413.586	14.16
413.948	14.44
414.31	14.34
414.672	14.49
415.035	14.34
415.397	14.6
415.759	14.47
416.121	14.6
416.483	14.8
416.845	14.3
417.206	14.73
417.568	14.4
417.93	14.36
418.292	14.75
418.653	14.56
419.015	14.59
419.377	14.43
419.738	14.72
420.1	14.6
420.461	14.71
420.822	14.81
421.184	14.74
421.545	14.71
421.906	14.78
422.267	14.83
422.629	14.7
422.99	14.75
423.351	14.92
423.712	14.89
424.073	15.08
424.434	15.12
424.795	15.24
425.155	15.26
425.516	15.22
425.877	15.22
426.238	15.38
426.598	15.41
426.959	15.47
427.32	15.58
427.68	15.73
428.041	15.75
428.401	15.91
428.761	15.87
429.122	15.91
429.482	15.9
429.842	16.2
430.202	16.14
430.563	16.12
430.923	16.49
431.283	16.32
431.643	16.44
432.003	16.49
432.363	16.56
432.722	16.62
433.082	16.57
433.442	16.55
433.802	16.62
434.161	16.82
434.521	16.8
434.881	16.78
435.24	16.66
435.6	16.64
435.959	16.96
436.319	17.13
436.678	17.01
437.037	17.35
437.396	17.29
437.756	17.19
438.115	17.2
438.474	17.34
438.833	17.21
439.192	17.55
439.551	17.38
439.91	17.48
440.269	17.58
440.628	17.55
440.987	17.66
441.345	17.69
441.704	17.6
442.063	17.62
442.421	17.64
442.78	17.68
443.138	17.82
443.497	17.97
443.855	17.91
444.214	18.15
444.572	18.08
444.93	18.2
445.288	18.25
445.647	18.49
446.005	18.38
446.363	18.49
446.721	18.31
447.079	18.42
447.437	18.48
447.795	18.36
448.153	18.31
448.51	18.4
448.868	18.49
449.226	18.63
449.584	18.66
449.941	18.93
450.299	18.9
450.656	19.02
451.014	19.02
451.371	19.08
451.729	19.14
452.086	19.32
452.443	19.3
452.801	19.57
453.158	19.6
453.515	19.58
453.872	19.66
454.229	19.52
454.586	19.54
454.943	19.78
455.3	19.69
455.657	19.87
456.014	20.14
456.371	19.8
456.727	20.05
457.084	19.96
457.441	20.27
457.797	20.01
458.154	20.31
458.51	20.29
458.867	20.57
459.223	20.47
459.58	20.42
459.936	20.31
460.292	20.14
460.648	20.49
461.005	20.22
461.361	20.33
461.717	20.15
462.073	20.26
462.429	20.46
462.785	20.58
463.141	20.7
463.496	20.84
463.852	21.15
464.208	21.01
464.564	21.27
464.919	21.18
465.275	21.3
465.631	21.38
465.986	21.35
466.342	21.34
466.697	21.38
467.052	21.63
467.408	21.55
467.763	21.74
468.118	21.65
468.473	21.77
468.829	21.74
469.184	21.68
469.539	21.8
469.894	22
470.249	22.07
470.603	22.25
470.958	22.12
471.313	22.3
471.668	22.36
472.023	22.26
472.377	22.33
472.732	22.38
473.086	22.34
473.441	22.56
473.795	22.73
474.15	22.76
474.504	22.69
474.859	22.69
475.213	22.87
475.567	22.77
475.921	22.98
476.275	23
476.63	23.01
476.984	23.2
477.338	23.07
477.692	23.1
478.045	23.05
478.399	23.19
478.753	22.88
479.107	23.03
479.461	23.37
479.814	23.24
480.168	23.23
480.521	23.38
480.875	23.43
481.228	23.68
481.582	23.66
481.935	23.74
482.289	23.53
482.642	23.58
482.995	23.85
483.348	23.43
483.701	23.42
484.055	23.52
484.408	23.29
484.761	23.09
485.114	22.83
485.466	22.65
485.819	22.71
486.172	22.95
486.525	23.21
486.878	23.34
487.23	23.53
487.583	23.73
487.936	23.85
488.288	23.68
488.641	23.65
488.993	23.42
489.345	23.44
489.698	23.5
490.05	23.72
490.402	23.76
490.754	24.06
491.107	24.24
491.459	24.33
491.811	24.41
492.163	24.76
492.515	24.61
492.866	24.27
493.218	23.96
493.57	24.06
493.922	24.21
494.274	24.59
494.625	24.83
494.977	25
495.328	25.22
495.68	25.49
496.031	25.62
496.383	25.63
496.734	25.74
497.086	25.88
497.437	25.94
497.788	25.88
498.139	25.76
498.49	25.56
498.842	25.6
499.193	25.69
499.544	25.93
499.894	25.99
500.245	26.13
500.596	26.13
500.947	26.19
501.298	26.29
501.648	26.69
501.999	26.57
502.35	26.67
502.7	26.73
503.051	26.75
503.401	26.92
503.752	26.85
504.102	26.92
504.452	26.92
504.803	26.89
505.153	27.04
505.503	26.96
505.853	27.26
506.203	27.05
506.553	27.06
506.903	27.32
507.253	27.4
507.603	27.36
507.953	27.33
508.303	27.61
508.652	27.36
509.002	27.41
509.352	27.54
509.701	27.36
510.051	27.57
510.4	27.54
510.75	27.44
511.099	27.67
511.449	27.67
511.798	27.78
512.147	27.71
512.496	27.85
512.846	27.79
513.195	28.05
513.544	27.92
513.893	27.98
514.242	27.92
514.591	28.04
514.939	28.14
515.288	28.36
515.637	28.3
515.986	28.34
516.334	28.27
516.683	28.49
517.032	28.67
517.38	28.73
517.729	28.69
518.077	28.5
518.426	28.76
518.774	28.62
519.122	28.66
519.47	28.56
519.819	28.53
520.167	28.35
520.515	28.37
520.863	28.58
521.211	28.49
521.559	28.7
521.907	28.76
522.255	29.16
522.602	29.14
522.95	29.19
523.298	29.45
523.645	29.54
523.993	29.45
524.341	29.49
524.688	29.65
525.036	29.83
525.383	29.65
525.73	29.66
526.078	29.62
526.425	29.72
526.772	29.4
527.119	29.36
527.466	29.27
527.814	29.36
528.161	29.39
528.508	29.44
528.854	29.43
529.201	29.5
529.548	29.31
529.895	29.17
530.242	28.76
530.588	28.87
530.935	29.2
531.282	29.37
531.628	29.53
531.975	29.73
532.321	29.78
532.667	29.98
533.014	30.12
533.36	30.39
533.706	30.3
534.052	30.2
534.399	30.1
534.745	29.9
535.091	29.76
535.437	29.82
535.783	30.09
536.129	30.38
536.474	30.62
536.82	30.74
537.166	30.88
537.512	30.74
537.857	30.87
538.203	30.72
538.549	30.46
538.894	30.84
539.239	30.97
539.585	31.23
539.93	31.3
540.276	31.62
540.621	31.61
540.966	31.55
541.311	31.7
541.656	31.46
542.001	31.65
542.346	31.22
542.691	31.06
543.036	30.84
543.381	30.77
543.726	31.14
544.071	31.17
544.415	31.49
544.76	31.55
545.105	31.53
545.449	31.77
545.794	31.86
546.138	31.92
546.483	32.28
546.827	32.29
547.171	32.36
547.516	32.33
547.86	32.3
548.204	32.29
548.548	32.16
548.892	32.13
549.236	32.4
549.58	32.76
549.924	32.94
550.268	33.03
550.612	33.03
550.956	33.22
551.3	33.21
551.643	33.23
551.987	33.47
552.33	33.51
552.674	33.42
553.017	33.55
553.361	33.72
553.704	33.59
554.048	33.56
554.391	33.52
554.734	33.47
555.077	33.55
555.42	33.77
555.764	33.69
556.107	33.98
556.45	33.99
556.793	34.01
557.135	34.31
557.478	34.15
557.821	34.35
558.164	34.23
558.507	34.28
558.849	34.29
559.192	34.68
559.534	34.81
559.877	34.93
560.219	34.71
560.562	34.89
560.904	34.9
561.246	34.46
561.589	34.85
561.931	34.84
562.273	35.23
562.615	35.03
562.957	34.99
563.299	34.98
563.641	35.17
563.983	35.24
564.325	35.14
564.667	35.21
565.008	35.32
565.35	35.41
565.692	35.28
566.033	35.38
566.375	35.58
566.716	35.49
567.058	35.33
567.399	35.25
567.741	35.24
568.082	35.47
568.423	35.35
568.764	35.66
569.105	35.61
569.447	35.71
569.788	35.84
570.129	35.81
570.47	36.08
570.811	36.04
571.151	36.14
571.492	35.91
571.833	36.09
572.174	35.93
572.514	36.22
572.855	36.17
573.195	36.23
573.536	36.26
573.876	35.99
574.217	36.2
574.557	36.24
574.898	36.44
575.238	36.66
575.578	36.66
575.918	36.51
576.258	36.55
576.598	36.54
576.938	36.6
577.278	36.82
577.618	36.76
577.958	36.88
578.298	36.93
578.638	37.13
578.977	37.11
579.317	37.13
579.657	37.26
579.996	37.37
580.336	37.81
580.675	37.45
581.014	37.89
581.354	37.84
581.693	37.83
582.032	37.96
582.372	38.2
582.711	37.89
583.05	38.25
583.389	37.91
583.728	38.4
584.067	38.24
584.406	38.29
584.745	38.39
585.083	38.36
585.422	38.4
585.761	38.39
586.1	38.26
586.438	38.51
586.777	38.57
587.115	38.63
587.454	38.7
587.792	38.64
588.13	38.71
588.469	38.84
588.807	38.73
589.145	39.01
589.483	38.86
589.821	38.89
590.159	38.81
590.497	38.8
590.835	38.81
591.173	38.85
591.511	38.74
591.849	38.88
592.187	39.18
592.524	39.35
592.862	39.46
593.2	39.17
593.537	39.55
593.875	39.83
594.212	39.44
594.55	39.53
594.887	39.18
595.224	39.47
595.561	39.56
595.899	39.94
596.236	39.82
596.573	39.8
596.91	39.54
597.247	39.85
597.584	39.89
597.921	39.82
598.258	39.6
598.594	39.59
598.931	39.64
599.268	39.72
599.604	39.84
599.941	39.98
600.277	40.3
600.614	40.07
600.95	40.2
601.287	40.5
601.623	40.39
601.959	40.43
602.296	40.79
602.632	40.37
602.968	40.54
603.304	40.68
603.64	40.61
603.976	40.44
604.312	40.92
604.648	40.89
604.984	40.52
605.319	40.72
605.655	40.83
605.991	40.48
606.326	40.52
606.662	40.68
606.998	40.63
607.333	40.68
607.668	41.02
608.004	41.13
608.339	41.18
608.674	41.48
609.01	41.44
609.345	41.69
609.68	41.81
610.015	41.64
610.35	41.21
610.685	41.28
611.02	41.19
611.355	41.26
611.689	41.13
612.024	41.57
612.359	41.51
612.694	41.95
613.028	41.98
613.363	41.93
613.697	41.97
614.032	42.1
614.366	42.31
614.7	42.27
615.035	42.66
615.369	42.84
615.703	42.66
616.037	42.44
616.371	42.47
616.705	42.46
617.039	42.88
617.373	42.66
617.707	43.06
618.041	43.02
618.375	43.36
618.709	42.93
619.042	43.46
619.376	43.16
619.71	43.27
620.043	42.39
620.377	43.25
620.71	43.19
621.043	43.19
621.377	43.28
621.71	43.14
622.043	43.55
622.376	43.29
622.709	43.14
623.043	43.33
623.376	43.92
623.709	43.62
624.041	43.73
624.374	43.86
624.707	43.95
625.04	44.03
625.373	43.78
625.705	43.91
626.038	44.12
626.37	43.48
626.703	44.03
627.035	43.72
627.368	43.74
627.7	43.88
628.032	44.2
628.365	43.82
628.697	44.24
629.029	44.23
629.361	44.01
629.693	44.28
630.025	44.42
630.357	44.08
630.689	44.41
631.021	44.46
631.353	44.72
631.684	44.76
632.016	44.97
632.348	44.76
632.679	44.82
633.011	44.81
633.342	44.96
633.674	45.02
634.005	45.25
634.336	45.21
634.668	45.23
634.999	45.56
635.33	44.89
635.661	44.97
635.992	45.04
636.323	45.62
636.654	45.04
636.985	45.4
637.316	45.75
637.647	45.43
637.977	45.67
638.308	45.81
638.639	45.71
638.969	45.76
639.3	45.53
639.63	46.05
639.961	46.1
640.291	45.84
640.622	45.78
640.952	46.02
641.282	46.4
641.612	46.04
641.943	45.96
642.273	46.57
642.603	46.18
642.933	46.27
643.263	46
643.592	46.33
643.922	46.69
644.252	46.54
644.582	46.49
644.911	46.84
645.241	46.5
645.571	46.88
645.9	46.35
646.23	46.59
646.559	46.53
646.888	47.35
647.218	46.66
647.547	46.79
647.876	47.14
648.205	46.73
648.534	47.05
648.863	46.76
649.192	46.87
649.521	47.3
649.85	46.89
650.179	47.21
650.508	47.75
650.837	47.02
651.165	47.72
651.494	46.86
651.822	47.34
652.151	47.41
652.479	47.54
652.808	47.8
653.136	47.66
653.465	47.32
653.793	47.94
654.121	46.97
654.449	48.22
654.777	47.5
655.105	47.84
655.433	47.56
655.761	48.05
656.089	48.08
656.417	48.44
656.745	47.9
657.073	47.7
657.4	48.04
657.728	48.39
658.056	48.51
658.383	48.15
658.711	48
659.038	47.84
659.365	48
659.693	48.67
660.02	48.45
660.347	48.3
660.674	47.75
661.001	48.5
661.329	48.34
661.656	48.54
661.982	48.1
662.309	48.59
662.636	48.78
662.963	48.81
663.29	49.37
663.616	49.21
663.943	48.18
664.27	48.66
664.596	48.43
664.923	49.57
665.249	48.8
665.576	49.04
665.902	48.97
666.228	49.19
666.554	49.14
666.881	49.68
667.207	49.2
667.533	49.97
667.859	49.18
668.185	49.03
668.511	49.17
668.837	49.55
669.162	49.76
669.488	49.67
669.814	49.36
670.139	49.4
670.465	49.52
670.791	50.16
671.116	49.37
671.442	49.87
671.767	49.93
672.092	50.11
