Data from 97283_crown_Reflection__0__41.txt Node

Date: Fri Sep 23 20:01:02 CDT 2022
User: ToomeyLab
Spectrometer: FLMS14357
Trigger mode: 0
Integration Time (sec): 1.000000E-2
Scans to average: 100
Electric dark correction enabled: true
Nonlinearity correction enabled: false
Boxcar width: 0
XAxis mode: Wavelengths
Number of Pixels in Spectrum: 2048
>>>>>Begin Spectral Data<<<<<
189.047	-1.8
189.435	-1.8
189.823	-1.8
190.211	-55.69
190.599	-454.96
190.987	63.89
191.375	1219.24
191.763	69.8
192.151	-72.76
192.538	-100.07
192.926	61.96
193.314	38.75
193.702	119.05
194.089	-66.76
194.477	71.7
194.864	63.8
195.252	-10.01
195.639	157.58
196.027	43.59
196.414	305.69
196.801	-60.73
197.189	57.05
197.576	-597.4
197.963	-46.28
198.351	31.39
198.738	-16.29
199.125	23.24
199.512	49.78
199.899	20.12
200.286	-8.77
200.673	23.5
201.06	-18.8
201.447	13.12
201.833	25.53
202.22	-5.11
202.607	19.15
202.994	-17.46
203.38	25.2
203.767	20.49
204.154	15.01
204.54	44.21
204.927	24.56
205.313	10.18
205.699	-24.01
206.086	23.81
206.472	30.44
206.858	5.12
207.245	-50.97
207.631	8.35
208.017	23.01
208.403	19.71
208.789	24.18
209.175	31.65
209.561	8.64
209.947	-2.94
210.333	5.54
210.719	1.68
211.105	-12.23
211.491	3.63
211.876	23.63
212.262	7.43
212.648	11.22
213.034	-28.49
213.419	-38.58
213.805	24.53
214.19	-12.31
214.576	18.23
214.961	19.51
215.346	9.98
215.732	37.69
216.117	7.32
216.502	29.6
216.888	20.22
217.273	1.73
217.658	1.62
218.043	20.86
218.428	22.56
218.813	17.09
219.198	4.16
219.583	9.14
219.968	13.19
220.353	6.37
220.738	13.78
221.122	1.71
221.507	-5.79
221.892	5.58
222.276	-10.35
222.661	15.58
223.046	3.18
223.43	-9.57
223.815	8
224.199	12.77
224.583	12.18
224.968	-1.34
225.352	1.22
225.736	-7.08
226.121	9.53
226.505	10.05
226.889	5.71
227.273	11.11
227.657	3.21
228.041	4.78
228.425	8.17
228.809	7.75
229.193	6.93
229.577	8.46
229.961	5.49
230.344	5.27
230.728	5.1
231.112	5.65
231.495	5.82
231.879	4.61
232.263	6.18
232.646	7.31
233.03	5.39
233.413	7.12
233.797	8.53
234.18	9.84
234.563	4.3
234.946	6.38
235.33	3.36
235.713	5.85
236.096	4.44
236.479	5.88
236.862	7.28
237.245	7.07
237.628	7.53
238.011	6.58
238.394	5.11
238.777	6.18
239.16	6.41
239.543	5.04
239.925	5.87
240.308	4.36
240.691	6.47
241.073	4.98
241.456	5.04
241.838	7.34
242.221	6.25
242.603	6.08
242.986	4.97
243.368	5.25
243.75	5.52
244.133	5.79
244.515	5.39
244.897	5.86
245.279	6.15
245.661	6.38
246.043	7.41
246.425	5.96
246.807	4.75
247.189	5.97
247.571	5.01
247.953	4.97
248.335	5.2
248.717	5.44
249.098	5.43
249.48	5.39
249.862	5.61
250.243	5.91
250.625	5.31
251.006	5.93
251.388	5.37
251.769	5.59
252.151	5.02
252.532	5.02
252.913	6.14
253.295	5.54
253.676	5.17
254.057	4.87
254.438	4.73
254.819	5.64
255.2	6.3
255.581	6.24
255.962	5.2
256.343	5.77
256.724	5.79
257.105	6.18
257.486	5.34
257.867	4.36
258.247	5.77
258.628	4.93
259.009	5.26
259.389	5.35
259.77	3.51
260.15	4.73
260.531	5.08
260.911	5.24
261.292	4.74
261.672	5.05
262.052	4.87
262.432	5.06
262.813	5.17
263.193	5.03
263.573	5.46
263.953	5.48
264.333	4.93
264.713	5.17
265.093	5.28
265.473	5.02
265.853	5.03
266.233	4.54
266.612	5.23
266.992	5.68
267.372	4.44
267.752	4.93
268.131	5.11
268.511	4.72
268.89	5.05
269.27	4.81
269.649	4.9
270.029	5.15
270.408	5
270.787	4.98
271.167	5.14
271.546	4.54
271.925	5.31
272.304	4.32
272.683	4.68
273.062	5.1
273.441	5.03
273.82	4.8
274.199	4.58
274.578	4.23
274.957	4.71
275.336	5.11
275.715	5.15
276.093	5.93
276.472	5.09
276.851	5.21
277.229	4.74
277.608	4.81
277.986	4.79
278.365	4.54
278.743	5.47
279.122	4.48
279.5	4.75
279.878	4.96
280.257	4.42
280.635	5.17
281.013	4.72
281.391	4.81
281.769	4.99
282.147	4.85
282.525	5.05
282.903	4.65
283.281	4.77
283.659	4.68
284.037	4.7
284.415	4.95
284.792	4.88
285.17	4.98
285.548	4.61
285.925	4.54
286.303	4.92
286.68	4.6
287.058	4.6
287.435	4.77
287.813	4.81
288.19	4.85
288.567	4.53
288.945	4.86
289.322	5.17
289.699	4.39
290.076	4.74
290.453	4.84
290.83	4.82
291.207	4.53
291.584	4.78
291.961	4.71
292.338	4.81
292.715	4.57
293.092	4.66
293.469	5.23
293.845	4.94
294.222	4.42
294.599	4.75
294.975	4.98
295.352	4.9
295.728	4.84
296.105	4.71
296.481	5.1
296.858	4.84
297.234	4.47
297.61	4.04
297.986	4.82
298.363	4.44
298.739	4.43
299.115	4.4
299.491	4.37
299.867	4.46
300.243	4.69
300.619	4.54
300.995	4.65
301.371	4.47
301.746	4.98
302.122	4.21
302.498	4.38
302.874	4.48
303.249	4.39
303.625	4.47
304	4.56
304.376	4.02
304.751	4.28
305.127	4.16
305.502	5.09
305.878	4.73
306.253	4.69
306.628	4.4
307.003	4.39
307.378	4.99
307.754	4.96
308.129	4.47
308.504	4.96
308.879	4.43
309.254	4.76
309.629	4.75
310.003	4.36
310.378	4.28
310.753	4.64
311.128	3.98
311.502	4.67
311.877	4.16
312.252	4.11
312.626	4.47
313.001	4.56
313.375	4.38
313.75	4.46
314.124	4.16
314.498	4.95
314.873	4.81
315.247	4.87
315.621	4.44
315.995	4.97
316.369	4.82
316.743	4.14
317.117	4.26
317.491	3.92
317.865	4.73
318.239	4.89
318.613	3.88
318.987	4.21
319.361	4.17
319.734	4.81
320.108	3.84
320.482	4.57
320.855	4.24
321.229	5.22
321.602	4.49
321.976	4.44
322.349	4.55
322.723	4.54
323.096	4.87
323.469	4.64
323.843	4.25
324.216	4.68
324.589	4.55
324.962	4.53
325.335	4.58
325.708	4.51
326.081	4.27
326.454	4.69
326.827	4.24
327.2	4.13
327.573	4.4
327.945	4.5
328.318	4.25
328.691	4.48
329.063	4.58
329.436	4.69
329.809	5.48
330.181	4.7
330.553	4.36
330.926	4.31
331.298	4.41
331.671	4.94
332.043	4.48
332.415	3.97
332.787	4.24
333.159	4.93
333.532	3.59
333.904	3.68
334.276	3.89
334.648	4.34
335.02	4.42
335.391	4.43
335.763	3.59
336.135	3.93
336.507	4.38
336.879	4.25
337.25	4.57
337.622	4.68
337.993	4.9
338.365	4.48
338.736	4.61
339.108	4.91
339.479	3.85
339.851	4.6
340.222	4.55
340.593	4.73
340.964	4.52
341.336	4.36
341.707	4.74
342.078	4.13
342.449	4.1
342.82	4.41
343.191	4.62
343.562	4.7
343.933	5.15
344.303	4.51
344.674	4.64
345.045	4.79
345.416	4.51
345.786	4.87
346.157	4.44
346.527	4.41
346.898	4.76
347.268	3.94
347.639	4.21
348.009	4.58
348.38	4.23
348.75	4.65
349.12	4.22
349.49	4.55
349.861	4.64
350.231	4.19
350.601	3.97
350.971	4.29
351.341	4.06
351.711	4.44
352.081	4.48
352.45	4.39
352.82	4.06
353.19	4.73
353.56	4.77
353.929	4.41
354.299	4.54
354.669	4.71
355.038	4.73
355.408	4.12
355.777	4.34
356.147	4.38
356.516	4.38
356.885	4.31
357.254	3.91
357.624	4.02
357.993	4.71
358.362	4.09
358.731	4.34
359.1	4.51
359.469	4.2
359.838	4.25
360.207	4.54
360.576	4.58
360.945	4.46
361.314	4.24
361.682	4.15
362.051	4.51
362.42	4.77
362.788	4.45
363.157	4.58
363.525	4.69
363.894	4.54
364.262	4.37
364.631	4.59
364.999	4.56
365.367	4.35
365.735	4.55
366.104	4.63
366.472	4.7
366.84	4.35
367.208	4.63
367.576	4.72
367.944	3.96
368.312	4.38
368.68	4.45
369.048	4.69
369.416	4.56
369.783	4.63
370.151	4.5
370.519	4.78
370.886	4.65
371.254	4.93
371.621	4.72
371.989	4.61
372.356	4.78
372.724	4.19
373.091	4.66
373.458	4.79
373.826	4.28
374.193	4.92
374.56	4.58
374.927	4.82
375.294	4.79
375.661	4.47
376.028	4.76
376.395	4.61
376.762	4.57
377.129	4.4
377.496	4.96
377.863	4.57
378.229	4.42
378.596	4.41
378.963	4.87
379.329	4.72
379.696	4.48
380.062	4.76
380.429	4.43
380.795	4.31
381.161	4.55
381.528	4.85
381.894	4.49
382.26	4.59
382.626	4.45
382.993	4.69
383.359	4.47
383.725	4.79
384.091	4.75
384.457	4.8
384.823	4.45
385.188	4.74
385.554	4.93
385.92	4.8
386.286	4.73
386.651	5.01
387.017	4.96
387.383	5.01
387.748	4.9
388.114	4.74
388.479	4.59
388.845	4.8
389.21	4.87
389.575	4.45
389.94	4.23
390.306	4.42
390.671	4.82
391.036	4.79
391.401	4.86
391.766	4.55
392.131	4.59
392.496	4.67
392.861	4.62
393.226	4.65
393.591	4.63
393.956	4.93
394.32	4.85
394.685	4.61
395.05	4.86
395.414	4.65
395.779	4.66
396.143	4.65
396.508	4.78
396.872	4.74
397.236	4.67
397.601	4.67
397.965	5.01
398.329	4.96
398.694	4.63
399.058	4.59
399.422	5.15
399.786	4.97
400.15	4.77
400.514	4.94
400.878	4.76
401.242	4.65
401.605	5.08
401.969	5.02
402.333	4.67
402.697	4.55
403.06	4.87
403.424	4.61
403.787	4.79
404.151	4.8
404.514	4.74
404.878	4.74
405.241	4.75
405.604	4.71
405.968	4.77
406.331	4.62
406.694	4.79
407.057	4.72
407.42	4.83
407.783	4.67
408.146	4.76
408.509	4.85
408.872	4.59
409.235	5.26
409.598	4.77
409.961	4.91
410.323	4.62
410.686	4.66
411.049	5
411.411	4.83
411.774	4.91
412.136	4.9
412.499	4.82
412.861	4.69
413.223	4.87
413.586	4.73
413.948	4.96
414.31	4.81
414.672	4.95
415.035	4.76
415.397	5.03
415.759	5.09
416.121	4.85
416.483	4.91
416.845	4.69
417.206	4.82
417.568	4.85
417.93	4.87
418.292	4.83
418.653	4.95
419.015	4.91
419.377	4.72
419.738	4.69
420.1	4.75
420.461	4.81
420.822	4.83
421.184	4.79
421.545	4.84
421.906	4.72
422.267	4.72
422.629	4.67
422.99	4.73
423.351	4.83
423.712	4.67
424.073	4.73
424.434	4.68
424.795	4.81
425.155	4.84
425.516	4.88
425.877	4.91
426.238	4.82
426.598	4.79
426.959	4.79
427.32	4.85
427.68	4.75
428.041	4.89
428.401	4.95
428.761	4.96
429.122	5.03
429.482	5.04
429.842	5.19
430.202	5.07
430.563	5.04
430.923	4.9
431.283	4.97
431.643	4.79
432.003	4.91
432.363	4.97
432.722	5.16
433.082	4.76
433.442	4.71
433.802	4.82
434.161	4.98
434.521	5.05
434.881	4.8
435.24	4.82
435.6	4.83
435.959	4.92
436.319	4.97
436.678	4.86
437.037	5.1
437.396	4.97
437.756	4.95
438.115	4.95
438.474	4.83
438.833	4.9
439.192	5.08
439.551	5.12
439.91	4.92
440.269	5.09
440.628	4.83
440.987	4.85
441.345	4.86
441.704	4.88
442.063	5.08
442.421	4.75
442.78	4.8
443.138	4.81
443.497	4.91
443.855	5
444.214	5.11
444.572	4.91
444.93	4.81
445.288	5.11
445.647	5.16
446.005	4.87
446.363	4.94
446.721	4.78
447.079	4.95
447.437	4.94
447.795	4.99
448.153	4.75
448.51	4.86
448.868	4.87
449.226	4.93
449.584	4.97
449.941	4.99
450.299	5.05
450.656	5.01
451.014	5.03
451.371	4.72
451.729	4.87
452.086	5.18
452.443	5.03
452.801	4.94
453.158	5.17
453.515	4.96
453.872	5.01
454.229	5.15
454.586	5.06
454.943	5.18
455.3	5.03
455.657	5.02
456.014	5.14
456.371	5.08
456.727	5.11
457.084	5
457.441	5.22
457.797	5.01
458.154	5.02
458.51	5.08
458.867	5.24
459.223	5.19
459.58	4.96
459.936	5.08
460.292	5
460.648	5.14
461.005	5.12
461.361	5.06
461.717	5
462.073	4.99
462.429	5.03
462.785	5.11
463.141	5.1
463.496	5.12
463.852	5.24
464.208	5.11
464.564	5.17
464.919	5.15
465.275	5.12
465.631	5.02
465.986	4.92
466.342	5.03
466.697	5.17
467.052	5.22
467.408	5.24
467.763	5.2
468.118	4.96
468.473	5.11
468.829	5.16
469.184	5.25
469.539	5.03
469.894	5.22
470.249	5.21
470.603	5.3
470.958	5.09
471.313	5.16
471.668	5.14
472.023	5.01
472.377	5.04
472.732	5.23
473.086	5.13
473.441	5.29
473.795	5.38
474.15	5.12
474.504	5.14
474.859	5.29
475.213	5.27
475.567	5.01
475.921	5.24
476.275	5.07
476.63	5.13
476.984	5.41
477.338	5.1
477.692	5.13
478.045	5.07
478.399	5.27
478.753	5.34
479.107	5.26
479.461	5.12
479.814	5.17
480.168	5.15
480.521	5.18
480.875	5.33
481.228	5.34
481.582	5.2
481.935	5.27
482.289	5.31
482.642	5.07
482.995	5.21
483.348	5.11
483.701	5.1
484.055	5.14
484.408	5.06
484.761	4.96
485.114	4.86
485.466	4.77
485.819	4.79
486.172	4.87
486.525	5.02
486.878	5.06
487.23	5.1
487.583	5.11
487.936	5.16
488.288	5.06
488.641	4.96
488.993	4.93
489.345	4.95
489.698	4.97
490.05	5
490.402	5.01
490.754	5.12
491.107	5.15
491.459	5.12
491.811	5.1
492.163	5.27
492.515	5.14
492.866	5.02
493.218	4.87
493.57	4.93
493.922	5.03
494.274	5.16
494.625	5.2
494.977	5.29
495.328	5.27
495.68	5.35
496.031	5.24
496.383	5.23
496.734	5.35
497.086	5.49
497.437	5.5
497.788	5.43
498.139	5.22
498.49	5.19
498.842	5.22
499.193	5.28
499.544	5.21
499.894	5.23
500.245	5.33
500.596	5.32
500.947	5.29
501.298	5.28
501.648	5.42
501.999	5.41
502.35	5.51
502.7	5.37
503.051	5.28
503.401	5.3
503.752	5.29
504.102	5.4
504.452	5.15
504.803	5.29
505.153	5.31
505.503	5.18
505.853	5.5
506.203	5.39
506.553	5.32
506.903	5.42
507.253	5.37
507.603	5.34
507.953	5.28
508.303	5.53
508.652	5.33
509.002	5.31
509.352	5.34
509.701	5.31
510.051	5.36
510.4	5.39
510.75	5.34
511.099	5.3
511.449	5.22
511.798	5.39
512.147	5.37
512.496	5.32
512.846	5.39
513.195	5.32
513.544	5.44
513.893	5.32
514.242	5.44
514.591	5.35
514.939	5.41
515.288	5.53
515.637	5.4
515.986	5.44
516.334	5.3
516.683	5.38
517.032	5.47
517.38	5.48
517.729	5.55
518.077	5.41
518.426	5.35
518.774	5.46
519.122	5.42
519.47	5.36
519.819	5.37
520.167	5.32
520.515	5.37
520.863	5.37
521.211	5.34
521.559	5.38
521.907	5.41
522.255	5.41
522.602	5.41
522.95	5.48
523.298	5.4
523.645	5.35
523.993	5.45
524.341	5.51
524.688	5.48
525.036	5.45
525.383	5.36
525.73	5.69
526.078	5.36
526.425	5.46
526.772	5.38
527.119	5.39
527.466	5.27
527.814	5.36
528.161	5.38
528.508	5.46
528.854	5.43
529.201	5.31
529.548	5.36
529.895	5.18
530.242	5.08
530.588	5.14
530.935	5.24
531.282	5.33
531.628	5.36
531.975	5.37
532.321	5.45
532.667	5.41
533.014	5.4
533.36	5.49
533.706	5.35
534.052	5.36
534.399	5.35
534.745	5.35
535.091	5.29
535.437	5.37
535.783	5.39
536.129	5.48
536.474	5.45
536.82	5.41
537.166	5.54
537.512	5.42
537.857	5.44
538.203	5.43
538.549	5.37
538.894	5.47
539.239	5.48
539.585	5.63
539.93	5.58
540.276	5.7
540.621	5.64
540.966	5.55
541.311	5.68
541.656	5.36
542.001	5.7
542.346	5.44
542.691	5.36
543.036	5.35
543.381	5.28
543.726	5.34
544.071	5.44
544.415	5.5
544.76	5.48
545.105	5.53
545.449	5.56
545.794	5.55
546.138	5.58
546.483	5.54
546.827	5.63
547.171	5.6
547.516	5.64
547.86	5.48
548.204	5.61
548.548	5.48
548.892	5.44
549.236	5.61
549.58	5.66
549.924	5.78
550.268	5.8
550.612	5.67
550.956	5.71
551.3	5.6
551.643	5.62
551.987	5.84
552.33	5.61
552.674	5.78
553.017	5.8
553.361	5.59
553.704	5.64
554.048	5.6
554.391	5.54
554.734	5.69
555.077	5.65
555.42	5.62
555.764	5.62
556.107	5.7
556.45	5.73
556.793	5.7
557.135	5.67
557.478	5.96
557.821	5.73
558.164	5.66
558.507	5.6
558.849	5.84
559.192	5.95
559.534	5.86
559.877	5.88
560.219	5.77
560.562	5.69
560.904	5.64
561.246	5.66
561.589	5.87
561.931	6.01
562.273	5.97
562.615	5.84
562.957	5.83
563.299	5.55
563.641	5.93
563.983	5.99
564.325	5.91
564.667	5.9
565.008	5.75
565.35	5.79
565.692	5.95
566.033	5.81
566.375	5.98
566.716	5.94
567.058	5.75
567.399	5.6
567.741	5.87
568.082	5.79
568.423	5.62
568.764	5.81
569.105	5.8
569.447	5.72
569.788	5.82
570.129	5.82
570.47	5.97
570.811	5.82
571.151	5.91
571.492	5.76
571.833	5.82
572.174	5.82
572.514	5.99
572.855	5.72
573.195	5.91
573.536	5.92
573.876	5.65
574.217	5.84
574.557	5.86
574.898	5.76
575.238	5.97
575.578	6
575.918	5.76
576.258	5.89
576.598	5.87
576.938	5.9
577.278	5.8
577.618	5.65
577.958	5.98
578.298	5.85
578.638	6.07
578.977	5.81
579.317	6.05
579.657	6.14
579.996	5.84
580.336	5.87
580.675	5.82
581.014	6.08
581.354	6.24
581.693	6.12
582.032	6
582.372	6.18
582.711	6.17
583.05	6.06
583.389	6.13
583.728	6.16
584.067	6.02
584.406	5.96
584.745	6.17
585.083	5.92
585.422	5.88
585.761	6
586.1	6.03
586.438	6.1
586.777	5.75
587.115	5.74
587.454	6
587.792	6.21
588.13	5.88
588.469	5.83
588.807	6.19
589.145	6.1
589.483	6.21
589.821	6.11
590.159	6.05
590.497	5.79
590.835	5.63
591.173	6.14
591.511	5.97
591.849	5.95
592.187	5.96
592.524	6.36
592.862	6.21
593.2	5.94
593.537	6.04
593.875	6.11
594.212	6.23
594.55	5.99
594.887	6.13
595.224	6.11
595.561	5.98
595.899	5.94
596.236	5.88
596.573	6.24
596.91	6.33
597.247	5.98
597.584	6.08
597.921	6.03
598.258	5.95
598.594	5.92
598.931	6.01
599.268	6.06
599.604	6.19
599.941	6.17
600.277	6.03
600.614	6.07
600.95	6.03
601.287	6.33
601.623	5.96
601.959	6.05
602.296	6.06
602.632	6.21
602.968	5.63
603.304	5.98
603.64	6.23
603.976	6.15
604.312	6.07
604.648	6.25
604.984	5.96
605.319	6.17
605.655	6.02
605.991	5.92
606.326	6
606.662	5.84
606.998	6.11
607.333	6.03
607.668	6.19
608.004	5.99
608.339	5.92
608.674	6.28
609.01	6.35
609.345	6.27
609.68	6.07
610.015	6.24
610.35	6.28
610.685	5.95
611.02	6.06
611.355	6.03
611.689	6.09
612.024	6.05
612.359	6.13
612.694	6.37
613.028	6.32
613.363	6.43
613.697	6.35
614.032	5.99
614.366	6.23
614.7	6.11
615.035	6.55
615.369	6.12
615.703	6.2
616.037	6.23
616.371	6.32
616.705	6.28
617.039	6.15
617.373	6.43
617.707	6.58
618.041	6.35
618.375	6.63
618.709	5.93
619.042	5.99
619.376	6.5
619.71	6.15
620.043	6.05
620.377	6.22
620.71	6.33
621.043	6.36
621.377	5.87
621.71	6.48
622.043	6.37
622.376	6.2
622.709	6.28
623.043	5.97
623.376	6.25
623.709	6.29
624.041	6.78
624.374	5.94
624.707	6.37
625.04	6.55
625.373	6.2
625.705	6.61
626.038	6.1
626.37	6.16
626.703	6.55
627.035	6.34
627.368	6.48
627.7	6.27
628.032	6.06
628.365	6.21
628.697	6.13
629.029	6.06
629.361	6.76
629.693	6.23
630.025	6.51
630.357	6.35
630.689	6.49
631.021	6.32
631.353	6.6
631.684	6.09
632.016	6.67
632.348	6.29
632.679	6.41
633.011	6.63
633.342	6.28
633.674	6.29
634.005	6.19
634.336	6.61
634.668	6.39
634.999	6.26
635.33	6.42
635.661	6.59
635.992	6.42
636.323	6.52
636.654	6.49
636.985	6.47
637.316	6.76
637.647	6.58
637.977	6.66
638.308	6.66
638.639	6.54
638.969	6.53
639.3	6.46
639.63	6.27
639.961	6.41
640.291	6.43
640.622	6.6
640.952	6.69
641.282	6.68
641.612	6.69
641.943	6.66
642.273	6.99
642.603	7.04
642.933	6.47
643.263	6.2
643.592	6.66
643.922	6.33
644.252	6.78
644.582	6.78
644.911	6.24
645.241	6.44
645.571	6.85
645.9	7.06
646.23	7.2
646.559	6.64
646.888	6.64
647.218	6.71
647.547	6.56
647.876	6.74
648.205	6.51
648.534	6.92
648.863	6.61
649.192	6.96
649.521	6.77
649.85	6.22
650.179	5.76
650.508	6.46
650.837	6.94
651.165	7.11
651.494	6.46
651.822	6.69
652.151	6.15
652.479	6.59
652.808	6.62
653.136	6.22
653.465	6.3
653.793	6.66
654.121	6.47
654.449	6.2
654.777	6.62
655.105	6.45
655.433	6.8
655.761	7.05
656.089	6.99
656.417	6.43
656.745	6.55
657.073	6.34
657.4	6.73
657.728	6.25
658.056	7.05
658.383	6.81
658.711	6.35
659.038	6.92
659.365	6.39
659.693	6.75
660.02	7.25
660.347	6.69
660.674	6.52
661.001	6.85
661.329	6.64
661.656	7.02
661.982	6.73
662.309	6.91
662.636	7.08
662.963	6.81
663.29	6.81
663.616	6.73
663.943	6.78
664.27	6.83
664.596	6.46
664.923	7.27
665.249	7.04
665.576	7.08
665.902	6.87
666.228	7.59
666.554	7.05
666.881	6.81
667.207	6.65
667.533	6.64
667.859	6.42
668.185	7.13
668.511	6.2
668.837	6.81
669.162	6.61
669.488	6.6
669.814	6.39
670.139	6.81
670.465	6.82
670.791	7.02
671.116	6.77
671.442	7.22
671.767	6.43
672.092	6.33
672.418	6.93
672.743	7.14
673.068	6.38
673.393	7.25
673.718	6.82
674.043	7.26
674.368	7.38
674.693	7.16
675.018	6.98
675.343	6.98
675.667	7.61
675.992	6.91
676.317	7.17
676.641	6.86
676.966	7.13
677.29	6.85
677.615	7.32
677.939	7.35
678.264	6.6
678.588	6.68
678.912	7.08
679.236	7.17
679.56	6.71
679.885	7.12
680.209	7.3
680.532	6.77
680.856	7.12
681.18	7.33
681.504	7.75
681.828	7.61
682.152	7.31
682.475	7.2
682.799	7.52
683.122	7.2
683.446	7.27
683.769	7.03
684.093	6.88
684.416	7.74
684.739	7.86
685.062	6.88
685.386	6.93
685.709	7.08
686.032	7
686.355	7.35
686.678	7.66
687.001	7.45
687.324	8.08
687.646	7.55
687.969	7.44
688.292	6.95
688.614	7.58
688.937	7.24
689.26	7.39
689.582	6.9
689.904	7.73
690.227	7.65
690.549	7.23
690.871	7.85
691.194	6.5
691.516	7.24
691.838	7.1
692.16	7.18
692.482	7.49
