Data from 0390_forehead_Reflection__3__122.txt Node

Date: Fri Dec 15 17:28:10 CST 2023
User: ToomeyLab
Spectrometer: FLMS14357
Trigger mode: 0
Integration Time (sec): 1.000000E-2
Scans to average: 100
Electric dark correction enabled: true
Nonlinearity correction enabled: false
Boxcar width: 0
XAxis mode: Wavelengths
Number of Pixels in Spectrum: 2048
>>>>>Begin Spectral Data<<<<<
189.047	42.06
189.435	42.06
189.823	42.06
190.211	-250.03
190.599	178.28
190.987	119.77
191.375	104.14
191.763	372.97
192.151	17.54
192.538	83.82
192.926	172.23
193.314	51.29
193.702	-95.53
194.089	80.56
194.477	-53.89
194.864	-41.43
195.252	183.78
195.639	120.98
196.027	-229.23
196.414	39.63
196.801	-4.34
197.189	-1.95
197.576	55.36
197.963	105.78
198.351	-21.47
198.738	1.98
199.125	34.46
199.512	7.32
199.899	7.57
200.286	37.9
200.673	-19.21
201.06	48.18
201.447	45.17
201.833	34.22
202.22	20.58
202.607	79.95
202.994	55.42
203.38	25.88
203.767	33.38
204.154	7.29
204.54	16.44
204.927	-1.66
205.313	-33.77
205.699	15.74
206.086	61.54
206.472	38.24
206.858	-9.38
207.245	54.85
207.631	40.16
208.017	27.66
208.403	18.15
208.789	52.14
209.175	36.51
209.561	27.12
209.947	30.49
210.333	38.41
210.719	26.93
211.105	42.37
211.491	7.29
211.876	85.24
212.262	-49.89
212.648	5.1
213.034	98.22
213.419	-27.03
213.805	6.33
214.19	15.91
214.576	13.47
214.961	-26.82
215.346	-62.81
215.732	5.77
216.117	45.8
216.502	-40.43
216.888	21.5
217.273	42.34
217.658	28.17
218.043	21.84
218.428	3.76
218.813	-15.45
219.198	-28.68
219.583	8.47
219.968	24.58
220.353	-22.3
220.738	28.31
221.122	33.34
221.507	-0.1
221.892	-26.86
222.276	-5.98
222.661	-8.2
223.046	5.49
223.43	2.49
223.815	10.35
224.199	-2.79
224.583	11.28
224.968	3.85
225.352	14.21
225.736	-2.16
226.121	-10.56
226.505	7.94
226.889	9.24
227.273	4.12
227.657	9.68
228.041	5.33
228.425	0.91
228.809	7.14
229.193	2.06
229.577	1.8
229.961	4.44
230.344	4.31
230.728	4.04
231.112	4.52
231.495	3.8
231.879	2.98
232.263	5.87
232.646	4.53
233.03	4.15
233.413	3.04
233.797	3.29
234.18	3.98
234.563	4.05
234.946	3.75
235.33	5.06
235.713	4.86
236.096	4.85
236.479	5.04
236.862	3.95
237.245	6.37
237.628	4.01
238.011	4.1
238.394	6.95
238.777	5.13
239.16	2.55
239.543	6.01
239.925	5.13
240.308	4.01
240.691	6.02
241.073	5.9
241.456	3.22
241.838	4.6
242.221	4.34
242.603	3.61
242.986	3.66
243.368	3.94
243.75	4.01
244.133	3.62
244.515	3.8
244.897	3.85
245.279	4.04
245.661	3.76
246.043	3.82
246.425	3.83
246.807	3.98
247.189	4.15
247.571	4.78
247.953	3.83
248.335	4.09
248.717	4
249.098	3.59
249.48	3.99
249.862	3.84
250.243	4.16
250.625	4.01
251.006	4.01
251.388	3.24
251.769	4.15
252.151	5.51
252.532	4.21
252.913	4.1
253.295	3.94
253.676	4.19
254.057	4.07
254.438	4.63
254.819	4.42
255.2	4.01
255.581	5.5
255.962	4.28
256.343	4.65
256.724	4.25
257.105	4.81
257.486	4.67
257.867	4.89
258.247	4.2
258.628	4.36
259.009	4.96
259.389	4.36
259.77	3.96
260.15	3.94
260.531	3.57
260.911	4.58
261.292	3.98
261.672	4.28
262.052	3.89
262.432	4.56
262.813	3.93
263.193	4.47
263.573	3.98
263.953	4.29
264.333	4.97
264.713	3.84
265.093	3.83
265.473	4.3
265.853	2.86
266.233	3.81
266.612	3.11
266.992	2.64
267.372	4.53
267.752	4.06
268.131	4.59
268.511	4.44
268.89	4.72
269.27	3.9
269.649	3.91
270.029	4.05
270.408	5.21
270.787	3.73
271.167	4.72
271.546	3.71
271.925	3.4
272.304	4.45
272.683	3.96
273.062	4.06
273.441	4.12
273.82	3.87
274.199	4.53
274.578	4.16
274.957	3.84
275.336	3.76
275.715	3.95
276.093	3.79
276.472	4.39
276.851	3.96
277.229	4.34
277.608	3.38
277.986	4.06
278.365	4.52
278.743	3.06
279.122	3.89
279.5	4.1
279.878	4.26
280.257	3.74
280.635	4.32
281.013	4.34
281.391	4.85
281.769	3.99
282.147	4.45
282.525	4.76
282.903	3.6
283.281	4.26
283.659	4.55
284.037	3.89
284.415	4.65
284.792	4.24
285.17	3.41
285.548	3.91
285.925	4.55
286.303	4.68
286.68	3.56
287.058	4.09
287.435	3.93
287.813	3.84
288.19	4.12
288.567	3.95
288.945	4.31
289.322	4.51
289.699	4.03
290.076	4.35
290.453	4.31
290.83	4.24
291.207	4.15
291.584	4.28
291.961	4.58
292.338	4.1
292.715	4.4
293.092	3.87
293.469	4.33
293.845	4.92
294.222	4.21
294.599	4.46
294.975	4.83
295.352	4.63
295.728	4.38
296.105	4.87
296.481	5.51
296.858	4.59
297.234	4.31
297.61	4.75
297.986	5.3
298.363	5.04
298.739	5.13
299.115	4.71
299.491	4.91
299.867	4.96
300.243	4.99
300.619	4.86
300.995	5.32
301.371	5.53
301.746	4.99
302.122	6.02
302.498	5.19
302.874	5.6
303.249	5.44
303.625	5.86
304	6.03
304.376	6.03
304.751	4.92
305.127	6.46
305.502	5.6
305.878	4.91
306.253	6.26
306.628	6.56
307.003	5.96
307.378	6.31
307.754	6.08
308.129	5.31
308.504	6.38
308.879	6.22
309.254	7.26
309.629	6.96
310.003	6.56
310.378	7.12
310.753	7.03
311.128	7.07
311.502	6.62
311.877	6.9
312.252	6.5
312.626	6.81
313.001	6.91
313.375	7.11
313.75	6.74
314.124	7.04
314.498	7.05
314.873	7.31
315.247	7.59
315.621	7.27
315.995	6.77
316.369	7.75
316.743	7.64
317.117	8.46
317.491	7.49
317.865	7.86
318.239	8.11
318.613	8.27
318.987	8.32
319.361	7.66
319.734	8.38
320.108	8.33
320.482	8.43
320.855	9.36
321.229	8.33
321.602	8.32
321.976	8.31
322.349	8.55
322.723	8.74
323.096	9.79
323.469	7.91
323.843	8.93
324.216	9.52
324.589	9.28
324.962	9.39
325.335	8.93
325.708	9.49
326.081	9.43
326.454	9.31
326.827	8.97
327.2	9.92
327.573	9.94
327.945	9.36
328.318	8.77
328.691	8.77
329.063	9.76
329.436	9.66
329.809	10.23
330.181	10.13
330.553	9.63
330.926	9.83
331.298	10.23
331.671	10.21
332.043	10.02
332.415	10.71
332.787	10.78
333.159	10.99
333.532	10.73
333.904	10.5
334.276	10.66
334.648	10.47
335.02	10.64
335.391	10.04
335.763	10.1
336.135	10.22
336.507	11.48
336.879	10.51
337.25	10.74
337.622	10.6
337.993	10.95
338.365	10.99
338.736	11.1
339.108	11.41
339.479	10.99
339.851	11.26
340.222	10.86
340.593	11.45
340.964	11.12
341.336	12.16
341.707	11.37
342.078	11.44
342.449	11.95
342.82	11.3
343.191	11.53
343.562	11.74
343.933	12.06
344.303	11.46
344.674	11.99
345.045	11.83
345.416	12.28
345.786	11.7
346.157	12.14
346.527	11.69
346.898	11.48
347.268	12.44
347.639	12.13
348.009	12.33
348.38	12.16
348.75	12.39
349.12	12.89
349.49	13.09
349.861	12.7
350.231	12.05
350.601	12.99
350.971	13.1
351.341	12.78
351.711	13.11
352.081	12.95
352.45	12.67
352.82	13.01
353.19	13.35
353.56	12.82
353.929	13.16
354.299	12.94
354.669	12.65
355.038	13.49
355.408	13.24
355.777	13.38
356.147	13.51
356.516	13.26
356.885	13.47
357.254	13.21
357.624	13.41
357.993	13.58
358.362	13.24
358.731	13.28
359.1	13.51
359.469	13.71
359.838	14.19
360.207	13.83
360.576	13.75
360.945	14.11
361.314	14.27
361.682	13.98
362.051	13.83
362.42	14.27
362.788	14.08
363.157	14.21
363.525	14.28
363.894	14.21
364.262	14.36
364.631	14.44
364.999	14.71
365.367	14.33
365.735	14.99
366.104	14.59
366.472	14.63
366.84	14.9
367.208	14.47
367.576	15.19
367.944	14.87
368.312	14.81
368.68	14.76
369.048	15.12
369.416	14.94
369.783	15.06
370.151	15.02
370.519	15.52
370.886	15.52
371.254	15.4
371.621	15.47
371.989	15.65
372.356	14.99
372.724	15.53
373.091	15.5
373.458	15.48
373.826	15.4
374.193	15.47
374.56	15.9
374.927	15.71
375.294	15.84
375.661	15.97
376.028	15.57
376.395	15.59
376.762	16.13
377.129	15.92
377.496	15.85
377.863	16.02
378.229	15.93
378.596	16.41
378.963	16.25
379.329	16.08
379.696	16.38
380.062	16.27
380.429	16.37
380.795	16.74
381.161	17.04
381.528	17.01
381.894	16.5
382.26	16.59
382.626	16.88
382.993	16.3
383.359	17
383.725	16.94
384.091	16.87
384.457	16.88
384.823	16.93
385.188	16.91
385.554	17.18
385.92	17.1
386.286	16.83
386.651	17.3
387.017	17.43
387.383	17.28
387.748	17.11
388.114	17.59
388.479	17.23
388.845	17.57
389.21	17.38
389.575	17.69
389.94	17.74
390.306	17.84
390.671	17.97
391.036	17.54
391.401	17.25
391.766	17.71
392.131	17.57
392.496	17.91
392.861	18.02
393.226	18.29
393.591	18.33
393.956	18.02
394.32	17.96
394.685	18.02
395.05	17.96
395.414	18.3
395.779	18.24
396.143	18.46
396.508	18.5
396.872	18.37
397.236	18.6
397.601	18.37
397.965	18.43
398.329	18.7
398.694	18.82
399.058	18.7
399.422	18.65
399.786	18.98
400.15	18.63
400.514	18.87
400.878	19.23
401.242	18.98
401.605	19.01
401.969	19.21
402.333	19.29
402.697	19.3
403.06	19.08
403.424	19.25
403.787	19.34
404.151	19.48
404.514	19.53
404.878	19.16
405.241	19.45
405.604	19.59
405.968	19.43
406.331	19.28
406.694	19.7
407.057	19.69
407.42	19.9
407.783	19.65
408.146	19.78
408.509	19.45
408.872	19.85
409.235	19.62
409.598	20.3
409.961	19.97
410.323	20.16
410.686	20.02
411.049	19.92
411.411	20.23
411.774	20.02
412.136	20.17
412.499	19.88
412.861	20.22
413.223	20.18
413.586	20.42
413.948	20.22
414.31	20.7
414.672	20.36
415.035	20.61
415.397	20.99
415.759	20.56
416.121	20.87
416.483	20.44
416.845	20.9
417.206	20.65
417.568	20.78
417.93	20.46
418.292	20.69
418.653	20.74
419.015	20.83
419.377	20.7
419.738	20.85
420.1	20.57
420.461	20.91
420.822	20.91
421.184	20.9
421.545	20.84
421.906	20.84
422.267	20.79
422.629	20.99
422.99	20.93
423.351	20.9
423.712	21.1
424.073	21.02
424.434	21.01
424.795	21.24
425.155	21.21
425.516	21.08
425.877	21.12
426.238	21.32
426.598	21.21
426.959	21.47
427.32	21.38
427.68	21.49
428.041	21.72
428.401	21.76
428.761	21.8
429.122	21.77
429.482	21.79
429.842	22.35
430.202	22.14
430.563	22.27
430.923	22
431.283	22.14
431.643	22.17
432.003	22.18
432.363	22.25
432.722	22.4
433.082	22.32
433.442	22.28
433.802	22.47
434.161	22.37
434.521	22.66
434.881	22.53
435.24	22.44
435.6	22.34
435.959	22.43
436.319	22.43
436.678	22.68
437.037	22.66
437.396	23
437.756	22.84
438.115	22.92
438.474	23.02
438.833	22.85
439.192	22.94
439.551	22.85
439.91	23.1
440.269	22.96
440.628	22.92
440.987	23.04
441.345	22.73
441.704	23.21
442.063	22.96
442.421	23.02
442.78	22.99
443.138	23.15
443.497	23.42
443.855	23.24
444.214	23.34
444.572	23.72
444.93	23.46
445.288	23.61
445.647	23.67
446.005	23.54
446.363	23.81
446.721	23.69
447.079	23.56
447.437	23.62
447.795	23.59
448.153	23.47
448.51	23.5
448.868	23.45
449.226	23.77
449.584	23.81
449.941	23.83
450.299	23.95
450.656	23.94
451.014	24.04
451.371	24.26
451.729	24.35
452.086	24.47
452.443	24.3
452.801	24.53
453.158	24.45
453.515	24.43
453.872	24.62
454.229	24.44
454.586	24.54
454.943	24.62
455.3	24.74
455.657	24.57
456.014	24.54
456.371	24.56
456.727	24.62
457.084	24.76
457.441	24.64
457.797	24.95
458.154	25.17
458.51	25.13
458.867	25.3
459.223	25.27
459.58	24.97
459.936	25.34
460.292	25.13
460.648	24.74
461.005	24.93
461.361	24.94
461.717	24.84
462.073	24.89
462.429	25.01
462.785	25.33
463.141	25.27
463.496	25.38
463.852	25.58
464.208	25.68
464.564	25.48
464.919	25.49
465.275	25.76
465.631	26.03
465.986	25.94
466.342	25.87
466.697	25.86
467.052	25.86
467.408	25.86
467.763	25.77
468.118	25.93
468.473	26.06
468.829	25.83
469.184	25.95
469.539	26.05
469.894	26
470.249	26.36
470.603	26.3
470.958	26.32
471.313	26.44
471.668	26.42
472.023	26.24
472.377	26.35
472.732	26.42
473.086	26.5
473.441	26.23
473.795	26.92
474.15	26.78
474.504	26.36
474.859	26.75
475.213	26.46
475.567	26.59
475.921	26.64
476.275	26.96
476.63	26.98
476.984	27.16
477.338	27.14
477.692	26.61
478.045	26.83
478.399	26.82
478.753	26.92
479.107	26.86
479.461	27
479.814	26.99
480.168	27.04
480.521	27.05
480.875	27.01
481.228	26.98
481.582	27.17
481.935	27.39
482.289	27.21
482.642	27.14
482.995	27.11
483.348	27
483.701	27.15
484.055	26.98
484.408	27.13
484.761	26.69
485.114	26.43
485.466	26.01
485.819	26.07
486.172	26.31
486.525	26.59
486.878	26.71
487.23	26.94
487.583	27.1
487.936	27.18
488.288	27.13
488.641	27.04
488.993	26.84
489.345	26.76
489.698	26.72
490.05	26.87
490.402	27.03
490.754	27.08
491.107	27.45
491.459	27.42
491.811	27.58
492.163	27.72
492.515	27.72
492.866	27.5
493.218	27.29
493.57	27.02
493.922	27.28
494.274	27.64
494.625	27.79
494.977	28.15
495.328	28.41
495.68	28.41
496.031	28.45
496.383	28.53
496.734	28.53
497.086	28.64
497.437	28.69
497.788	28.6
498.139	28.56
498.49	28.6
498.842	28.41
499.193	28.53
499.544	28.71
499.894	28.8
500.245	28.89
500.596	28.95
500.947	28.85
501.298	28.79
501.648	28.96
501.999	29.12
502.35	29
502.7	29.29
503.051	29.08
503.401	29.19
503.752	29.27
504.102	29.39
504.452	29.4
504.803	29.42
505.153	29.25
505.503	29.39
505.853	29.39
506.203	29.16
506.553	29.62
506.903	29.5
507.253	29.54
507.603	29.53
507.953	29.48
508.303	29.83
508.652	29.42
509.002	29.72
509.352	29.82
509.701	29.54
510.051	29.61
510.4	29.76
510.75	29.56
511.099	29.68
511.449	29.83
511.798	29.88
512.147	29.87
512.496	29.71
512.846	30.04
513.195	30.08
513.544	29.95
513.893	30.08
514.242	30.14
514.591	29.99
514.939	30.01
515.288	30.15
515.637	30.16
515.986	30.11
516.334	30.39
516.683	30.36
517.032	30.47
517.38	30.21
517.729	30.52
518.077	30.57
518.426	30.5
518.774	30.38
519.122	30.41
519.47	30.25
519.819	30.32
520.167	30.2
520.515	30.04
520.863	30.14
521.211	30.53
521.559	30.55
521.907	30.51
522.255	30.64
522.602	30.63
522.95	30.89
523.298	31.23
523.645	30.96
523.993	31
524.341	31.28
524.688	31.02
525.036	31.15
525.383	31.07
525.73	31.24
526.078	31.09
526.425	31.24
526.772	31.16
527.119	30.72
527.466	30.74
527.814	30.78
528.161	30.97
528.508	30.99
528.854	30.98
529.201	30.9
529.548	30.76
529.895	30.58
530.242	30.22
530.588	30.18
530.935	30.35
531.282	30.58
531.628	30.89
531.975	30.86
532.321	31.1
532.667	31.33
533.014	31.44
533.36	31.4
533.706	31.6
534.052	31.33
534.399	31.37
534.745	31.22
535.091	30.95
535.437	31.09
535.783	31.34
536.129	31.54
536.474	31.54
536.82	31.81
537.166	31.95
537.512	32
537.857	31.95
538.203	31.84
538.549	31.7
538.894	31.77
539.239	31.9
539.585	32.1
539.93	32.21
540.276	32.33
540.621	32.44
540.966	32.51
541.311	32.39
541.656	32.48
542.001	32.37
542.346	32.16
542.691	31.8
543.036	31.61
543.381	31.6
543.726	31.85
544.071	31.94
544.415	32.22
544.76	32.19
545.105	32.23
545.449	32.36
545.794	32.73
546.138	32.62
546.483	32.81
546.827	32.87
547.171	32.87
547.516	32.97
547.86	32.75
548.204	33
548.548	32.68
548.892	32.8
549.236	32.87
549.58	32.87
549.924	33.25
550.268	33.32
550.612	33.44
550.956	33.36
551.3	33.41
551.643	33.49
551.987	33.57
552.33	33.56
552.674	33.63
553.017	33.67
553.361	33.52
553.704	33.86
554.048	33.63
554.391	33.8
554.734	33.52
555.077	33.8
555.42	33.64
555.764	33.83
556.107	33.75
556.45	33.88
556.793	34.12
557.135	33.98
557.478	34.2
557.821	34.2
558.164	34.28
558.507	34.32
558.849	34.23
559.192	34.51
559.534	34.26
559.877	34.44
560.219	34.32
560.562	34.52
560.904	34.34
561.246	34.6
561.589	34.59
561.931	34.62
562.273	34.55
562.615	34.61
562.957	34.42
563.299	34.35
563.641	34.99
563.983	34.59
564.325	34.67
564.667	34.88
565.008	34.93
565.35	34.84
565.692	34.64
566.033	34.95
566.375	35.11
566.716	35.16
567.058	34.82
567.399	34.78
567.741	34.72
568.082	34.93
568.423	34.51
568.764	34.49
569.105	34.95
569.447	35.19
569.788	35.1
570.129	35.4
570.47	35.25
570.811	35.47
571.151	35.3
571.492	35.2
571.833	35.52
572.174	35.12
572.514	35.12
572.855	35.1
573.195	35.26
573.536	35.26
573.876	34.96
574.217	35.13
574.557	35
574.898	35.34
575.238	35.46
575.578	35.57
575.918	35.39
576.258	35.66
576.598	35.57
576.938	35.67
577.278	35.67
577.618	35.49
577.958	35.66
578.298	35.49
578.638	35.59
578.977	35.99
579.317	35.88
579.657	35.88
579.996	36.09
580.336	36.32
580.675	36.32
581.014	36.04
581.354	36.25
581.693	36.21
582.032	36.03
582.372	36.03
582.711	36.16
583.05	36.37
583.389	36.26
583.728	36.37
584.067	36.57
584.406	36.56
584.745	36.68
585.083	36.38
585.422	36.4
585.761	36.66
586.1	36.57
586.438	36.6
586.777	36.66
587.115	36.91
587.454	36.51
587.792	36.89
588.13	37.07
588.469	36.61
588.807	36.85
589.145	36.82
589.483	36.8
589.821	36.94
590.159	36.89
590.497	37.53
590.835	37.07
591.173	36.96
591.511	37.19
591.849	37.18
592.187	37.47
592.524	37.25
592.862	37.14
593.2	37.16
593.537	37.36
593.875	37.45
594.212	36.94
594.55	37.32
594.887	37.37
595.224	37.41
595.561	37.45
595.899	37.12
596.236	37.31
596.573	37.47
596.91	37.37
597.247	37.41
597.584	38.1
597.921	37.29
598.258	37.54
598.594	37.08
598.931	37.13
599.268	36.97
599.604	37.34
599.941	37.27
600.277	37.56
600.614	37.52
600.95	38.07
601.287	37.68
601.623	37.68
601.959	37.94
602.296	37.83
602.632	37.89
602.968	37.87
603.304	38.19
603.64	38.02
603.976	37.97
604.312	37.62
604.648	37.71
604.984	37.79
605.319	37.79
605.655	37.74
605.991	38.07
606.326	37.78
606.662	37.87
606.998	37.82
607.333	37.93
607.668	37.95
608.004	38.32
608.339	38.16
608.674	38.38
609.01	38.01
609.345	38.09
609.68	38.18
610.015	38.26
610.35	38.37
610.685	38.04
611.02	38.19
611.355	38.32
611.689	38.28
612.024	38.46
612.359	38.87
612.694	38.49
613.028	38.22
613.363	38.61
613.697	38.64
614.032	38.67
614.366	38.56
614.7	39.02
615.035	38.57
615.369	38.72
615.703	38.85
616.037	38.81
616.371	38.44
616.705	39
617.039	39.05
617.373	38.76
617.707	38.76
618.041	38.71
618.375	39.14
618.709	38.69
619.042	38.85
619.376	39.02
619.71	39.19
620.043	39.09
620.377	39.24
620.71	39
621.043	39.07
621.377	39.36
621.71	39.11
622.043	38.88
622.376	38.73
622.709	39.44
623.043	39.27
623.376	38.99
623.709	39.4
624.041	38.91
624.374	39.34
624.707	39.26
625.04	39.87
625.373	39.59
625.705	39.81
626.038	39.69
626.37	39.58
626.703	39.62
627.035	39.66
627.368	39.77
627.7	39.42
628.032	39.4
628.365	39.6
628.697	39.69
629.029	39.19
629.361	39.52
629.693	39.54
630.025	40.02
630.357	39.95
630.689	39.8
631.021	39.4
631.353	40.01
631.684	39.95
632.016	40.34
632.348	40.36
632.679	39.63
633.011	39.92
633.342	39.72
633.674	39.85
634.005	40.21
634.336	40.14
634.668	39.83
634.999	40.01
635.33	40.37
635.661	40.47
635.992	40.09
636.323	40.21
636.654	40.2
636.985	40.56
637.316	40.36
637.647	39.64
637.977	40.56
638.308	40.51
638.639	40.48
638.969	40.52
639.3	40.26
639.63	40.11
639.961	40.56
640.291	40.06
640.622	41.18
640.952	40.35
641.282	41.03
641.612	41.02
641.943	40.93
642.273	40.84
642.603	41.17
642.933	40.83
643.263	41.03
643.592	39.89
643.922	40.72
644.252	40.81
644.582	40.85
644.911	40.55
645.241	40.97
645.571	41.03
645.9	41
646.23	41.02
646.559	41.34
646.888	40.86
647.218	40.85
647.547	41.38
647.876	41.38
648.205	41.07
648.534	40.95
648.863	40.91
649.192	41.6
649.521	41.2
649.85	40.87
650.179	41.42
650.508	41.21
650.837	41.17
651.165	40.93
651.494	41.52
651.822	41.53
652.151	41.78
652.479	40.99
652.808	40.93
653.136	41.49
653.465	41.04
653.793	41.24
654.121	41.27
654.449	41.73
654.777	41.85
655.105	42
655.433	41.11
655.761	41.23
656.089	42.04
656.417	41.31
656.745	42.02
657.073	42.04
657.4	41.98
657.728	41.32
658.056	41.89
658.383	41.81
658.711	41.71
659.038	41.3
659.365	41.82
659.693	41.29
660.02	41.7
660.347	42.34
660.674	42.15
661.001	41.52
661.329	41.53
661.656	41.95
661.982	41.97
662.309	41.23
662.636	41.65
662.963	42.56
663.29	41.91
663.616	41.97
663.943	41.82
664.27	41.59
664.596	42.45
664.923	42.88
665.249	42.94
665.576	41.69
665.902	42.37
666.228	42.49
666.554	42.52
666.881	42.02
667.207	42.64
667.533	42.68
667.859	41.81
668.185	43.2
668.511	42.02
668.837	42.14
669.162	42.32
669.488	42.8
669.814	42.65
670.139	42.53
