Data from 0390_chest_Reflection__2__110.txt Node

Date: Fri Dec 15 17:24:38 CST 2023
User: ToomeyLab
Spectrometer: FLMS14357
Trigger mode: 0
Integration Time (sec): 1.000000E-2
Scans to average: 100
Electric dark correction enabled: true
Nonlinearity correction enabled: false
Boxcar width: 0
XAxis mode: Wavelengths
Number of Pixels in Spectrum: 2048
>>>>>Begin Spectral Data<<<<<
189.047	220.05
189.435	220.05
189.823	220.05
190.211	-5.97
190.599	863.2
190.987	167
191.375	-89.9
191.763	-293.59
192.151	128.94
192.538	115.49
192.926	154.82
193.314	57.15
193.702	-150.95
194.089	39.11
194.477	317.3
194.864	-77.42
195.252	138.25
195.639	206.04
196.027	-615.52
196.414	22.99
196.801	-33.28
197.189	117.49
197.576	284.33
197.963	-184.65
198.351	-35.88
198.738	22.47
199.125	23.4
199.512	5.75
199.899	-7.77
200.286	-6.18
200.673	1.15
201.06	15.85
201.447	-23.2
201.833	41.82
202.22	27.37
202.607	38.04
202.994	8.33
203.38	34.72
203.767	16.53
204.154	-0.79
204.54	86.3
204.927	-65.69
205.313	-18.84
205.699	23.74
206.086	35.21
206.472	55.1
206.858	8.5
207.245	-55.88
207.631	8.98
208.017	34.04
208.403	12.38
208.789	6.55
209.175	-6.63
209.561	-9.11
209.947	58.79
210.333	-10.75
210.719	9.02
211.105	9.88
211.491	-20.81
211.876	65.26
212.262	26.42
212.648	19.2
213.034	70.52
213.419	-43.07
213.805	-14.06
214.19	-15.57
214.576	5.76
214.961	-2.57
215.346	-0.36
215.732	24.6
216.117	27.44
216.502	-11.63
216.888	12.06
217.273	15.55
217.658	25.01
218.043	39.77
218.428	2.48
218.813	15.16
219.198	18.36
219.583	-8.89
219.968	37.38
220.353	-31.55
220.738	28.08
221.122	29.66
221.507	1.1
221.892	-34.52
222.276	-11.8
222.661	13.76
223.046	11.69
223.43	15.18
223.815	13.07
224.199	-9.4
224.583	4.42
224.968	-5.37
225.352	25.51
225.736	-3.42
226.121	-7.31
226.505	3.58
226.889	12.31
227.273	0.17
227.657	3.62
228.041	-1.11
228.425	3
228.809	5.18
229.193	4.66
229.577	7.27
229.961	6.06
230.344	5.2
230.728	4.76
231.112	5.71
231.495	5.07
231.879	3.34
232.263	5.61
232.646	5.61
233.03	6.58
233.413	4.05
233.797	5.85
234.18	3.31
234.563	5.86
234.946	3.14
235.33	7.97
235.713	4.75
236.096	4.56
236.479	5.86
236.862	4.89
237.245	5.34
237.628	5.12
238.011	5.05
238.394	6.91
238.777	6.83
239.16	4.9
239.543	6.23
239.925	5.71
240.308	5.53
240.691	5.38
241.073	6.49
241.456	4.19
241.838	5.03
242.221	3.74
242.603	4.99
242.986	5.05
243.368	4.93
243.75	5.42
244.133	4.86
244.515	5.53
244.897	5.68
245.279	4.96
245.661	5.38
246.043	3.91
246.425	3.85
246.807	4.8
247.189	5.15
247.571	5.01
247.953	4.91
248.335	4.71
248.717	4.83
249.098	4.86
249.48	4.72
249.862	4.63
250.243	4.67
250.625	4.56
251.006	4.76
251.388	3.47
251.769	4.64
252.151	5.33
252.532	4.6
252.913	2.95
253.295	4.91
253.676	4.46
254.057	4.99
254.438	4.24
254.819	3.47
255.2	4.21
255.581	4.03
255.962	4.2
256.343	5.32
256.724	3.91
257.105	4.72
257.486	4.38
257.867	4.49
258.247	4.68
258.628	4.78
259.009	4.21
259.389	4.13
259.77	4.26
260.15	3.97
260.531	4.13
260.911	4.89
261.292	4.17
261.672	4.42
262.052	4.18
262.432	4.6
262.813	4.59
263.193	4.34
263.573	3.97
263.953	4.02
264.333	4.21
264.713	4.39
265.093	3.67
265.473	3.86
265.853	3.79
266.233	4.13
266.612	2.84
266.992	2.97
267.372	4.04
267.752	4.3
268.131	3.85
268.511	4.87
268.89	4.6
269.27	4.63
269.649	4.11
270.029	4.12
270.408	5.01
270.787	3.94
271.167	4.52
271.546	4.17
271.925	3.05
272.304	3.98
272.683	4.7
273.062	4
273.441	4.13
273.82	3.51
274.199	3.9
274.578	3.83
274.957	3.5
275.336	4.2
275.715	3.73
276.093	3.7
276.472	4.78
276.851	3.99
277.229	4.2
277.608	3.6
277.986	4.29
278.365	4.43
278.743	4.15
279.122	3.47
279.5	4.19
279.878	3.62
280.257	3.85
280.635	3.1
281.013	3.8
281.391	4.23
281.769	3.8
282.147	4.17
282.525	4.05
282.903	3.85
283.281	4.34
283.659	4.38
284.037	4.42
284.415	4.34
284.792	4.29
285.17	3.47
285.548	3.75
285.925	4.23
286.303	4.43
286.68	3.99
287.058	4.32
287.435	4.01
287.813	3.93
288.19	3.74
288.567	3.56
288.945	4.39
289.322	3.6
289.699	4.16
290.076	3.94
290.453	4.4
290.83	3.66
291.207	3.49
291.584	4.51
291.961	4.34
292.338	3.64
292.715	4.24
293.092	4.07
293.469	3.69
293.845	4.18
294.222	3.93
294.599	3.4
294.975	3.77
295.352	4.14
295.728	3.15
296.105	4
296.481	3.99
296.858	3.8
297.234	3.7
297.61	3.56
297.986	3.87
298.363	3.94
298.739	4.56
299.115	3.66
299.491	3.43
299.867	3.99
300.243	4.16
300.619	3.87
300.995	3.44
301.371	4.24
301.746	3.7
302.122	4.13
302.498	3.87
302.874	4
303.249	4.09
303.625	3.88
304	3.98
304.376	4.15
304.751	3.73
305.127	5.21
305.502	3.69
305.878	3.08
306.253	3.64
306.628	4.15
307.003	4.11
307.378	3.88
307.754	3.75
308.129	3.59
308.504	3.87
308.879	3.62
309.254	4.76
309.629	3.99
310.003	4.38
310.378	4.46
310.753	3.95
311.128	3.86
311.502	3.72
311.877	4.03
312.252	3.56
312.626	3.95
313.001	3.91
313.375	4.13
313.75	3.42
314.124	4.02
314.498	3.3
314.873	4.13
315.247	3.35
315.621	4.07
315.995	3.02
316.369	3.74
316.743	3.76
317.117	4.01
317.491	3.57
317.865	3.88
318.239	3.84
318.613	4.19
318.987	3.28
319.361	3.23
319.734	4.37
320.108	3.82
320.482	4.63
320.855	4.24
321.229	3.86
321.602	3.3
321.976	4.18
322.349	3.62
322.723	3.48
323.096	4.58
323.469	3.02
323.843	3.79
324.216	4.52
324.589	3.67
324.962	3.63
325.335	3.41
325.708	3.55
326.081	3.75
326.454	3.71
326.827	4.39
327.2	4.04
327.573	4.28
327.945	3.97
328.318	3.62
328.691	3.36
329.063	3.99
329.436	3.42
329.809	3.71
330.181	3.77
330.553	4.16
330.926	3.71
331.298	4.16
331.671	3.85
332.043	4.68
332.415	4.11
332.787	4.06
333.159	4.88
333.532	4.43
333.904	4.04
334.276	3.56
334.648	3.99
335.02	3.95
335.391	3.43
335.763	3.42
336.135	4.13
336.507	4.03
336.879	4.3
337.25	3.87
337.622	3.2
337.993	4.16
338.365	4.2
338.736	4.21
339.108	3.89
339.479	3.66
339.851	3.93
340.222	3.82
340.593	3.57
340.964	3.66
341.336	4.88
341.707	3.3
342.078	4.43
342.449	3.87
342.82	3.9
343.191	3.95
343.562	4.22
343.933	4.13
344.303	3.56
344.674	3.91
345.045	4.42
345.416	4.82
345.786	3.41
346.157	3.85
346.527	4.11
346.898	3.71
347.268	4
347.639	3.98
348.009	4.03
348.38	3.47
348.75	3.61
349.12	3.51
349.49	4.15
349.861	3.97
350.231	4.36
350.601	3.93
350.971	4.1
351.341	3.77
351.711	4.02
352.081	4.37
352.45	3.53
352.82	4.36
353.19	3.85
353.56	3.81
353.929	4.04
354.299	3.87
354.669	3.4
355.038	4.5
355.408	3.65
355.777	3.82
356.147	3.67
356.516	3.75
356.885	4.3
357.254	4.15
357.624	4.35
357.993	3.98
358.362	3.64
358.731	3.53
359.1	4.21
359.469	3.88
359.838	4.23
360.207	3.72
360.576	3.93
360.945	4.12
361.314	4.31
361.682	3.81
362.051	3.99
362.42	4.27
362.788	3.9
363.157	4.25
363.525	4.1
363.894	4.1
364.262	3.93
364.631	3.8
364.999	3.95
365.367	3.57
365.735	4.4
366.104	4.44
366.472	4.36
366.84	3.82
367.208	3.98
367.576	4.55
367.944	4.32
368.312	3.91
368.68	3.92
369.048	4.34
369.416	4.24
369.783	3.81
370.151	3.96
370.519	4.65
370.886	4.32
371.254	3.99
371.621	4.33
371.989	4.77
372.356	3.8
372.724	4.02
373.091	4.35
373.458	4.12
373.826	4.1
374.193	3.78
374.56	4.07
374.927	4.11
375.294	4.19
375.661	4.26
376.028	3.96
376.395	3.96
376.762	4.24
377.129	3.98
377.496	4.13
377.863	4.19
378.229	3.71
378.596	4.42
378.963	4.31
379.329	3.69
379.696	4.06
380.062	3.97
380.429	4.25
380.795	4.29
381.161	4.29
381.528	4.26
381.894	4.33
382.26	4.01
382.626	4.33
382.993	3.82
383.359	4.31
383.725	4.13
384.091	4.09
384.457	4.39
384.823	3.87
385.188	4.3
385.554	4.21
385.92	4.46
386.286	4.55
386.651	4.3
387.017	4.35
387.383	4.56
387.748	4.37
388.114	4.67
388.479	3.95
388.845	4.34
389.21	4.27
389.575	4.25
389.94	4.43
390.306	4.14
390.671	4.32
391.036	4.08
391.401	3.94
391.766	4.04
392.131	4.15
392.496	4.55
392.861	4.13
393.226	4.43
393.591	4.15
393.956	4.22
394.32	4.32
394.685	4.28
395.05	4.18
395.414	4.35
395.779	3.81
396.143	4.5
396.508	4.1
396.872	4.32
397.236	4.31
397.601	4.18
397.965	4.07
398.329	4.45
398.694	4.44
399.058	4.31
399.422	4.02
399.786	4.57
400.15	4.26
400.514	4.32
400.878	4.41
401.242	4.6
401.605	4.38
401.969	4.27
402.333	4.35
402.697	4.13
403.06	4.12
403.424	4.36
403.787	4.13
404.151	4.61
404.514	4.44
404.878	4.12
405.241	4.44
405.604	4.14
405.968	4.35
406.331	4.36
406.694	4.57
407.057	4.51
407.42	4.48
407.783	4.26
408.146	4.27
408.509	4.36
408.872	4.17
409.235	4.23
409.598	4.52
409.961	4.55
410.323	4.53
410.686	4.2
411.049	4.14
411.411	4.29
411.774	4.38
412.136	4.36
412.499	4.18
412.861	4.19
413.223	4.28
413.586	4.44
413.948	4.28
414.31	4.64
414.672	4.25
415.035	4.07
415.397	4.44
415.759	3.94
416.121	4.4
416.483	4.16
416.845	4.45
417.206	4.15
417.568	4.34
417.93	4.09
418.292	4.31
418.653	4.33
419.015	4.53
419.377	4.36
419.738	4.34
420.1	4.31
420.461	4.35
420.822	4.32
421.184	4.22
421.545	4.23
421.906	4.14
422.267	4.22
422.629	4.25
422.99	4.28
423.351	4.15
423.712	4.26
424.073	4.14
424.434	4.13
424.795	4.21
425.155	4.19
425.516	4.15
425.877	4.2
426.238	4.22
426.598	4.22
426.959	4.29
427.32	4.13
427.68	4.16
428.041	4.21
428.401	4.39
428.761	4.21
429.122	4.06
429.482	4.28
429.842	4.38
430.202	4.26
430.563	4.29
430.923	4.33
431.283	4.39
431.643	4.43
432.003	4.31
432.363	4.39
432.722	4.32
433.082	4.26
433.442	4.27
433.802	4.14
434.161	4.26
434.521	4.54
434.881	4.26
435.24	4.16
435.6	4.24
435.959	4.24
436.319	4.32
436.678	4.22
437.037	4.19
437.396	4.39
437.756	4.41
438.115	4.36
438.474	4.58
438.833	4.07
439.192	4.28
439.551	4.47
439.91	4.32
440.269	4.43
440.628	4.26
440.987	4.38
441.345	4.15
441.704	4.35
442.063	4.33
442.421	4.33
442.78	4.28
443.138	4.27
443.497	4.37
443.855	4.33
444.214	4.27
444.572	4.32
444.93	4.18
445.288	4.26
445.647	4.46
446.005	4.31
446.363	4.52
446.721	4.33
447.079	4.27
447.437	4.28
447.795	4.31
448.153	4.15
448.51	4.14
448.868	4.15
449.226	4.19
449.584	4.17
449.941	4.4
450.299	4.4
450.656	4.31
451.014	4.26
451.371	4.3
451.729	4.34
452.086	4.53
452.443	4.3
452.801	4.29
453.158	4.42
453.515	4.35
453.872	4.27
454.229	4.22
454.586	4.42
454.943	4.41
455.3	4.46
455.657	4.37
456.014	4.38
456.371	4.33
456.727	4.27
457.084	4.55
457.441	4.28
457.797	4.36
458.154	4.71
458.51	4.38
458.867	4.54
459.223	4.48
459.58	4.41
459.936	4.48
460.292	4.36
460.648	4.38
461.005	4.35
461.361	4.35
461.717	4.27
462.073	4.31
462.429	4.3
462.785	4.34
463.141	4.25
463.496	4.43
463.852	4.42
464.208	4.34
464.564	4.45
464.919	4.4
465.275	4.46
465.631	4.56
465.986	4.41
466.342	4.51
466.697	4.25
467.052	4.44
467.408	4.42
467.763	4.41
468.118	4.48
468.473	4.38
468.829	4.43
469.184	4.27
469.539	4.35
469.894	4.3
470.249	4.47
470.603	4.49
470.958	4.71
471.313	4.46
471.668	4.68
472.023	4.51
472.377	4.45
472.732	4.43
473.086	4.38
473.441	4.07
473.795	4.58
474.15	4.46
474.504	4.52
474.859	4.56
475.213	4.25
475.567	4.3
475.921	4.23
476.275	4.46
476.63	4.43
476.984	4.39
477.338	4.45
477.692	4.4
478.045	4.4
478.399	4.59
478.753	4.43
479.107	4.34
479.461	4.38
479.814	4.45
480.168	4.43
480.521	4.38
480.875	4.45
481.228	4.49
481.582	4.49
481.935	4.53
482.289	4.48
482.642	4.38
482.995	4.38
483.348	4.2
483.701	4.37
484.055	4.34
484.408	4.48
484.761	4.3
485.114	4.32
485.466	4.17
485.819	4.12
486.172	4.17
486.525	4.17
486.878	4.2
487.23	4.24
487.583	4.34
487.936	4.3
488.288	4.32
488.641	4.34
488.993	4.27
489.345	4.2
489.698	4.27
490.05	4.23
490.402	4.28
490.754	4.19
491.107	4.34
491.459	4.37
491.811	4.38
492.163	4.39
492.515	4.31
492.866	4.41
493.218	4.34
493.57	4.28
493.922	4.26
494.274	4.32
494.625	4.4
494.977	4.45
495.328	4.47
495.68	4.4
496.031	4.53
496.383	4.39
496.734	4.68
497.086	4.53
497.437	4.52
497.788	4.42
498.139	4.46
498.49	4.62
498.842	4.37
499.193	4.39
499.544	4.47
499.894	4.5
500.245	4.48
500.596	4.57
500.947	4.65
501.298	4.53
501.648	4.5
501.999	4.61
502.35	4.48
502.7	4.57
503.051	4.49
503.401	4.43
503.752	4.73
504.102	4.57
504.452	4.55
504.803	4.58
505.153	4.5
505.503	4.56
505.853	4.56
506.203	4.69
506.553	4.54
506.903	4.52
507.253	4.54
507.603	4.53
507.953	4.66
508.303	4.67
508.652	4.39
509.002	4.67
509.352	4.69
509.701	4.6
510.051	4.56
510.4	4.52
510.75	4.62
511.099	4.56
511.449	4.55
511.798	4.49
512.147	4.71
512.496	4.6
512.846	4.56
513.195	4.6
513.544	4.56
513.893	4.71
514.242	4.51
514.591	4.68
514.939	4.67
515.288	4.52
515.637	4.73
515.986	4.6
516.334	4.76
516.683	4.76
517.032	4.65
517.38	4.65
517.729	4.72
518.077	4.67
518.426	4.89
518.774	4.76
519.122	4.71
519.47	4.77
519.819	4.61
520.167	4.6
520.515	4.62
520.863	4.71
521.211	4.76
521.559	4.8
521.907	4.72
522.255	4.73
522.602	4.76
522.95	4.77
523.298	4.75
523.645	4.85
523.993	4.65
524.341	4.79
524.688	4.84
525.036	4.72
525.383	4.94
525.73	4.9
526.078	4.84
526.425	4.64
526.772	4.9
527.119	4.78
527.466	4.68
527.814	4.73
528.161	4.77
528.508	4.81
528.854	4.74
529.201	4.73
529.548	4.73
529.895	4.72
530.242	4.62
530.588	4.65
530.935	4.65
531.282	4.73
531.628	4.67
531.975	4.8
532.321	4.76
532.667	4.86
533.014	4.95
533.36	4.86
533.706	4.93
534.052	4.91
534.399	4.86
534.745	4.88
535.091	4.84
535.437	4.8
535.783	4.89
536.129	4.89
536.474	4.92
536.82	4.92
537.166	5.08
537.512	4.89
537.857	5.01
538.203	4.96
538.549	5.02
538.894	5
539.239	5.04
539.585	4.93
539.93	4.92
540.276	5.29
540.621	5.18
540.966	5.08
541.311	5.08
541.656	5.08
542.001	5.21
542.346	5.34
542.691	5.03
543.036	4.99
543.381	4.95
543.726	5.03
544.071	5.04
544.415	5.14
544.76	5.03
545.105	5.15
545.449	5.18
545.794	5.19
546.138	5.11
546.483	5.21
546.827	5.21
547.171	5.19
547.516	5.33
547.86	5.31
548.204	5.29
548.548	5.19
548.892	5.33
549.236	5.4
549.58	5.24
549.924	5.45
550.268	5.46
550.612	5.45
550.956	5.63
551.3	5.55
551.643	5.5
551.987	5.64
552.33	5.61
552.674	5.58
553.017	5.44
553.361	5.29
553.704	5.68
554.048	5.56
554.391	5.56
554.734	5.46
555.077	5.38
555.42	5.4
555.764	5.63
556.107	5.43
556.45	5.57
556.793	5.7
557.135	5.7
557.478	5.9
557.821	5.78
558.164	5.7
558.507	5.84
558.849	5.62
559.192	5.78
559.534	5.55
559.877	5.98
560.219	5.82
560.562	6
560.904	5.96
561.246	5.83
561.589	6.05
561.931	5.96
562.273	5.81
562.615	6.15
562.957	6.07
563.299	5.77
563.641	6.09
563.983	5.96
564.325	5.94
564.667	5.94
565.008	6.1
565.35	6.01
565.692	5.94
566.033	6.04
566.375	6.43
566.716	6.32
567.058	6.15
567.399	5.99
567.741	6.01
568.082	6.16
568.423	6.19
568.764	5.98
569.105	6.2
569.447	6.18
569.788	6.28
570.129	6.25
570.47	6.25
570.811	6.23
571.151	6.38
571.492	6.39
571.833	6.25
572.174	6.36
572.514	6.34
572.855	6.32
573.195	6.29
573.536	6.5
573.876	6.23
574.217	6.32
574.557	6.49
574.898	6.47
575.238	6.59
575.578	6.43
575.918	6.79
576.258	6.69
576.598	6.61
576.938	6.49
577.278	6.82
577.618	6.68
577.958	6.67
578.298	6.67
578.638	6.74
578.977	6.68
579.317	6.57
579.657	6.92
579.996	6.95
580.336	6.91
580.675	6.94
581.014	6.72
581.354	7.12
581.693	6.92
582.032	6.76
582.372	6.88
582.711	7.1
583.05	6.77
583.389	6.71
583.728	6.84
584.067	7.06
584.406	7.18
584.745	7.21
585.083	7.1
585.422	7.3
585.761	7.32
586.1	7.5
586.438	7.32
586.777	7.6
587.115	7.33
587.454	7.31
587.792	7.28
588.13	7.43
588.469	7.47
588.807	7.51
589.145	6.97
589.483	7.41
589.821	7.27
590.159	7.56
590.497	7.98
590.835	7.85
591.173	7.26
591.511	7.7
591.849	7.66
592.187	7.68
592.524	7.79
592.862	7.79
593.2	7.7
593.537	8.08
593.875	7.61
594.212	7.78
594.55	7.91
594.887	7.95
595.224	7.77
595.561	8.03
595.899	7.95
596.236	8.07
596.573	7.79
596.91	7.49
597.247	7.91
597.584	8.29
597.921	7.85
598.258	7.64
598.594	7.93
598.931	8.27
599.268	8.14
599.604	8.18
599.941	8.31
600.277	8.08
600.614	8.17
600.95	8.02
601.287	8.64
601.623	8.24
601.959	8.08
602.296	8.27
602.632	8.19
602.968	8.42
603.304	8.26
603.64	8.6
603.976	8.73
604.312	8.32
604.648	8.71
604.984	8.44
605.319	8.67
605.655	8.7
605.991	8.76
606.326	8.62
606.662	8.67
606.998	8.52
607.333	8.44
607.668	8.78
608.004	8.78
608.339	9.04
608.674	8.72
609.01	8.81
609.345	8.54
609.68	8.98
610.015	8.89
610.35	9.11
610.685	8.89
611.02	8.86
611.355	9.15
611.689	8.89
612.024	9.16
612.359	9.16
612.694	9.17
613.028	8.96
613.363	9.4
613.697	9.26
614.032	9.29
614.366	9.41
614.7	9.51
615.035	9.5
615.369	9.15
615.703	9.5
616.037	9.56
616.371	9.06
616.705	9.41
617.039	9.69
617.373	9.67
617.707	9.63
618.041	9.83
618.375	9.62
618.709	9.83
619.042	9.41
619.376	9.61
619.71	9.97
620.043	10.17
620.377	9.57
620.71	10.23
621.043	9.71
621.377	9.73
621.71	9.8
622.043	9.6
622.376	9.77
622.709	9.9
623.043	10.25
623.376	10.24
623.709	9.94
624.041	10.33
624.374	10.18
624.707	9.94
625.04	10.3
625.373	10.2
625.705	10.5
626.038	10.27
626.37	10.27
626.703	10.67
627.035	10.4
627.368	10.6
627.7	10.52
628.032	10.35
628.365	10.79
628.697	10.6
629.029	10.48
629.361	10.61
629.693	10.8
630.025	10.38
630.357	10.99
630.689	10.95
631.021	10.79
631.353	11.06
631.684	11.04
632.016	10.84
632.348	11.2
632.679	11.19
633.011	10.8
633.342	11
633.674	11.22
634.005	11.19
634.336	10.79
634.668	11.29
634.999	11.34
635.33	11.46
635.661	11.54
635.992	11.13
636.323	11.51
636.654	11.35
636.985	11.79
637.316	11.39
637.647	11.24
637.977	11.51
638.308	11.81
638.639	11.1
638.969	11.26
639.3	11.67
639.63	11.39
639.961	11.54
640.291	11.44
640.622	11.84
640.952	11.69
641.282	12.01
641.612	12.01
641.943	11.47
642.273	12.18
642.603	12.06
642.933	12.52
643.263	12.26
643.592	12.22
643.922	11.8
644.252	12.26
644.582	12.27
644.911	11.72
645.241	12.35
645.571	12.33
645.9	11.6
646.23	12.34
646.559	13.02
646.888	12.17
647.218	12.31
647.547	12.77
647.876	11.77
648.205	12.19
648.534	12.55
648.863	12.19
649.192	12.78
649.521	12.69
649.85	12.27
650.179	12.91
650.508	12.57
650.837	12.52
651.165	12.23
651.494	12.94
651.822	12.83
652.151	12.78
652.479	12.61
652.808	12.6
653.136	12.82
653.465	12.03
653.793	12.26
654.121	12.84
654.449	13.15
654.777	13.18
655.105	13.1
655.433	13.09
655.761	12.51
656.089	13.5
656.417	12.98
656.745	13.45
657.073	13.02
657.4	13.8
657.728	13.41
658.056	13.22
658.383	13.81
658.711	13.33
659.038	13.64
659.365	13.29
659.693	14.06
660.02	13.55
660.347	13.39
660.674	13.81
661.001	14
661.329	13.11
661.656	13.76
661.982	14.09
662.309	13.91
662.636	13.32
662.963	14.04
663.29	13.93
663.616	13.53
663.943	13.21
664.27	13.71
664.596	14.14
664.923	13.74
665.249	14.17
665.576	13.85
665.902	14.8
666.228	13.97
666.554	14.21
666.881	14.23
667.207	14.4
667.533	14.86
667.859	14.64
668.185	15.35
668.511	13.43
668.837	13.72
669.162	14.41
669.488	13.53
669.814	14.89
670.139	14.54
670.465	14.17
670.791	14.53
671.116	15.17
671.442	14.9
671.767	15.5
672.092	14.97
672.418	14.88
672.743	14.79
673.068	14.28
673.393	15.49
673.718	15.16
674.043	14.95
674.368	14.93
674.693	16.04
675.018	15.12
675.343	14.93
675.667	15.78
675.992	15.58
676.317	15.43
676.641	15.77
676.966	15.96
677.29	15.52
677.615	15.53
677.939	15.66
678.264	15.77
678.588	16.06
678.912	15.98
679.236	15.61
679.56	15.28
679.885	16.37
680.209	15.39
680.532	15.6
680.856	16.46
681.18	15.91
681.504	16.01
681.828	15.59
682.152	16.07
682.475	16.33
682.799	15.97
683.122	16.07
683.446	16.34
683.769	16.41
684.093	16.07
684.416	16.39
684.739	16.04
685.062	16.31
685.386	16.82
685.709	16.19
686.032	16.25
686.355	16.84
686.678	16.26
687.001	16.9
687.324	17.58
687.646	16.45
687.969	15.74
