Data from 0390_forehead_Reflection__0__119.txt Node

Date: Fri Dec 15 17:27:39 CST 2023
User: ToomeyLab
Spectrometer: FLMS14357
Trigger mode: 0
Integration Time (sec): 1.000000E-2
Scans to average: 100
Electric dark correction enabled: true
Nonlinearity correction enabled: false
Boxcar width: 0
XAxis mode: Wavelengths
Number of Pixels in Spectrum: 2048
>>>>>Begin Spectral Data<<<<<
189.047	-103.42
189.435	-103.42
189.823	-103.42
190.211	104.85
190.599	-98.04
190.987	132.56
191.375	106.65
191.763	304.9
192.151	-19.01
192.538	100.2
192.926	237.82
193.314	280.93
193.702	-11.5
194.089	154.04
194.477	3.36
194.864	-92.21
195.252	84.92
195.639	193.3
196.027	-109.91
196.414	51.21
196.801	82.82
197.189	63.54
197.576	62.76
197.963	237.42
198.351	-44.56
198.738	-15.37
199.125	35.02
199.512	17.83
199.899	26.69
200.286	15.7
200.673	24.94
201.06	24.35
201.447	-56.47
201.833	6.71
202.22	17.9
202.607	65.86
202.994	-26.46
203.38	13.57
203.767	20.79
204.154	31.1
204.54	43.33
204.927	-33.74
205.313	-4.93
205.699	41.95
206.086	34.53
206.472	43.35
206.858	18.07
207.245	23.21
207.631	35.89
208.017	31.02
208.403	-20.34
208.789	42.63
209.175	-4.5
209.561	-7.1
209.947	29.79
210.333	-59.23
210.719	26.98
211.105	-5.13
211.491	8.91
211.876	44.4
212.262	24.73
212.648	8.81
213.034	42.97
213.419	31.9
213.805	3.49
214.19	-17.47
214.576	9.62
214.961	31.58
215.346	-25.59
215.732	20.79
216.117	13.07
216.502	11.93
216.888	21.26
217.273	30.94
217.658	16.26
218.043	19.67
218.428	-45.02
218.813	1.91
219.198	-7.86
219.583	11.72
219.968	29.78
220.353	0.13
220.738	33.03
221.122	3.61
221.507	-7.51
221.892	-24.6
222.276	-18.67
222.661	-9.19
223.046	19.61
223.43	18.84
223.815	1.36
224.199	-2.42
224.583	8.55
224.968	4.31
225.352	20.64
225.736	-2.99
226.121	3.12
226.505	9.1
226.889	8.95
227.273	-4.46
227.657	6.25
228.041	4.18
228.425	3.21
228.809	1.09
229.193	3.64
229.577	2.23
229.961	0.92
230.344	2.2
230.728	1.88
231.112	2.3
231.495	1.72
231.879	1.31
232.263	3.2
232.646	1.18
233.03	2.94
233.413	0.31
233.797	4.6
234.18	2.26
234.563	1.93
234.946	0.33
235.33	1.83
235.713	2.67
236.096	2.29
236.479	3.82
236.862	1.97
237.245	2.47
237.628	2.94
238.011	2.1
238.394	3.4
238.777	2.92
239.16	-0.71
239.543	0.8
239.925	2.21
240.308	2.31
240.691	1.4
241.073	3.41
241.456	1.89
241.838	1.92
242.221	1.39
242.603	2.09
242.986	1.67
243.368	1.65
243.75	2.1
244.133	1.96
244.515	2.15
244.897	2.76
245.279	2.31
245.661	3.1
246.043	1.54
246.425	1.35
246.807	4.58
247.189	2.19
247.571	2.11
247.953	3.08
248.335	2.04
248.717	2.32
249.098	2.09
249.48	2.56
249.862	2.08
250.243	2.37
250.625	2.22
251.006	2.7
251.388	1.04
251.769	1.71
252.151	2.06
252.532	1.51
252.913	2.66
253.295	1.51
253.676	1.81
254.057	2.33
254.438	2.06
254.819	1.62
255.2	2.32
255.581	3.54
255.962	2.38
256.343	3.13
256.724	1.81
257.105	2.46
257.486	2.36
257.867	2.95
258.247	2.33
258.628	1.48
259.009	1.56
259.389	2.05
259.77	2.59
260.15	1.7
260.531	1.89
260.911	3.04
261.292	2.23
261.672	2.3
262.052	2.16
262.432	2.5
262.813	2.74
263.193	1.92
263.573	2.5
263.953	2.21
264.333	3.24
264.713	2.14
265.093	2.13
265.473	2.36
265.853	1.51
266.233	2.23
266.612	0.44
266.992	0.9
267.372	2.1
267.752	1.4
268.131	2.36
268.511	2.67
268.89	2.54
269.27	1.93
269.649	1.84
270.029	1.92
270.408	3.35
270.787	2.44
271.167	2.25
271.546	3.37
271.925	1.52
272.304	2.2
272.683	2.6
273.062	1.9
273.441	2.55
273.82	2.08
274.199	2.23
274.578	2.16
274.957	2.15
275.336	2.11
275.715	2.21
276.093	2.38
276.472	2.09
276.851	2.34
277.229	1.95
277.608	1.39
277.986	1.98
278.365	1.78
278.743	2.22
279.122	2.42
279.5	2.48
279.878	2.92
280.257	2.6
280.635	2.06
281.013	1.8
281.391	2.92
281.769	2.41
282.147	2.48
282.525	2.98
282.903	2.18
283.281	2.33
283.659	2.38
284.037	2.09
284.415	2.05
284.792	2.5
285.17	1.52
285.548	1.6
285.925	2.02
286.303	2.46
286.68	2.55
287.058	2.23
287.435	2.38
287.813	2.28
288.19	1.99
288.567	2.35
288.945	3.18
289.322	2.75
289.699	2.25
290.076	2.47
290.453	2.39
290.83	2.54
291.207	2.76
291.584	2.46
291.961	2.73
292.338	2.38
292.715	3.11
293.092	2.69
293.469	2.48
293.845	2.94
294.222	2.15
294.599	3.07
294.975	2.56
295.352	3.09
295.728	2.32
296.105	3.08
296.481	3.45
296.858	3.2
297.234	3.19
297.61	2.78
297.986	2.95
298.363	3.22
298.739	3.09
299.115	2.93
299.491	2.62
299.867	3.08
300.243	3.12
300.619	2.93
300.995	3.01
301.371	3.08
301.746	2.89
302.122	3.75
302.498	2.68
302.874	3.62
303.249	3.34
303.625	3.23
304	3.74
304.376	3.27
304.751	2.93
305.127	3.92
305.502	3.26
305.878	3.15
306.253	3.55
306.628	4.14
307.003	3.37
307.378	4.29
307.754	3.89
308.129	3.07
308.504	3.68
308.879	3.94
309.254	4.56
309.629	4.31
310.003	3.32
310.378	4.09
310.753	4.79
311.128	4.37
311.502	3.9
311.877	4.54
312.252	3.55
312.626	4.19
313.001	4.11
313.375	4.28
313.75	4.18
314.124	4.4
314.498	4.23
314.873	4.5
315.247	4.16
315.621	4.49
315.995	4.05
316.369	4.79
316.743	4.25
317.117	5.1
317.491	4.5
317.865	4.89
318.239	4.22
318.613	5.32
318.987	5.26
319.361	4.64
319.734	6.08
320.108	5.32
320.482	4.78
320.855	5.26
321.229	4.5
321.602	5.21
321.976	5.74
322.349	5.27
322.723	5.13
323.096	5.69
323.469	4.92
323.843	5.66
324.216	5.83
324.589	5.58
324.962	5.72
325.335	5.56
325.708	5.52
326.081	5.52
326.454	5.93
326.827	6.06
327.2	5.67
327.573	6.2
327.945	5.68
328.318	5.63
328.691	5.88
329.063	5.74
329.436	5.74
329.809	6.77
330.181	6.66
330.553	6.39
330.926	6.15
331.298	5.81
331.671	5.91
332.043	7.13
332.415	6.26
332.787	6.61
333.159	6.81
333.532	6.66
333.904	6.61
334.276	6.08
334.648	6.74
335.02	6.65
335.391	6.61
335.763	6.26
336.135	6.79
336.507	7.44
336.879	6.79
337.25	6.4
337.622	6.56
337.993	6.9
338.365	6.95
338.736	6.86
339.108	6.74
339.479	7.37
339.851	7.21
340.222	7
340.593	7.17
340.964	6.57
341.336	7.88
341.707	7.01
342.078	7.83
342.449	8.09
342.82	7.21
343.191	7.29
343.562	7.62
343.933	7.36
344.303	7.6
344.674	7.57
345.045	7.14
345.416	7.88
345.786	7.08
346.157	7.93
346.527	7.05
346.898	7.67
347.268	7.72
347.639	7.89
348.009	7.99
348.38	7.81
348.75	7.51
349.12	7.58
349.49	8.21
349.861	8.55
350.231	8.3
350.601	7.83
350.971	8.38
351.341	8.34
351.711	7.97
352.081	8.12
352.45	7.56
352.82	8.1
353.19	8.47
353.56	7.95
353.929	8.12
354.299	8.49
354.669	8.27
355.038	8.34
355.408	8.47
355.777	8.16
356.147	8.26
356.516	8.37
356.885	8.37
357.254	8.17
357.624	8.9
357.993	8.66
358.362	8.45
358.731	7.99
359.1	8.69
359.469	8.84
359.838	9.01
360.207	8.75
360.576	8.65
360.945	8.57
361.314	9.36
361.682	8.59
362.051	8.91
362.42	9.35
362.788	8.86
363.157	9.22
363.525	9.16
363.894	8.97
364.262	8.99
364.631	9.09
364.999	9.06
365.367	8.66
365.735	9.82
366.104	9.48
366.472	9.47
366.84	9.3
367.208	9.3
367.576	9.67
367.944	9.54
368.312	9.41
368.68	9.29
369.048	9.3
369.416	9.69
369.783	9.06
370.151	9.61
370.519	10.44
370.886	10.16
371.254	9.55
371.621	9.98
371.989	9.86
372.356	9.19
372.724	9.89
373.091	9.71
373.458	9.87
373.826	9.99
374.193	10.01
374.56	10.33
374.927	9.95
375.294	10.32
375.661	10.56
376.028	10.11
376.395	10.22
376.762	10.14
377.129	10.37
377.496	10.2
377.863	10.57
378.229	9.82
378.596	10.28
378.963	10.24
379.329	9.96
379.696	10.87
380.062	10.44
380.429	10.28
380.795	10.64
381.161	10.8
381.528	10.97
381.894	10.32
382.26	10.77
382.626	10.98
382.993	10.23
383.359	11.14
383.725	10.88
384.091	10.79
384.457	10.99
384.823	11.05
385.188	11.18
385.554	10.95
385.92	11.04
386.286	11.23
386.651	11.01
387.017	11.68
387.383	11.16
387.748	11.05
388.114	11.66
388.479	11.09
388.845	11.53
389.21	11.43
389.575	11.59
389.94	11.11
390.306	11.43
390.671	11.66
391.036	11.17
391.401	11.23
391.766	11.26
392.131	11.41
392.496	11.66
392.861	11.71
393.226	12.13
393.591	12
393.956	11.59
394.32	11.72
394.685	11.62
395.05	11.72
395.414	11.94
395.779	11.71
396.143	11.88
396.508	12.07
396.872	12.16
397.236	12.26
397.601	11.73
397.965	11.97
398.329	12.23
398.694	12.32
399.058	12.44
399.422	11.92
399.786	12.63
400.15	12.45
400.514	12.37
400.878	12.59
401.242	12.52
401.605	12.41
401.969	12.5
402.333	12.28
402.697	12.46
403.06	12.42
403.424	12.49
403.787	12.53
404.151	12.86
404.514	12.59
404.878	12.51
405.241	12.76
405.604	12.55
405.968	12.42
406.331	12.71
406.694	13.01
407.057	12.93
407.42	13.08
407.783	12.74
408.146	12.67
408.509	13
408.872	12.77
409.235	12.88
409.598	13.22
409.961	13.07
410.323	13.19
410.686	13.42
411.049	12.94
411.411	13.31
411.774	13.17
412.136	13.18
412.499	13.13
412.861	13.2
413.223	13.2
413.586	13.36
413.948	13.21
414.31	13.64
414.672	13.14
415.035	13.41
415.397	13.75
415.759	13.28
416.121	13.57
416.483	13.46
416.845	13.5
417.206	13.4
417.568	13.6
417.93	13.36
418.292	13.35
418.653	13.77
419.015	13.87
419.377	13.57
419.738	13.75
420.1	13.58
420.461	13.71
420.822	13.67
421.184	13.63
421.545	13.69
421.906	13.49
422.267	13.62
422.629	13.72
422.99	13.7
423.351	13.74
423.712	13.66
424.073	13.73
424.434	13.75
424.795	13.87
425.155	14.04
425.516	13.92
425.877	13.92
426.238	13.95
426.598	13.96
426.959	13.93
427.32	13.92
427.68	13.92
428.041	13.99
428.401	14.26
428.761	14.33
429.122	14.28
429.482	14.26
429.842	14.56
430.202	14.3
430.563	14.54
430.923	14.4
431.283	14.63
431.643	14.74
432.003	14.72
432.363	14.63
432.722	14.74
433.082	14.72
433.442	14.67
433.802	14.94
434.161	14.7
434.521	14.99
434.881	14.92
435.24	14.74
435.6	14.64
435.959	14.72
436.319	14.77
436.678	14.93
437.037	14.9
437.396	14.99
437.756	15.02
438.115	14.99
438.474	15.3
438.833	15.12
439.192	15.03
439.551	15.34
439.91	15.23
440.269	15.19
440.628	15.12
440.987	15.4
441.345	15.08
441.704	15.2
442.063	15.2
442.421	15.25
442.78	15.25
443.138	15.25
443.497	15.3
443.855	15.35
444.214	15.46
444.572	15.71
444.93	15.5
445.288	15.63
445.647	15.58
446.005	15.54
446.363	15.66
446.721	15.83
447.079	15.54
447.437	15.64
447.795	15.63
448.153	15.47
448.51	15.62
448.868	15.58
449.226	15.54
449.584	15.76
449.941	15.79
450.299	15.87
450.656	15.82
451.014	15.94
451.371	15.83
451.729	15.93
452.086	16.18
452.443	16.07
452.801	16.24
453.158	16.18
453.515	16.15
453.872	16.43
454.229	16.15
454.586	16.24
454.943	16.22
455.3	16.26
455.657	16.24
456.014	16.4
456.371	16.18
456.727	16.35
457.084	16.46
457.441	16.57
457.797	16.65
458.154	16.81
458.51	16.76
458.867	16.76
459.223	16.66
459.58	16.47
459.936	16.79
460.292	16.58
460.648	16.71
461.005	16.68
461.361	16.69
461.717	16.67
462.073	16.35
462.429	16.41
462.785	16.67
463.141	16.79
463.496	16.89
463.852	16.77
464.208	16.99
464.564	17.07
464.919	17.07
465.275	17.03
465.631	17.27
465.986	17.08
466.342	17.12
466.697	17.19
467.052	17.27
467.408	17.34
467.763	17.31
468.118	17.42
468.473	17.32
468.829	17.34
469.184	17.34
469.539	17.46
469.894	17.4
470.249	17.3
470.603	17.65
470.958	17.64
471.313	17.47
471.668	17.58
472.023	17.49
472.377	17.64
472.732	17.49
473.086	17.55
473.441	17.48
473.795	17.68
474.15	17.87
474.504	17.71
474.859	17.79
475.213	17.86
475.567	17.66
475.921	17.73
476.275	17.8
476.63	17.81
476.984	17.85
477.338	18.07
477.692	18.02
478.045	18.14
478.399	18
478.753	18.07
479.107	17.95
479.461	18.02
479.814	17.85
480.168	17.97
480.521	18.09
480.875	17.97
481.228	18.12
481.582	18.04
481.935	18.19
482.289	18.29
482.642	18.03
482.995	18.19
483.348	18.08
483.701	18.13
484.055	18.27
484.408	18.24
484.761	17.95
485.114	17.8
485.466	17.49
485.819	17.5
486.172	17.4
486.525	17.38
486.878	17.43
487.23	17.56
487.583	17.76
487.936	17.88
488.288	17.99
488.641	18.05
488.993	17.92
489.345	17.87
489.698	17.76
490.05	17.75
490.402	17.88
490.754	17.95
491.107	18.13
491.459	18.3
491.811	18.37
492.163	18.42
492.515	18.61
492.866	18.45
493.218	18.47
493.57	18.33
493.922	18.03
494.274	18.21
494.625	18.38
494.977	18.51
495.328	18.77
495.68	18.91
496.031	18.99
496.383	19.01
496.734	19.24
497.086	19.07
497.437	19.13
497.788	19.18
498.139	19.23
498.49	19.17
498.842	19.04
499.193	19.17
499.544	19.15
499.894	19.07
500.245	19.22
500.596	19.18
500.947	19.51
501.298	19.26
501.648	19.34
501.999	19.33
502.35	19.4
502.7	19.61
503.051	19.37
503.401	19.52
503.752	19.78
504.102	19.69
504.452	19.55
504.803	19.83
505.153	19.79
505.503	19.77
505.853	19.66
506.203	19.68
506.553	19.68
506.903	19.71
507.253	19.73
507.603	19.67
507.953	19.9
508.303	20.01
508.652	19.82
509.002	19.81
509.352	19.85
509.701	19.94
510.051	19.75
510.4	19.96
510.75	19.93
511.099	19.93
511.449	20.01
511.798	20
512.147	20.12
512.496	19.9
512.846	20.09
513.195	20.01
513.544	20.13
513.893	20.11
514.242	20.06
514.591	20.19
514.939	20.01
515.288	20.23
515.637	20.37
515.986	20.26
516.334	20.31
516.683	20.58
517.032	20.31
517.38	20.38
517.729	20.45
518.077	20.47
518.426	20.56
518.774	20.53
519.122	20.54
519.47	20.42
519.819	20.38
520.167	20.31
520.515	20.39
520.863	20.2
521.211	20.25
521.559	20.4
521.907	20.51
522.255	20.45
522.602	20.48
522.95	20.5
523.298	20.64
523.645	20.83
523.993	20.75
524.341	20.78
524.688	20.88
525.036	20.78
525.383	20.79
525.73	20.85
526.078	20.78
526.425	21
526.772	21.06
527.119	20.9
527.466	20.63
527.814	20.77
528.161	20.62
528.508	20.72
528.854	20.64
529.201	20.78
529.548	20.61
529.895	20.67
530.242	20.28
530.588	20.28
530.935	20.22
531.282	20.22
531.628	20.28
531.975	20.38
532.321	20.63
532.667	20.74
533.014	20.81
533.36	20.93
533.706	20.95
534.052	20.99
534.399	20.95
534.745	20.75
535.091	20.82
535.437	20.82
535.783	20.75
536.129	20.9
536.474	20.86
536.82	21.03
537.166	21.25
537.512	21.2
537.857	21.34
538.203	21.39
538.549	21.23
538.894	21.16
539.239	21.32
539.585	21.42
539.93	21.45
540.276	21.74
540.621	21.72
540.966	21.75
541.311	21.69
541.656	21.65
542.001	21.8
542.346	21.74
542.691	21.47
543.036	21.37
543.381	21.14
543.726	21.19
544.071	21.21
544.415	21.29
544.76	21.22
545.105	21.41
545.449	21.59
545.794	21.68
546.138	21.72
546.483	21.95
546.827	21.79
547.171	21.94
547.516	21.87
547.86	22
548.204	21.86
548.548	22.07
548.892	21.99
549.236	22.14
549.58	22
549.924	22.11
550.268	22.24
550.612	22.43
550.956	22.47
551.3	22.41
551.643	22.72
551.987	22.61
552.33	22.8
552.674	22.55
553.017	22.54
553.361	22.59
553.704	22.74
554.048	22.78
554.391	22.69
554.734	22.85
555.077	22.69
555.42	22.52
555.764	22.46
556.107	22.48
556.45	22.68
556.793	22.75
557.135	23.14
557.478	23.21
557.821	22.9
558.164	22.98
558.507	22.97
558.849	22.9
559.192	23.12
559.534	22.92
559.877	23.2
560.219	22.93
560.562	23.12
560.904	23.15
561.246	23.13
561.589	23.29
561.931	23.27
562.273	22.8
562.615	23.19
562.957	23.31
563.299	23.12
563.641	23.21
563.983	23.21
564.325	23.16
564.667	23.28
565.008	23.25
565.35	23.43
565.692	23.45
566.033	23.32
566.375	23.52
566.716	23.65
567.058	23.18
567.399	23.36
567.741	23.22
568.082	23.24
568.423	23.29
568.764	23.27
569.105	23.44
569.447	23.44
569.788	23.47
570.129	23.37
570.47	23.69
570.811	23.72
571.151	23.72
571.492	23.77
571.833	23.54
572.174	23.81
572.514	23.73
572.855	23.88
573.195	23.65
573.536	23.86
573.876	23.55
574.217	23.61
574.557	23.63
574.898	23.77
575.238	23.77
575.578	23.81
575.918	24.04
576.258	24.05
576.598	24.02
576.938	23.82
577.278	23.93
577.618	23.81
577.958	23.78
578.298	23.92
578.638	23.95
578.977	23.91
579.317	23.89
579.657	24.06
579.996	24.61
580.336	24.3
580.675	24.28
581.014	24.41
581.354	24.46
581.693	24.23
582.032	24.19
582.372	24.34
582.711	24.5
583.05	24.21
583.389	24.44
583.728	24.13
584.067	24.54
584.406	24.57
584.745	24.78
585.083	24.38
585.422	24.62
585.761	24.73
586.1	24.6
586.438	24.74
586.777	24.97
587.115	24.79
587.454	24.79
587.792	24.55
588.13	24.9
588.469	24.92
588.807	24.98
589.145	24.89
589.483	24.9
589.821	24.61
590.159	24.91
590.497	24.98
590.835	24.95
591.173	24.57
591.511	24.93
591.849	25.06
592.187	24.83
592.524	24.94
592.862	25.01
593.2	24.78
593.537	24.97
593.875	24.96
594.212	24.96
594.55	25.19
594.887	25.34
595.224	25.21
595.561	25.09
595.899	25.11
596.236	25.15
596.573	25.16
596.91	24.85
597.247	24.92
597.584	25.11
597.921	25.11
598.258	25.3
598.594	25.13
598.931	25.31
599.268	25.03
599.604	24.97
599.941	25.07
600.277	25.36
600.614	25.23
600.95	25.04
601.287	25.52
601.623	25.16
601.959	25.26
602.296	25.29
602.632	25.53
602.968	25.65
603.304	25.48
603.64	25.54
603.976	25.41
604.312	25.2
604.648	25.45
604.984	25.62
605.319	25.51
605.655	25.63
605.991	25.39
606.326	25.42
606.662	25.5
606.998	25.14
607.333	25.68
607.668	25.62
608.004	25.45
608.339	25.72
608.674	25.7
609.01	25.37
609.345	25.4
609.68	26.07
610.015	25.53
610.35	25.46
610.685	25.89
611.02	25.97
611.355	25.94
611.689	25.57
612.024	25.91
612.359	25.81
612.694	25.78
613.028	25.73
613.363	26.18
613.697	26.12
614.032	26.12
614.366	25.95
614.7	26.59
615.035	25.97
615.369	26.3
615.703	26.21
616.037	26.35
616.371	25.52
616.705	26.39
617.039	26.11
617.373	26.28
617.707	26.16
618.041	26.2
618.375	26.03
618.709	26.88
619.042	25.74
619.376	26.28
619.71	26.78
620.043	26.2
620.377	26.48
620.71	26.35
621.043	26.15
621.377	26.38
621.71	26.4
622.043	26.51
622.376	26.12
622.709	26.7
623.043	26.59
623.376	26.46
623.709	26.36
624.041	26.82
624.374	26.68
624.707	26.5
625.04	27.08
625.373	26.22
625.705	26.43
626.038	26.68
626.37	26.78
626.703	26.46
627.035	26.74
627.368	26.8
627.7	26.53
628.032	26.37
628.365	26.85
628.697	26.71
629.029	26.39
629.361	26.81
629.693	26.81
630.025	26.81
630.357	26.76
630.689	26.86
631.021	26.74
631.353	27.03
631.684	26.97
632.016	26.91
632.348	27.64
632.679	26.98
633.011	27.46
633.342	27.41
633.674	27.26
634.005	27.42
634.336	26.73
634.668	27.21
634.999	27.04
635.33	27.29
635.661	27.34
635.992	26.88
636.323	27.18
636.654	27.27
636.985	27.22
637.316	27.05
637.647	26.9
637.977	27.29
638.308	27.05
638.639	26.91
638.969	27.02
639.3	27.41
639.63	26.91
639.961	27.47
640.291	27.16
640.622	27.44
640.952	27.26
641.282	27.67
641.612	27.75
641.943	27.11
642.273	27.79
642.603	27.55
642.933	27.32
643.263	27.46
643.592	27.46
643.922	27.76
644.252	27.48
644.582	27.45
644.911	27.45
645.241	27.64
645.571	27.54
645.9	27.73
646.23	27.24
646.559	28.27
646.888	27.35
647.218	27.87
647.547	28.37
647.876	27.42
648.205	27.64
648.534	27.38
648.863	27.53
649.192	27.55
649.521	27.72
649.85	27.76
650.179	27.64
650.508	27.84
650.837	27.82
651.165	27.74
651.494	28.46
651.822	27.26
652.151	27.07
652.479	28.11
652.808	27.52
653.136	28.02
653.465	27.54
653.793	27.39
654.121	28.13
654.449	28.48
654.777	28.2
655.105	28.46
655.433	27.77
655.761	28.4
656.089	28.72
656.417	27.54
656.745	27.89
657.073	28.26
657.4	28.66
657.728	28.18
658.056	28.12
658.383	28.09
658.711	28.43
659.038	28.27
659.365	29.03
659.693	28.33
660.02	28.05
660.347	28.58
660.674	28.19
661.001	28.25
661.329	27.55
661.656	28.43
661.982	28.84
662.309	27.84
662.636	28.25
662.963	28.38
663.29	28.21
663.616	28.1
663.943	28.3
664.27	28.07
664.596	28.18
664.923	28.92
665.249	28.65
665.576	28.43
665.902	29.02
666.228	28.59
666.554	28.71
666.881	27.93
667.207	28.93
667.533	29.05
667.859	29.24
668.185	29.28
668.511	28.17
668.837	28.15
669.162	28.68
669.488	28.49
669.814	28.98
670.139	28.95
670.465	29.19
670.791	29.04
671.116	29.01
671.442	29.26
671.767	29.03
672.092	29.68
