Data from 0390_crown_Reflection__2__116.txt Node

Date: Fri Dec 15 17:26:52 CST 2023
User: ToomeyLab
Spectrometer: FLMS14357
Trigger mode: 0
Integration Time (sec): 1.000000E-2
Scans to average: 100
Electric dark correction enabled: true
Nonlinearity correction enabled: false
Boxcar width: 0
XAxis mode: Wavelengths
Number of Pixels in Spectrum: 2048
>>>>>Begin Spectral Data<<<<<
189.047	18.85
189.435	18.85
189.823	18.85
190.211	97.6
190.599	-18.1
190.987	102.82
191.375	199.23
191.763	24.82
192.151	46.68
192.538	116.07
192.926	-278.16
193.314	242.78
193.702	7.97
194.089	93.22
194.477	-115
194.864	23.41
195.252	115.36
195.639	126.51
196.027	15.22
196.414	85.79
196.801	-12.31
197.189	148.39
197.576	216.95
197.963	-120.2
198.351	-4.09
198.738	-43.69
199.125	-13.7
199.512	17.17
199.899	-33.75
200.286	6.55
200.673	30.38
201.06	6.63
201.447	3.74
201.833	-7.69
202.22	23.95
202.607	12.94
202.994	41.32
203.38	6.12
203.767	22.77
204.154	-4.14
204.54	95.77
204.927	-51.28
205.313	-52.96
205.699	27.13
206.086	41.79
206.472	32.88
206.858	26.85
207.245	-14.25
207.631	8
208.017	30.82
208.403	3.43
208.789	29.79
209.175	20.8
209.561	-7.7
209.947	40.24
210.333	-49.24
210.719	9.41
211.105	4.06
211.491	-1.97
211.876	21.06
212.262	76.8
212.648	63.73
213.034	53.58
213.419	26.33
213.805	23.54
214.19	-22.63
214.576	-20.22
214.961	-9.22
215.346	-35.2
215.732	-23.95
216.117	27.16
216.502	8.91
216.888	29.09
217.273	5.68
217.658	2.18
218.043	-4.54
218.428	-27.5
218.813	10.23
219.198	-6.11
219.583	21.06
219.968	9.47
220.353	-18.79
220.738	18.19
221.122	3.38
221.507	-17.64
221.892	-12.22
222.276	-1.15
222.661	1.05
223.046	22.83
223.43	14.7
223.815	18.85
224.199	-2.72
224.583	6.75
224.968	9.3
225.352	11.01
225.736	5.55
226.121	-4.79
226.505	8.68
226.889	12.6
227.273	2.25
227.657	9.88
228.041	6.48
228.425	4.91
228.809	8.04
229.193	7.53
229.577	6.27
229.961	9.11
230.344	7.41
230.728	7.98
231.112	8.72
231.495	8.59
231.879	6.81
232.263	7.3
232.646	7.13
233.03	8.37
233.413	6.52
233.797	7.27
234.18	6.01
234.563	6.81
234.946	6.11
235.33	9.95
235.713	10.38
236.096	7.1
236.479	8.66
236.862	7.26
237.245	7.7
237.628	7.24
238.011	10.27
238.394	8.62
238.777	8.77
239.16	4.23
239.543	7.69
239.925	10.19
240.308	9.24
240.691	7.46
241.073	8.44
241.456	7.91
241.838	7.98
242.221	7.59
242.603	9.06
242.986	8.24
243.368	8.66
243.75	8.86
244.133	7.49
244.515	8.05
244.897	8.24
245.279	7.97
245.661	8.02
246.043	6.93
246.425	5.69
246.807	8.58
247.189	7.3
247.571	8.16
247.953	7.52
248.335	7.56
248.717	7.65
249.098	7.43
249.48	7.66
249.862	7.03
250.243	7.43
250.625	7.28
251.006	7.55
251.388	6.85
251.769	8.77
252.151	8.38
252.532	7.65
252.913	6.41
253.295	6.57
253.676	6.58
254.057	7.43
254.438	6.92
254.819	7.34
255.2	6.37
255.581	6.68
255.962	6.5
256.343	7.6
256.724	6.86
257.105	7.28
257.486	5.9
257.867	7.22
258.247	7.21
258.628	7.13
259.009	6.68
259.389	7.05
259.77	7.63
260.15	6.64
260.531	6.76
260.911	7.23
261.292	6.64
261.672	7.05
262.052	6.92
262.432	6.79
262.813	6.82
263.193	6.63
263.573	6.52
263.953	6.39
264.333	7.31
264.713	6.89
265.093	6.69
265.473	7.34
265.853	5.97
266.233	7.17
266.612	5.03
266.992	5.36
267.372	7.2
267.752	6.08
268.131	6.67
268.511	6.91
268.89	6.66
269.27	5.93
269.649	6.72
270.029	5.9
270.408	7.29
270.787	6.68
271.167	6.56
271.546	6.72
271.925	6.71
272.304	6.9
272.683	6.99
273.062	6.01
273.441	6.53
273.82	5.97
274.199	6.09
274.578	6.35
274.957	6.21
275.336	6.21
275.715	5.91
276.093	6.03
276.472	6.75
276.851	6.33
277.229	5.85
277.608	6.18
277.986	6.23
278.365	6.48
278.743	6.15
279.122	6.06
279.5	6.08
279.878	6.81
280.257	6.11
280.635	6.06
281.013	5.68
281.391	6.3
281.769	6.38
282.147	6.18
282.525	6.07
282.903	5.62
283.281	6.68
283.659	6.28
284.037	6.24
284.415	6.11
284.792	6.18
285.17	5.85
285.548	6.51
285.925	6.16
286.303	6.18
286.68	6.13
287.058	6.02
287.435	5.93
287.813	5.63
288.19	5.86
288.567	6.11
288.945	6.22
289.322	6.11
289.699	5.71
290.076	6.32
290.453	6.08
290.83	5.41
291.207	5.83
291.584	6.36
291.961	6.3
292.338	6.31
292.715	6.11
293.092	5.96
293.469	6.02
293.845	6.26
294.222	5.41
294.599	5.79
294.975	5.31
295.352	6.26
295.728	5.85
296.105	5.6
296.481	5.83
296.858	5.7
297.234	5.61
297.61	5.66
297.986	5.75
298.363	6.42
298.739	6.2
299.115	5.43
299.491	5.75
299.867	5.82
300.243	5.65
300.619	5.73
300.995	5.96
301.371	6
301.746	5.27
302.122	5.88
302.498	5.83
302.874	5.85
303.249	5.76
303.625	5.53
304	5.65
304.376	6.24
304.751	5.1
305.127	6.29
305.502	5.44
305.878	5.11
306.253	6.02
306.628	6.48
307.003	6.04
307.378	6.16
307.754	5.48
308.129	5.23
308.504	6.01
308.879	5.31
309.254	6.57
309.629	6.41
310.003	6.05
310.378	6.08
310.753	5.6
311.128	5.86
311.502	5.39
311.877	6.51
312.252	5.5
312.626	5.63
313.001	5.62
313.375	6.04
313.75	5.44
314.124	5.96
314.498	5.66
314.873	5.7
315.247	5.42
315.621	5.66
315.995	5.14
316.369	5.89
316.743	5.79
317.117	5.91
317.491	5.95
317.865	5.93
318.239	5.82
318.613	6.09
318.987	5.81
319.361	4.98
319.734	6.3
320.108	6.29
320.482	6.26
320.855	5.98
321.229	5.45
321.602	5.99
321.976	5.75
322.349	5.85
322.723	5.85
323.096	5.93
323.469	5.2
323.843	5.43
324.216	6.26
324.589	5.41
324.962	5.66
325.335	5.47
325.708	6.11
326.081	5.71
326.454	5.82
326.827	5.82
327.2	5.76
327.573	6.03
327.945	6.18
328.318	5.53
328.691	5.29
329.063	5.93
329.436	5.79
329.809	6.15
330.181	5.93
330.553	5.3
330.926	5.96
331.298	6.2
331.671	5.58
332.043	6.65
332.415	5.89
332.787	5.51
333.159	6.17
333.532	6.03
333.904	6.24
334.276	6.01
334.648	5.78
335.02	5.87
335.391	5.61
335.763	5.76
336.135	5.93
336.507	5.96
336.879	5.46
337.25	5.71
337.622	5.59
337.993	6.03
338.365	6.03
338.736	6.02
339.108	5.8
339.479	5.83
339.851	5.85
340.222	5.54
340.593	6.22
340.964	5.83
341.336	6.5
341.707	5.83
342.078	6.19
342.449	5.99
342.82	5.83
343.191	5.63
343.562	5.79
343.933	6.03
344.303	5.71
344.674	5.5
345.045	5.88
345.416	6.39
345.786	5.59
346.157	6.21
346.527	5.49
346.898	5.92
347.268	6.15
347.639	6.09
348.009	6.13
348.38	5.85
348.75	5.82
349.12	6
349.49	6.13
349.861	5.77
350.231	6.09
350.601	6.05
350.971	6.41
351.341	6.27
351.711	6.04
352.081	5.96
352.45	5.98
352.82	6.28
353.19	5.93
353.56	5.77
353.929	5.65
354.299	6.01
354.669	6.02
355.038	6.34
355.408	6.05
355.777	6.33
356.147	6.09
356.516	6.38
356.885	6.21
357.254	6.14
357.624	6.1
357.993	6.16
358.362	5.82
358.731	5.84
359.1	6.02
359.469	6.15
359.838	6.35
360.207	5.67
360.576	6.06
360.945	6.33
361.314	6.8
361.682	5.75
362.051	6.01
362.42	6.02
362.788	5.88
363.157	6.34
363.525	6.41
363.894	6.35
364.262	6.24
364.631	6.16
364.999	6.62
365.367	5.64
365.735	6.7
366.104	6.25
366.472	6.34
366.84	6.19
367.208	6.01
367.576	6.26
367.944	6.21
368.312	6.16
368.68	6.18
369.048	6.06
369.416	6.3
369.783	6.28
370.151	6.41
370.519	6.95
370.886	6.45
371.254	5.98
371.621	6.44
371.989	6.67
372.356	5.82
372.724	6.73
373.091	6.26
373.458	6.34
373.826	6.52
374.193	6.4
374.56	6.33
374.927	6.39
375.294	6.21
375.661	6.3
376.028	5.93
376.395	6.1
376.762	6.41
377.129	6.6
377.496	6.48
377.863	6.53
378.229	5.98
378.596	6.71
378.963	6.22
379.329	6.2
379.696	6.72
380.062	6.59
380.429	6.19
380.795	6.26
381.161	6.65
381.528	6.78
381.894	6.13
382.26	6.27
382.626	6.49
382.993	6.33
383.359	6.61
383.725	6.56
384.091	6.49
384.457	6.86
384.823	6.61
385.188	6.31
385.554	6.49
385.92	6.43
386.286	6.75
386.651	6.57
387.017	6.93
387.383	6.52
387.748	6.35
388.114	6.69
388.479	6.54
388.845	6.8
389.21	6.71
389.575	6.52
389.94	6.74
390.306	6.79
390.671	6.22
391.036	6.35
391.401	6.37
391.766	6.67
392.131	6.48
392.496	6.81
392.861	6.53
393.226	6.51
393.591	6.76
393.956	6.49
394.32	6.83
394.685	6.57
395.05	6.53
395.414	6.67
395.779	6.56
396.143	6.7
396.508	6.7
396.872	6.84
397.236	6.84
397.601	6.58
397.965	6.79
398.329	6.73
398.694	6.83
399.058	6.57
399.422	6.62
399.786	7.02
400.15	6.97
400.514	6.88
400.878	6.63
401.242	6.87
401.605	6.83
401.969	7
402.333	6.89
402.697	6.54
403.06	6.8
403.424	6.93
403.787	6.75
404.151	6.87
404.514	7.04
404.878	6.88
405.241	6.97
405.604	6.65
405.968	7.03
406.331	6.75
406.694	6.88
407.057	6.79
407.42	6.94
407.783	6.64
408.146	7.12
408.509	6.75
408.872	6.8
409.235	7.09
409.598	7.2
409.961	6.82
410.323	6.61
410.686	6.64
411.049	6.89
411.411	6.8
411.774	6.73
412.136	6.82
412.499	6.92
412.861	6.75
413.223	6.9
413.586	6.94
413.948	6.89
414.31	6.93
414.672	6.55
415.035	6.78
415.397	7.08
415.759	6.47
416.121	7.06
416.483	6.91
416.845	6.99
417.206	6.84
417.568	6.78
417.93	6.84
418.292	6.74
418.653	6.82
419.015	6.92
419.377	6.91
419.738	6.89
420.1	6.77
420.461	7.03
420.822	6.95
421.184	6.88
421.545	6.79
421.906	6.75
422.267	6.75
422.629	6.74
422.99	6.89
423.351	6.75
423.712	6.81
424.073	6.85
424.434	6.76
424.795	6.81
425.155	6.92
425.516	6.73
425.877	6.75
426.238	6.7
426.598	6.83
426.959	6.94
427.32	6.75
427.68	6.84
428.041	6.87
428.401	6.86
428.761	7
429.122	7.01
429.482	6.91
429.842	6.93
430.202	6.98
430.563	7.2
430.923	6.94
431.283	7.12
431.643	7.2
432.003	6.77
432.363	7
432.722	7.12
433.082	6.97
433.442	7.06
433.802	6.86
434.161	6.96
434.521	7.22
434.881	7.05
435.24	6.77
435.6	6.94
435.959	7.13
436.319	7.03
436.678	7.08
437.037	6.93
437.396	7.12
437.756	7.02
438.115	7.14
438.474	7.14
438.833	6.91
439.192	7.02
439.551	7.17
439.91	6.97
440.269	7.01
440.628	6.86
440.987	6.91
441.345	6.87
441.704	7.02
442.063	6.98
442.421	6.93
442.78	7.06
443.138	7.06
443.497	7.07
443.855	6.84
444.214	7.09
444.572	7.08
444.93	7.28
445.288	7.2
445.647	7.04
446.005	6.96
446.363	7.07
446.721	7.15
447.079	6.83
447.437	7.14
447.795	7.08
448.153	7
448.51	6.93
448.868	6.97
449.226	6.94
449.584	6.96
449.941	7.23
450.299	7.21
450.656	7.02
451.014	7.02
451.371	7.08
451.729	7.11
452.086	7.12
452.443	7.11
452.801	7.2
453.158	6.99
453.515	6.96
453.872	7.36
454.229	7.11
454.586	7.04
454.943	7.1
455.3	7.31
455.657	7.06
456.014	7.29
456.371	6.99
456.727	7.07
457.084	7.16
457.441	7.07
457.797	7.05
458.154	7.42
458.51	7.22
458.867	7.25
459.223	7.4
459.58	7.12
459.936	7.41
460.292	7.19
460.648	7.08
461.005	7.14
461.361	7.1
461.717	7.06
462.073	6.94
462.429	7.08
462.785	7.18
463.141	7.1
463.496	7.1
463.852	7.34
464.208	7.14
464.564	7.21
464.919	7.29
465.275	7.14
465.631	7.36
465.986	7.23
466.342	7.22
466.697	7.02
467.052	7.27
467.408	7.32
467.763	7.15
468.118	7.37
468.473	7.16
468.829	7.25
469.184	7.22
469.539	7.25
469.894	7.24
470.249	7.35
470.603	7.26
470.958	7.32
471.313	7.42
471.668	7.34
472.023	7.2
472.377	7.26
472.732	7.38
473.086	7.19
473.441	7.1
473.795	7.44
474.15	7.5
474.504	7.33
474.859	7.23
475.213	7.33
475.567	7.15
475.921	7.12
476.275	7.44
476.63	7.32
476.984	7.52
477.338	7.42
477.692	7.28
478.045	7.38
478.399	7.26
478.753	7.28
479.107	7.21
479.461	7.26
479.814	7.22
480.168	7.37
480.521	7.35
480.875	7.2
481.228	7.27
481.582	7.27
481.935	7.16
482.289	7.21
482.642	7.27
482.995	7.12
483.348	7.08
483.701	7.12
484.055	7.2
484.408	7.25
484.761	7.04
485.114	6.96
485.466	6.82
485.819	6.86
486.172	6.81
486.525	6.87
486.878	6.9
487.23	7
487.583	7.06
487.936	7.19
488.288	7.09
488.641	7.01
488.993	7.02
489.345	6.97
489.698	6.95
490.05	6.88
490.402	6.98
490.754	7.06
491.107	7.11
491.459	7.22
491.811	7.24
492.163	7.09
492.515	7.25
492.866	7.17
493.218	7.13
493.57	7.13
493.922	6.99
494.274	7.1
494.625	7.12
494.977	7.31
495.328	7.35
495.68	7.26
496.031	7.41
496.383	7.39
496.734	7.5
497.086	7.25
497.437	7.38
497.788	7.35
498.139	7.29
498.49	7.31
498.842	7.19
499.193	7.21
499.544	7.25
499.894	7.3
500.245	7.29
500.596	7.37
500.947	7.35
501.298	7.24
501.648	7.55
501.999	7.49
502.35	7.46
502.7	7.4
503.051	7.19
503.401	7.43
503.752	7.53
504.102	7.32
504.452	7.46
504.803	7.2
505.153	7.22
505.503	7.45
505.853	7.4
506.203	7.33
506.553	7.26
506.903	7.3
507.253	7.37
507.603	7.38
507.953	7.44
508.303	7.34
508.652	7.45
509.002	7.35
509.352	7.44
509.701	7.25
510.051	7.26
510.4	7.32
510.75	7.32
511.099	7.38
511.449	7.3
511.798	7.37
512.147	7.33
512.496	7.25
512.846	7.33
513.195	7.29
513.544	7.18
513.893	7.35
514.242	7.28
514.591	7.53
514.939	7.29
515.288	7.24
515.637	7.43
515.986	7.41
516.334	7.47
516.683	7.51
517.032	7.36
517.38	7.49
517.729	7.28
518.077	7.21
518.426	7.37
518.774	7.43
519.122	7.29
519.47	7.32
519.819	7.01
520.167	7.27
520.515	7.28
520.863	7.25
521.211	7.3
521.559	7.36
521.907	7.18
522.255	7.29
522.602	7.3
522.95	7.33
523.298	7.3
523.645	7.37
523.993	7.38
524.341	7.59
524.688	7.4
525.036	7.4
525.383	7.25
525.73	7.42
526.078	7.32
526.425	7.36
526.772	7.28
527.119	7.26
527.466	7.2
527.814	7.26
528.161	7.29
528.508	7.27
528.854	7.25
529.201	7.18
529.548	7.18
529.895	7.15
530.242	6.96
530.588	6.95
530.935	6.97
531.282	7.04
531.628	7.01
531.975	7.18
532.321	7.23
532.667	7.3
533.014	7.21
533.36	7.27
533.706	7.33
534.052	7.33
534.399	7.16
534.745	7.14
535.091	7.14
535.437	7.13
535.783	7.09
536.129	7.18
536.474	7.18
536.82	7.29
537.166	7.32
537.512	7.43
537.857	7.26
538.203	7.4
538.549	7.23
538.894	7.14
539.239	7.38
539.585	7.27
539.93	7.22
540.276	7.45
540.621	7.43
540.966	7.4
541.311	7.32
541.656	7.32
542.001	7.39
542.346	7.39
542.691	7.1
543.036	7.1
543.381	7.02
543.726	7.07
544.071	7.17
544.415	7.25
544.76	7.22
545.105	7.31
545.449	7.2
545.794	7.27
546.138	7.23
546.483	7.36
546.827	7.38
547.171	7.31
547.516	7.37
547.86	7.31
548.204	7.23
548.548	7.15
548.892	7.26
549.236	7.39
549.58	7.3
549.924	7.31
550.268	7.29
550.612	7.35
550.956	7.56
551.3	7.44
551.643	7.65
551.987	7.48
552.33	7.5
552.674	7.31
553.017	7.24
553.361	7.36
553.704	7.54
554.048	7.42
554.391	7.45
554.734	7.37
555.077	7.39
555.42	7.24
555.764	7.32
556.107	7.28
556.45	7.32
556.793	7.34
557.135	7.36
557.478	7.55
557.821	7.68
558.164	7.43
558.507	7.28
558.849	7.3
559.192	7.53
559.534	7.41
559.877	7.47
560.219	7.49
560.562	7.71
560.904	7.3
561.246	7.46
561.589	7.35
561.931	7.62
562.273	7.12
562.615	7.47
562.957	7.43
563.299	7.15
563.641	7.56
563.983	7.6
564.325	7.35
564.667	7.32
565.008	7.27
565.35	7.59
565.692	7.17
566.033	7.38
566.375	7.46
566.716	7.54
567.058	7.21
567.399	7.28
567.741	6.95
568.082	7.31
568.423	7.26
568.764	7.27
569.105	7.52
569.447	7.45
569.788	7.48
570.129	7.51
570.47	7.49
570.811	7.48
571.151	7.38
571.492	7.51
571.833	7.45
572.174	7.21
572.514	7.52
572.855	7.38
573.195	7.34
573.536	7.26
573.876	7.09
574.217	7.14
574.557	7.42
574.898	7.36
575.238	7.38
575.578	7.14
575.918	7.44
576.258	7.63
576.598	7.42
576.938	7.39
577.278	7.21
577.618	7.19
577.958	7.36
578.298	7.42
578.638	7.35
578.977	7.4
579.317	7.29
579.657	7.41
579.996	7.35
580.336	7.37
580.675	7.5
581.014	7.38
581.354	7.41
581.693	7.54
582.032	7.09
582.372	7.21
582.711	7.54
583.05	7
583.389	7.32
583.728	6.92
584.067	7.51
584.406	7.71
584.745	7.33
585.083	7.56
585.422	7.61
585.761	7.3
586.1	7.44
586.438	7.45
586.777	7.64
587.115	7.34
587.454	7.26
587.792	7.32
588.13	7.59
588.469	7.28
588.807	7.43
589.145	7.48
589.483	7.31
589.821	7.34
590.159	7.66
590.497	7.97
590.835	7.81
591.173	7.29
591.511	7.62
591.849	7.48
592.187	7.75
592.524	7.43
592.862	7.5
593.2	7.43
593.537	7.46
593.875	7.38
594.212	7.3
594.55	7.27
594.887	7.53
595.224	7.38
595.561	7.51
595.899	7.26
596.236	7.41
596.573	7.58
596.91	7.09
597.247	7.34
597.584	7.78
597.921	7.16
598.258	7.34
598.594	7.14
598.931	7.36
599.268	7.47
599.604	7.25
599.941	7.41
600.277	7.48
600.614	7.23
600.95	7.21
601.287	7.55
601.623	7.15
601.959	7.5
602.296	7.26
602.632	7.41
602.968	7.32
603.304	7.37
603.64	7.46
603.976	7.39
604.312	7.34
604.648	7.24
604.984	7.26
605.319	7.47
605.655	7.29
605.991	7.56
606.326	7.27
606.662	7.4
606.998	7.05
607.333	7.34
607.668	7.28
608.004	7.27
608.339	7.67
608.674	7.44
609.01	7.32
609.345	7.09
609.68	7.57
610.015	7.24
610.35	6.95
610.685	7.19
611.02	7.35
611.355	7.44
611.689	7.23
612.024	7.16
612.359	7.34
612.694	7.34
613.028	7.32
613.363	7.44
613.697	7.41
614.032	7.59
614.366	7.44
614.7	7.51
615.035	7.4
615.369	7.55
615.703	7.41
616.037	7.53
616.371	7.27
616.705	7.08
617.039	7.57
617.373	7.29
617.707	7.09
618.041	7.4
618.375	7.7
618.709	7.52
619.042	7.2
619.376	7.31
619.71	7.58
620.043	7.62
620.377	7.46
620.71	7.61
621.043	7.18
621.377	7.45
621.71	7.55
622.043	7.47
622.376	7.27
622.709	7.64
623.043	7.53
623.376	7.74
623.709	7.33
624.041	7.88
624.374	7.4
624.707	7.51
625.04	7.4
625.373	7.25
625.705	7.41
626.038	7.56
626.37	7.55
626.703	7.22
627.035	7.59
627.368	7.86
627.7	7.34
628.032	7.4
628.365	7.68
628.697	7.34
629.029	7.16
629.361	7.55
629.693	7.32
630.025	7.43
630.357	7.79
630.689	7.96
631.021	7.75
631.353	7.13
631.684	6.93
632.016	7.17
632.348	7.81
632.679	7.58
633.011	7.83
633.342	7.68
633.674	7.66
634.005	7.85
634.336	7.31
634.668	8.02
634.999	7.47
635.33	7.51
635.661	7.54
635.992	7.3
636.323	7.49
636.654	7.63
636.985	7.46
637.316	7.68
637.647	7.3
637.977	7.92
638.308	7.72
638.639	7.21
638.969	7.63
639.3	7.53
639.63	7.48
639.961	7.56
640.291	7.22
640.622	7.61
640.952	7.78
641.282	8.39
641.612	7.68
641.943	7.61
642.273	7.97
642.603	8.19
642.933	7.75
643.263	7.8
643.592	6.98
643.922	7.58
644.252	7.19
644.582	7.4
644.911	7.02
645.241	7.64
645.571	7.65
645.9	7.05
646.23	7.55
646.559	7.98
646.888	7.57
647.218	7.59
647.547	8.02
647.876	7.2
648.205	7.64
648.534	7.92
648.863	6.86
649.192	7.52
649.521	7.42
649.85	7.23
650.179	7.38
650.508	7.23
650.837	7.43
651.165	7.48
651.494	7.59
651.822	7.45
652.151	7.27
652.479	7.92
652.808	7.24
653.136	7.76
653.465	7.18
653.793	7.29
654.121	7.5
654.449	7.91
654.777	7.86
655.105	7.73
655.433	7.19
655.761	7.51
656.089	7.28
656.417	7.76
656.745	7.33
657.073	7.46
657.4	7.95
657.728	7.39
658.056	8.2
658.383	7.39
658.711	7.82
659.038	7.58
659.365	7.33
659.693	7.78
660.02	7.43
660.347	7.64
660.674	7.98
661.001	7.82
661.329	7.09
661.656	7.41
661.982	7.93
662.309	7.38
662.636	7.28
662.963	7.52
663.29	7.81
663.616	7.59
663.943	7.01
664.27	7.81
664.596	8.05
664.923	7.48
665.249	7.62
665.576	7.74
665.902	8.6
666.228	8.19
666.554	7.24
666.881	7.6
667.207	7.63
667.533	7.4
667.859	7.64
668.185	7.79
668.511	7.03
668.837	7.09
669.162	8.14
669.488	7.01
669.814	8.26
670.139	7.72
670.465	7.62
670.791	8.21
671.116	8.26
671.442	7.72
671.767	7.96
672.092	8.67
672.418	8.3
672.743	7.76
673.068	7.9
673.393	8.03
673.718	7.19
674.043	8.06
674.368	7.6
674.693	8.8
675.018	7.58
675.343	7.57
675.667	7.42
675.992	8.22
676.317	7.87
676.641	7.66
676.966	8.1
677.29	7.65
677.615	7.81
677.939	7.86
678.264	8.21
678.588	7.45
678.912	7.46
679.236	7.83
679.56	7.89
679.885	8.03
680.209	8.02
680.532	7.39
680.856	8.2
681.18	8.3
681.504	7.79
681.828	8.12
682.152	7.79
682.475	7.75
682.799	8.14
683.122	7.57
683.446	7.5
683.769	8.53
684.093	7.41
684.416	8.27
684.739	7.4
685.062	7.96
685.386	8.58
685.709	6.99
686.032	8.17
686.355	8.29
686.678	7.74
687.001	8.46
687.324	8.25
687.646	7.66
687.969	7.78
688.292	8.07
688.614	7.75
688.937	8.72
689.26	7.61
689.582	8.46
689.904	7.88
690.227	8.28
690.549	7.84
690.871	8.36
691.194	8.29
691.516	7.83
691.838	8.37
692.16	7.71
692.482	7.63
692.804	8.44
