Data from 0390_crown_Reflection__1__115.txt Node

Date: Fri Dec 15 17:26:43 CST 2023
User: ToomeyLab
Spectrometer: FLMS14357
Trigger mode: 0
Integration Time (sec): 1.000000E-2
Scans to average: 100
Electric dark correction enabled: true
Nonlinearity correction enabled: false
Boxcar width: 0
XAxis mode: Wavelengths
Number of Pixels in Spectrum: 2048
>>>>>Begin Spectral Data<<<<<
189.047	171.1
189.435	171.1
189.823	171.1
190.211	11.03
190.599	-394.57
190.987	-20.49
191.375	34.83
191.763	343.54
192.151	11.47
192.538	78.32
192.926	109.63
193.314	220.68
193.702	-95.86
194.089	50.11
194.477	249.41
194.864	93.35
195.252	28.39
195.639	182.71
196.027	-231.43
196.414	116.67
196.801	80.42
197.189	91.03
197.576	259.38
197.963	106.99
198.351	-45.86
198.738	-17.71
199.125	1.55
199.512	11.36
199.899	5.45
200.286	28.81
200.673	2.18
201.06	22.52
201.447	17.73
201.833	45.26
202.22	7.44
202.607	69.5
202.994	-5.56
203.38	24.98
203.767	-5.28
204.154	8.97
204.54	90.34
204.927	-104.77
205.313	-11.89
205.699	15.34
206.086	19.68
206.472	-2.25
206.858	31.72
207.245	-49.03
207.631	46.25
208.017	8.11
208.403	-27.81
208.789	32.77
209.175	11.08
209.561	-30.75
209.947	29.96
210.333	-32.15
210.719	21.06
211.105	2.27
211.491	0.39
211.876	41.69
212.262	-11.15
212.648	28.06
213.034	75.68
213.419	-51.98
213.805	-24.54
214.19	-20.37
214.576	-8.19
214.961	-4.81
215.346	-42.04
215.732	-41.05
216.117	10.56
216.502	-48.45
216.888	17.45
217.273	21.55
217.658	-12.11
218.043	3.8
218.428	-40.52
218.813	-13.97
219.198	-27.21
219.583	27.46
219.968	-0.85
220.353	17.95
220.738	-10.43
221.122	12.85
221.507	-37.15
221.892	-41.58
222.276	-13.57
222.661	-25.82
223.046	10.9
223.43	3.99
223.815	7.42
224.199	1.13
224.583	-4.9
224.968	-4.38
225.352	16.53
225.736	1.2
226.121	-10.99
226.505	-3.25
226.889	4.42
227.273	-3.81
227.657	1.51
228.041	4.48
228.425	-0.78
228.809	5.98
229.193	2.84
229.577	1.44
229.961	2.09
230.344	3.05
230.728	2.09
231.112	3.74
231.495	2.23
231.879	2.76
232.263	3.52
232.646	2.97
233.03	3.17
233.413	2.12
233.797	2.34
234.18	-0
234.563	5.63
234.946	1.1
235.33	3.71
235.713	3.6
236.096	1.66
236.479	3.03
236.862	2.25
237.245	3.71
237.628	3.43
238.011	3.78
238.394	4.08
238.777	3.36
239.16	2.26
239.543	3.24
239.925	4.39
240.308	4.52
240.691	4.75
241.073	3.31
241.456	2.78
241.838	2.05
242.221	2.67
242.603	3.97
242.986	3.15
243.368	3.43
243.75	3.18
244.133	2.82
244.515	3.46
244.897	3.29
245.279	3.16
245.661	4.04
246.043	2.52
246.425	3.57
246.807	2.6
247.189	4.15
247.571	3.53
247.953	3.24
248.335	3.33
248.717	3.29
249.098	3
249.48	3.49
249.862	3.16
250.243	3.12
250.625	3.08
251.006	3.38
251.388	2.57
251.769	3.42
252.151	3.42
252.532	3.97
252.913	2.77
253.295	2.57
253.676	2.9
254.057	3.22
254.438	3.39
254.819	3.12
255.2	2.27
255.581	3.19
255.962	2.73
256.343	3.63
256.724	2.84
257.105	3.61
257.486	2.46
257.867	3.08
258.247	3.05
258.628	3.23
259.009	3.04
259.389	3.42
259.77	3.36
260.15	1.67
260.531	2.53
260.911	3.53
261.292	3.05
261.672	3.16
262.052	3.19
262.432	3.49
262.813	3.16
263.193	3.37
263.573	2.49
263.953	2.34
264.333	3.11
264.713	3.39
265.093	2.24
265.473	3.23
265.853	1.54
266.233	3.05
266.612	1.34
266.992	1.52
267.372	3.54
267.752	2.43
268.131	2.05
268.511	3.02
268.89	3.52
269.27	2.86
269.649	2.65
270.029	2.25
270.408	3.71
270.787	3.27
271.167	3.41
271.546	3.58
271.925	2.62
272.304	2.96
272.683	3.48
273.062	2.6
273.441	3.14
273.82	2.37
274.199	3.05
274.578	2.76
274.957	2.51
275.336	2.74
275.715	2.91
276.093	2.77
276.472	3.17
276.851	2.47
277.229	2.29
277.608	2.28
277.986	2.97
278.365	3.11
278.743	2.5
279.122	2.48
279.5	2.99
279.878	3.36
280.257	3.01
280.635	2.52
281.013	2.32
281.391	3.51
281.769	2.71
282.147	3.2
282.525	3.38
282.903	3.05
283.281	2.75
283.659	2.94
284.037	3.27
284.415	3.26
284.792	3.11
285.17	1.98
285.548	2.47
285.925	2.62
286.303	2.82
286.68	2.86
287.058	2.79
287.435	2.62
287.813	2.72
288.19	2.76
288.567	2.93
288.945	3.25
289.322	3.03
289.699	2.53
290.076	2.76
290.453	2.99
290.83	2.82
291.207	2.58
291.584	3.18
291.961	2.66
292.338	2.5
292.715	3.05
293.092	2.87
293.469	2.92
293.845	3.45
294.222	2.98
294.599	3.14
294.975	2.08
295.352	2.87
295.728	2.69
296.105	2.74
296.481	3.05
296.858	2.6
297.234	2.95
297.61	2.73
297.986	3.08
298.363	3.04
298.739	3.1
299.115	3.12
299.491	2.82
299.867	2.98
300.243	3.2
300.619	2.91
300.995	3.06
301.371	3.17
301.746	2.82
302.122	2.98
302.498	3.14
302.874	3.1
303.249	2.54
303.625	3.27
304	3.37
304.376	3.44
304.751	3.35
305.127	3.6
305.502	2.17
305.878	2.45
306.253	3.02
306.628	3.29
307.003	2.24
307.378	3.06
307.754	2.98
308.129	2.46
308.504	2.86
308.879	2.72
309.254	4.04
309.629	3.37
310.003	3.03
310.378	3.58
310.753	3.26
311.128	2.79
311.502	3.06
311.877	3.48
312.252	3.1
312.626	2.82
313.001	3
313.375	3.22
313.75	2.46
314.124	3.14
314.498	2.83
314.873	2.6
315.247	2.34
315.621	2.99
315.995	2.47
316.369	2.82
316.743	3.1
317.117	3.58
317.491	3.21
317.865	2.86
318.239	2.99
318.613	3.1
318.987	3.02
319.361	1.93
319.734	2.92
320.108	2.89
320.482	3.13
320.855	3.21
321.229	2.94
321.602	2.53
321.976	3.05
322.349	2.78
322.723	2.5
323.096	3.83
323.469	2.41
323.843	2.61
324.216	3.41
324.589	3.51
324.962	2.85
325.335	2.99
325.708	2.63
326.081	3.28
326.454	3.14
326.827	3.05
327.2	2.98
327.573	3.62
327.945	3.34
328.318	2.81
328.691	2.4
329.063	3.14
329.436	3
329.809	3.98
330.181	3.17
330.553	3.48
330.926	3.06
331.298	3.4
331.671	3.02
332.043	3.76
332.415	3.82
332.787	2.73
333.159	3.44
333.532	3.31
333.904	2.99
334.276	3.07
334.648	3.29
335.02	3.3
335.391	3.18
335.763	3.04
336.135	3.12
336.507	3.12
336.879	2.98
337.25	3.21
337.622	2.79
337.993	2.84
338.365	3.29
338.736	3.63
339.108	3.38
339.479	2.85
339.851	2.96
340.222	3.18
340.593	2.7
340.964	2.97
341.336	3.66
341.707	2.29
342.078	3.5
342.449	3.45
342.82	3.27
343.191	3.71
343.562	2.69
343.933	3.18
344.303	3.71
344.674	3.1
345.045	3.24
345.416	3.5
345.786	2.61
346.157	3.47
346.527	2.89
346.898	2.99
347.268	3.76
347.639	3.16
348.009	3.16
348.38	2.9
348.75	3.02
349.12	2.72
349.49	3.64
349.861	3.45
350.231	3
350.601	3.76
350.971	3.26
351.341	3.51
351.711	3.02
352.081	3.29
352.45	2.98
352.82	3.47
353.19	3.04
353.56	2.77
353.929	3.21
354.299	3.07
354.669	3.18
355.038	3.32
355.408	3.33
355.777	3.45
356.147	3.1
356.516	3.08
356.885	3.3
357.254	3.13
357.624	3.45
357.993	3.25
358.362	3.14
358.731	3
359.1	3.54
359.469	3.05
359.838	3.16
360.207	3.1
360.576	3.03
360.945	3.64
361.314	3.65
361.682	3.14
362.051	3.15
362.42	3.2
362.788	2.96
363.157	3.34
363.525	3.8
363.894	3.23
364.262	3.47
364.631	3.28
364.999	3.35
365.367	2.84
365.735	3.8
366.104	3.49
366.472	3.38
366.84	3.01
367.208	3.29
367.576	3.73
367.944	3.71
368.312	3.17
368.68	3
369.048	3.22
369.416	3.61
369.783	3.31
370.151	3.45
370.519	3.54
370.886	3.91
371.254	2.91
371.621	3.85
371.989	3.18
372.356	3.06
372.724	3.22
373.091	3.02
373.458	3.34
373.826	3.12
374.193	3.58
374.56	3.45
374.927	3.57
375.294	3.35
375.661	3.13
376.028	3.18
376.395	3.24
376.762	3.52
377.129	3.13
377.496	3.39
377.863	3.45
378.229	3.04
378.596	3.31
378.963	3.37
379.329	3.33
379.696	3.52
380.062	3.65
380.429	3.58
380.795	3.24
381.161	3.41
381.528	3.83
381.894	3.46
382.26	3.22
382.626	3.61
382.993	3.33
383.359	4.08
383.725	3.64
384.091	3.5
384.457	3.66
384.823	3.19
385.188	3.4
385.554	3.37
385.92	3.62
386.286	3.77
386.651	3.8
387.017	3.81
387.383	3.53
387.748	3.31
388.114	3.76
388.479	3.42
388.845	3.9
389.21	3.61
389.575	3.51
389.94	3.74
390.306	3.27
390.671	3.64
391.036	3.21
391.401	3.41
391.766	3.59
392.131	3.55
392.496	3.44
392.861	3.44
393.226	3.61
393.591	3.46
393.956	3.62
394.32	3.72
394.685	3.47
395.05	3.55
395.414	3.49
395.779	3.39
396.143	3.63
396.508	3.58
396.872	3.76
397.236	3.77
397.601	3.43
397.965	3.61
398.329	3.64
398.694	3.49
399.058	3.72
399.422	3.23
399.786	3.69
400.15	3.45
400.514	3.59
400.878	3.81
401.242	3.8
401.605	3.84
401.969	3.64
402.333	3.94
402.697	3.71
403.06	3.8
403.424	3.59
403.787	3.56
404.151	3.76
404.514	3.92
404.878	3.77
405.241	3.97
405.604	3.62
405.968	3.91
406.331	3.59
406.694	3.78
407.057	3.83
407.42	3.56
407.783	3.42
408.146	3.74
408.509	3.86
408.872	3.64
409.235	3.77
409.598	4.19
409.961	3.72
410.323	3.56
410.686	3.97
411.049	3.55
411.411	3.52
411.774	3.71
412.136	3.66
412.499	3.64
412.861	3.52
413.223	3.93
413.586	4.02
413.948	3.74
414.31	3.75
414.672	3.72
415.035	3.39
415.397	3.97
415.759	3.45
416.121	3.85
416.483	3.55
416.845	3.86
417.206	3.64
417.568	3.61
417.93	3.49
418.292	3.82
418.653	3.71
419.015	3.92
419.377	3.52
419.738	3.85
420.1	3.78
420.461	3.76
420.822	3.78
421.184	3.53
421.545	3.68
421.906	3.62
422.267	3.75
422.629	3.65
422.99	3.67
423.351	3.62
423.712	3.68
424.073	3.73
424.434	3.76
424.795	3.63
425.155	3.65
425.516	3.63
425.877	3.59
426.238	3.65
426.598	3.64
426.959	3.79
427.32	3.69
427.68	3.78
428.041	3.74
428.401	3.91
428.761	3.75
429.122	3.85
429.482	3.66
429.842	4.06
430.202	3.84
430.563	3.79
430.923	3.86
431.283	3.97
431.643	3.77
432.003	3.85
432.363	3.88
432.722	3.87
433.082	3.95
433.442	3.89
433.802	3.86
434.161	3.86
434.521	4.07
434.881	3.99
435.24	3.56
435.6	3.59
435.959	3.8
436.319	3.77
436.678	3.97
437.037	3.87
437.396	3.88
437.756	3.99
438.115	3.76
438.474	3.91
438.833	3.83
439.192	3.69
439.551	4.05
439.91	3.83
440.269	3.88
440.628	3.63
440.987	3.82
441.345	3.5
441.704	3.91
442.063	3.78
442.421	3.75
442.78	3.71
443.138	3.77
443.497	3.94
443.855	3.86
444.214	3.84
444.572	3.96
444.93	3.92
445.288	3.99
445.647	3.94
446.005	3.82
446.363	3.9
446.721	3.83
447.079	3.71
447.437	3.89
447.795	3.86
448.153	3.72
448.51	3.8
448.868	3.87
449.226	3.79
449.584	3.91
449.941	3.97
450.299	3.79
450.656	3.91
451.014	3.96
451.371	3.78
451.729	3.93
452.086	4.1
452.443	3.94
452.801	4.02
453.158	3.92
453.515	3.83
453.872	4.02
454.229	3.89
454.586	3.87
454.943	4.06
455.3	3.97
455.657	3.97
456.014	3.82
456.371	4.03
456.727	4.02
457.084	4
457.441	4.06
457.797	4.03
458.154	4.29
458.51	4.18
458.867	4.1
459.223	4.15
459.58	3.98
459.936	4.07
460.292	3.88
460.648	3.82
461.005	3.94
461.361	3.94
461.717	3.84
462.073	3.78
462.429	3.93
462.785	4.07
463.141	4
463.496	4.11
463.852	4.18
464.208	4.08
464.564	4.07
464.919	4.06
465.275	4.09
465.631	4.24
465.986	4.05
466.342	3.88
466.697	3.81
467.052	4.16
467.408	4.04
467.763	4
468.118	4.08
468.473	4.09
468.829	4.1
469.184	3.99
469.539	4.08
469.894	4.02
470.249	4.31
470.603	4.01
470.958	4.04
471.313	4.28
471.668	4.12
472.023	4.17
472.377	4.1
472.732	4.21
473.086	4.1
473.441	3.81
473.795	4.34
474.15	3.95
474.504	4
474.859	4.22
475.213	4.17
475.567	3.93
475.921	4.06
476.275	4.13
476.63	4.23
476.984	4.33
477.338	4.31
477.692	3.96
478.045	3.94
478.399	4.06
478.753	4.29
479.107	4.11
479.461	4.07
479.814	4.08
480.168	4.01
480.521	3.99
480.875	4.1
481.228	4.04
481.582	4.17
481.935	4.01
482.289	4.11
482.642	4.06
482.995	4.05
483.348	3.88
483.701	3.98
484.055	4.04
484.408	3.99
484.761	3.9
485.114	3.82
485.466	3.62
485.819	3.61
486.172	3.8
486.525	3.95
486.878	4.11
487.23	4.08
487.583	4.14
487.936	4.14
488.288	4.04
488.641	3.98
488.993	3.84
489.345	3.82
489.698	3.88
490.05	3.89
490.402	4.07
490.754	4.09
491.107	4.19
491.459	4.2
491.811	4.21
492.163	4.15
492.515	3.92
492.866	4.02
493.218	3.9
493.57	3.87
493.922	3.88
494.274	4.18
494.625	4.32
494.977	4.29
495.328	4.23
495.68	4.33
496.031	4.38
496.383	4.22
496.734	4.33
497.086	4.28
497.437	4.16
497.788	4.21
498.139	4.16
498.49	4.24
498.842	4.1
499.193	4.18
499.544	4.15
499.894	4.18
500.245	4.1
500.596	4.09
500.947	4.24
501.298	4.18
501.648	4.28
501.999	4.4
502.35	4.31
502.7	4.21
503.051	4.07
503.401	4.24
503.752	4.33
504.102	4.36
504.452	4.4
504.803	4.15
505.153	4.25
505.503	4.21
505.853	4.27
506.203	4.33
506.553	4.39
506.903	4.31
507.253	4.26
507.603	4.22
507.953	4.41
508.303	4.47
508.652	4.12
509.002	4.35
509.352	4.25
509.701	4.27
510.051	4.23
510.4	4.2
510.75	4.31
511.099	4.3
511.449	4.25
511.798	4.23
512.147	4.3
512.496	4.2
512.846	4.29
513.195	4.24
513.544	4.28
513.893	4.26
514.242	4.28
514.591	4.4
514.939	4.3
515.288	4.37
515.637	4.46
515.986	4.42
516.334	4.39
516.683	4.41
517.032	4.46
517.38	4.29
517.729	4.52
518.077	4.25
518.426	4.43
518.774	4.35
519.122	4.28
519.47	4.17
519.819	4.13
520.167	4.3
520.515	4.19
520.863	4.28
521.211	4.4
521.559	4.47
521.907	4.37
522.255	4.3
522.602	4.43
522.95	4.32
523.298	4.38
523.645	4.4
523.993	4.44
524.341	4.46
524.688	4.54
525.036	4.34
525.383	4.46
525.73	4.6
526.078	4.36
526.425	4.36
526.772	4.39
527.119	4.29
527.466	4.14
527.814	4.36
528.161	4.34
528.508	4.46
528.854	4.43
529.201	4.29
529.548	4.23
529.895	4.11
530.242	3.95
530.588	3.95
530.935	4.14
531.282	4.21
531.628	4.35
531.975	4.4
532.321	4.47
532.667	4.38
533.014	4.43
533.36	4.39
533.706	4.41
534.052	4.37
534.399	4.21
534.745	4.25
535.091	4.14
535.437	4.23
535.783	4.29
536.129	4.42
536.474	4.48
536.82	4.5
537.166	4.54
537.512	4.54
537.857	4.48
538.203	4.32
538.549	4.21
538.894	4.31
539.239	4.46
539.585	4.56
539.93	4.46
540.276	4.62
540.621	4.73
540.966	4.58
541.311	4.46
541.656	4.45
542.001	4.44
542.346	4.39
542.691	4.24
543.036	4.21
543.381	4.09
543.726	4.2
544.071	4.44
544.415	4.59
544.76	4.43
545.105	4.44
545.449	4.47
545.794	4.51
546.138	4.53
546.483	4.69
546.827	4.54
547.171	4.63
547.516	4.56
547.86	4.49
548.204	4.55
548.548	4.38
548.892	4.42
549.236	4.52
549.58	4.5
549.924	4.55
550.268	4.68
550.612	4.72
550.956	4.79
551.3	4.59
551.643	4.87
551.987	4.67
552.33	4.64
552.674	4.57
553.017	4.48
553.361	4.4
553.704	4.82
554.048	4.52
554.391	4.48
554.734	4.52
555.077	4.57
555.42	4.58
555.764	4.44
556.107	4.66
556.45	4.67
556.793	4.71
557.135	4.59
557.478	4.88
557.821	4.79
558.164	4.91
558.507	4.78
558.849	4.47
559.192	4.8
559.534	4.78
559.877	4.91
560.219	4.63
560.562	4.72
560.904	4.7
561.246	4.88
561.589	4.78
561.931	4.77
562.273	4.57
562.615	4.67
562.957	4.72
563.299	4.54
563.641	4.77
563.983	4.88
564.325	4.62
564.667	4.71
565.008	4.57
565.35	4.83
565.692	4.52
566.033	4.78
566.375	4.8
566.716	4.81
567.058	4.73
567.399	4.72
567.741	4.55
568.082	4.62
568.423	4.74
568.764	4.72
569.105	4.91
569.447	4.81
569.788	4.9
570.129	4.85
570.47	4.93
570.811	5.03
571.151	4.75
571.492	4.92
571.833	4.9
572.174	4.82
572.514	4.65
572.855	4.62
573.195	4.83
573.536	4.74
573.876	4.41
574.217	4.71
574.557	4.76
574.898	4.88
575.238	4.79
575.578	4.65
575.918	5.08
576.258	4.93
576.598	4.8
576.938	4.68
577.278	4.79
577.618	4.77
577.958	4.79
578.298	4.71
578.638	5
578.977	4.75
579.317	4.82
579.657	4.73
579.996	5.09
580.336	4.75
580.675	5.14
581.014	5.06
581.354	4.93
581.693	5.06
582.032	4.75
582.372	4.8
582.711	5.17
583.05	4.75
583.389	4.89
583.728	4.81
584.067	5.19
584.406	4.86
584.745	5.01
585.083	4.98
585.422	4.91
585.761	4.98
586.1	5.08
586.438	4.88
586.777	5.22
587.115	5.11
587.454	5.09
587.792	5.02
588.13	5.12
588.469	4.99
588.807	4.93
589.145	4.97
589.483	4.75
589.821	4.94
590.159	5.08
590.497	5.25
590.835	5.2
591.173	4.82
591.511	5.11
591.849	4.98
592.187	5.16
592.524	5.07
592.862	5.13
593.2	5.13
593.537	5.36
593.875	5.01
594.212	4.71
594.55	5.07
594.887	5.35
595.224	4.91
595.561	5
595.899	5.03
596.236	4.85
596.573	4.91
596.91	4.8
597.247	4.71
597.584	5.39
597.921	5.06
598.258	4.91
598.594	4.91
598.931	4.96
599.268	4.76
599.604	4.88
599.941	5.03
600.277	5.1
600.614	4.85
600.95	5.13
601.287	5.49
601.623	4.9
601.959	4.65
602.296	5.1
602.632	5
602.968	5.2
603.304	5.11
603.64	5.03
603.976	5.07
604.312	4.99
604.648	4.98
604.984	5.14
605.319	5.05
605.655	4.95
605.991	5.08
606.326	4.98
606.662	5.07
606.998	4.98
607.333	5
607.668	5.26
608.004	5.24
608.339	5.23
608.674	5.07
609.01	4.72
609.345	4.82
609.68	5.48
610.015	5.11
610.35	4.89
610.685	5
611.02	4.9
611.355	4.87
611.689	4.96
612.024	4.99
612.359	4.95
612.694	4.93
613.028	4.95
613.363	5.12
613.697	5.32
614.032	5.2
614.366	5.26
614.7	5.13
615.035	5.22
615.369	5.13
615.703	5.16
616.037	5.38
616.371	4.73
616.705	4.9
617.039	5.2
617.373	4.93
617.707	5.05
618.041	5.21
618.375	5.01
618.709	5.39
619.042	4.97
619.376	5.11
619.71	5.66
620.043	5.5
620.377	5.23
620.71	5.16
621.043	5.05
621.377	4.97
621.71	5.54
622.043	5.02
622.376	4.99
622.709	5.25
623.043	5.35
623.376	5.38
623.709	5.18
624.041	5.33
624.374	5.38
624.707	5.16
625.04	5.41
625.373	4.84
625.705	5.26
626.038	5.33
626.37	5.18
626.703	5.05
627.035	5.4
627.368	5.45
627.7	5.22
628.032	5.15
628.365	5.2
628.697	4.9
629.029	5.12
629.361	5.33
629.693	5.27
630.025	5.12
630.357	5.44
630.689	5.58
631.021	5
631.353	5.28
631.684	5.17
632.016	5.23
632.348	5.65
632.679	5.53
633.011	5.52
633.342	5.41
633.674	5.37
634.005	5.84
634.336	5.22
634.668	5.57
634.999	5.43
635.33	5.32
635.661	5.63
635.992	5.27
636.323	5.59
636.654	5.47
636.985	5.44
637.316	5.57
637.647	4.97
637.977	5.54
638.308	5.81
638.639	5.08
638.969	4.98
639.3	5.58
639.63	5.06
639.961	5.45
640.291	5.19
640.622	5.66
640.952	5.4
641.282	5.17
641.612	5.67
641.943	4.88
642.273	5.34
642.603	5.95
642.933	6.12
643.263	5.59
643.592	5
643.922	5.33
644.252	5.09
644.582	5.3
644.911	4.95
645.241	5.65
645.571	5.09
645.9	5.23
646.23	5.8
646.559	5.5
646.888	5
647.218	5.23
647.547	5.97
647.876	5.15
648.205	5.74
648.534	5.34
648.863	5.15
649.192	5.95
649.521	5.62
649.85	5.33
650.179	5.5
650.508	5.04
650.837	5.03
651.165	4.98
651.494	5.57
651.822	5.68
652.151	5.24
652.479	5.62
652.808	4.99
653.136	5.37
653.465	5.17
653.793	5.1
654.121	5.3
654.449	5.87
654.777	5.66
655.105	6.01
655.433	5.2
655.761	5.24
656.089	5.54
656.417	5.87
656.745	5.21
657.073	5.03
657.4	6.29
657.728	5.63
658.056	5.76
658.383	5.33
658.711	5.27
659.038	5.68
659.365	5.81
659.693	5.6
660.02	5.44
660.347	5.51
660.674	5.76
661.001	5.72
661.329	4.95
661.656	5.21
661.982	5.95
662.309	6.05
662.636	5.4
662.963	5.79
663.29	6.04
663.616	5.5
663.943	5.35
664.27	5.64
664.596	5.68
664.923	6.13
665.249	5.85
665.576	5.42
665.902	6.26
666.228	5.88
666.554	6.05
666.881	5.38
667.207	6.01
667.533	5.66
667.859	5.81
668.185	5.69
668.511	5.02
668.837	4.81
669.162	5.66
669.488	5.61
669.814	5.96
670.139	6.35
670.465	5.93
670.791	5.65
671.116	6.37
671.442	5.54
671.767	5.84
672.092	6.63
672.418	6.02
672.743	6.7
673.068	5.32
673.393	5.76
673.718	5.96
674.043	5.8
674.368	5.06
674.693	6.03
675.018	5.35
675.343	6.17
675.667	5.89
675.992	6.22
676.317	5.84
676.641	6.02
676.966	6.13
677.29	5.91
677.615	6.09
677.939	6.15
678.264	7
678.588	6.58
678.912	5.74
679.236	6.16
679.56	5.73
679.885	6.32
680.209	6.25
680.532	6.18
680.856	6.59
681.18	5.63
681.504	5.29
681.828	5.97
682.152	5.69
682.475	6.17
682.799	5.99
683.122	6.26
683.446	5.74
683.769	6.6
684.093	5.56
684.416	6.18
684.739	6.01
685.062	6.51
685.386	6.83
685.709	5.42
686.032	6.4
686.355	6.7
686.678	5.98
687.001	6.15
687.324	7.41
687.646	5.86
687.969	5.55
688.292	6.53
688.614	6.02
688.937	6.86
689.26	5.76
689.582	6.79
689.904	6.25
690.227	6.52
690.549	6.11
690.871	6.71
691.194	6.16
691.516	6.51
691.838	6.18
692.16	6.36
692.482	6.26
692.804	6.4
