Data from 0390_chest_Reflection__3__111.txt Node

Date: Fri Dec 15 17:24:47 CST 2023
User: ToomeyLab
Spectrometer: FLMS14357
Trigger mode: 0
Integration Time (sec): 1.000000E-2
Scans to average: 100
Electric dark correction enabled: true
Nonlinearity correction enabled: false
Boxcar width: 0
XAxis mode: Wavelengths
Number of Pixels in Spectrum: 2048
>>>>>Begin Spectral Data<<<<<
189.047	35.57
189.435	35.57
189.823	35.57
190.211	80.86
190.599	-111.01
190.987	65.51
191.375	55.17
191.763	115.32
192.151	51.22
192.538	109.5
192.926	-291.08
193.314	141.55
193.702	-140.31
194.089	97.11
194.477	-77.66
194.864	133.79
195.252	147.67
195.639	91.85
196.027	68.87
196.414	74.96
196.801	10.79
197.189	-41.12
197.576	104.78
197.963	149.7
198.351	-30.06
198.738	-45.06
199.125	47
199.512	27.16
199.899	6.76
200.286	10.78
200.673	6.62
201.06	-20.88
201.447	21.79
201.833	9.98
202.22	-2.98
202.607	45.18
202.994	51.33
203.38	4.5
203.767	-12.79
204.154	5.7
204.54	35.63
204.927	-4.59
205.313	-25.11
205.699	25.8
206.086	24.72
206.472	14.3
206.858	57.74
207.245	-82.77
207.631	61.34
208.017	19.62
208.403	14.98
208.789	35.37
209.175	35.66
209.561	-9.08
209.947	-12.3
210.333	-37.25
210.719	27.77
211.105	24.88
211.491	12.02
211.876	64.46
212.262	49.14
212.648	-5.11
213.034	39.56
213.419	17.55
213.805	1.89
214.19	-63.04
214.576	46.35
214.961	0.79
215.346	-28.91
215.732	-21.62
216.117	9.39
216.502	-35.63
216.888	57.54
217.273	11.13
217.658	-22.2
218.043	31.16
218.428	-23.38
218.813	-14.5
219.198	-22.18
219.583	20.54
219.968	34.91
220.353	-2.61
220.738	38.35
221.122	-11.62
221.507	-17.69
221.892	-36.1
222.276	-16.08
222.661	19.37
223.046	13.43
223.43	23.36
223.815	9.43
224.199	-4.65
224.583	3.61
224.968	6.86
225.352	4.39
225.736	12.92
226.121	-2.27
226.505	-0.06
226.889	3.64
227.273	-4.02
227.657	11.79
228.041	5.76
228.425	5.2
228.809	8.73
229.193	6.55
229.577	3.45
229.961	5.09
230.344	5.16
230.728	5.31
231.112	5.36
231.495	5.54
231.879	4.23
232.263	6.62
232.646	5.61
233.03	4.91
233.413	5.61
233.797	5.13
234.18	5.89
234.563	5.85
234.946	3.3
235.33	6.8
235.713	5.58
236.096	5.19
236.479	6.89
236.862	3.68
237.245	6.32
237.628	5.23
238.011	6.44
238.394	6.49
238.777	6.33
239.16	3.56
239.543	4.28
239.925	7.34
240.308	6.55
240.691	6.5
241.073	4.65
241.456	4.95
241.838	4.86
242.221	4.4
242.603	5.66
242.986	5.13
243.368	4.59
243.75	5.34
244.133	4.77
244.515	5.08
244.897	5.13
245.279	5.47
245.661	4.13
246.043	4.1
246.425	3.41
246.807	6.48
247.189	6.05
247.571	5.54
247.953	5.39
248.335	4.9
248.717	5.17
249.098	4.86
249.48	4.92
249.862	4.78
250.243	4.87
250.625	4.8
251.006	4.8
251.388	4.07
251.769	4.05
252.151	5.39
252.532	4.82
252.913	4.77
253.295	4.65
253.676	4.84
254.057	4.84
254.438	4.32
254.819	4.58
255.2	4.15
255.581	3.84
255.962	3.43
256.343	5
256.724	3.94
257.105	5.04
257.486	4.12
257.867	4.57
258.247	5.65
258.628	4.05
259.009	4.93
259.389	4.95
259.77	4.61
260.15	3.49
260.531	4.18
260.911	5.09
261.292	4.91
261.672	5.19
262.052	4.59
262.432	4.94
262.813	4.39
263.193	4.26
263.573	4.02
263.953	4.62
264.333	4.88
264.713	5.41
265.093	4.52
265.473	4.74
265.853	3.33
266.233	4.1
266.612	2.97
266.992	3.45
267.372	5.14
267.752	4.42
268.131	4.64
268.511	4.33
268.89	5.34
269.27	4.54
269.649	4.02
270.029	4.03
270.408	5.96
270.787	4.5
271.167	4.88
271.546	4.9
271.925	3.73
272.304	4.65
272.683	4.64
273.062	3.93
273.441	4.23
273.82	3.82
274.199	4.65
274.578	4.54
274.957	4.21
275.336	4.15
275.715	3.98
276.093	4.8
276.472	4.8
276.851	4.33
277.229	4
277.608	3.44
277.986	4.39
278.365	5.03
278.743	4.15
279.122	4.94
279.5	4.61
279.878	5.35
280.257	4.06
280.635	4.16
281.013	4.41
281.391	4.94
281.769	4.52
282.147	4.28
282.525	4.96
282.903	4.48
283.281	4.32
283.659	4.61
284.037	4.82
284.415	4.69
284.792	4.77
285.17	3.69
285.548	3.72
285.925	4.43
286.303	4.87
286.68	4.37
287.058	4.61
287.435	4.09
287.813	4.48
288.19	4.11
288.567	4.14
288.945	4.46
289.322	4.02
289.699	4.72
290.076	4.02
290.453	4.22
290.83	3.89
291.207	4.21
291.584	4.5
291.961	4.37
292.338	4.04
292.715	4.17
293.092	4.18
293.469	4.16
293.845	4.37
294.222	3.64
294.599	3.84
294.975	3.84
295.352	4.96
295.728	3.59
296.105	4.12
296.481	4.08
296.858	4.47
297.234	4.12
297.61	3.92
297.986	4.2
298.363	4.41
298.739	4.1
299.115	4.17
299.491	3.97
299.867	4.24
300.243	4.16
300.619	3.75
300.995	4
301.371	4.32
301.746	4.02
302.122	4.25
302.498	4
302.874	4.78
303.249	4.38
303.625	4.06
304	4.57
304.376	3.91
304.751	3.73
305.127	5
305.502	3.61
305.878	3.98
306.253	3.72
306.628	4.64
307.003	4.02
307.378	4.85
307.754	4.24
308.129	3.12
308.504	4.63
308.879	4.2
309.254	5.17
309.629	5.03
310.003	4.32
310.378	5.08
310.753	4.88
311.128	4.48
311.502	4.05
311.877	4.08
312.252	3.72
312.626	4.12
313.001	3.88
313.375	4.54
313.75	3.9
314.124	4.03
314.498	4.02
314.873	4.49
315.247	3.88
315.621	4.36
315.995	3.62
316.369	4.61
316.743	4.1
317.117	4.9
317.491	4.41
317.865	4.15
318.239	4.17
318.613	4.7
318.987	4.13
319.361	3.28
319.734	4.44
320.108	4.66
320.482	4.25
320.855	4.29
321.229	4.39
321.602	4.05
321.976	4.3
322.349	4.69
322.723	3.88
323.096	4.6
323.469	3.16
323.843	4.02
324.216	4.3
324.589	3.78
324.962	4.29
325.335	4.62
325.708	4.01
326.081	3.84
326.454	4.14
326.827	4.52
327.2	4.85
327.573	3.9
327.945	4.31
328.318	3.98
328.691	3.75
329.063	4.19
329.436	3.78
329.809	3.94
330.181	4.28
330.553	3.95
330.926	4.36
331.298	4.28
331.671	3.73
332.043	4.92
332.415	4.37
332.787	4.16
333.159	4.35
333.532	4.33
333.904	4.4
334.276	4.1
334.648	4.75
335.02	4.08
335.391	3.86
335.763	4.17
336.135	4.78
336.507	4.44
336.879	3.99
337.25	3.29
337.622	3.87
337.993	4.7
338.365	4.56
338.736	4.89
339.108	4.25
339.479	4.18
339.851	3.89
340.222	4.2
340.593	4.62
340.964	4.31
341.336	5.12
341.707	4.08
342.078	4.3
342.449	4.81
342.82	4.23
343.191	4.25
343.562	3.95
343.933	4.04
344.303	4.06
344.674	3.81
345.045	4.08
345.416	4.35
345.786	3.64
346.157	4.29
346.527	3.78
346.898	4.02
347.268	4.14
347.639	4.05
348.009	3.86
348.38	4.12
348.75	4.58
349.12	4.39
349.49	4.35
349.861	4.31
350.231	4.06
350.601	4.69
350.971	4.61
351.341	4.8
351.711	4.4
352.081	4.5
352.45	3.88
352.82	4.34
353.19	4.14
353.56	4.17
353.929	4.53
354.299	4.24
354.669	3.86
355.038	4.33
355.408	4.42
355.777	4.11
356.147	4.24
356.516	4.31
356.885	3.83
357.254	3.98
357.624	4.48
357.993	4.25
358.362	4.34
358.731	4.03
359.1	4.24
359.469	4.33
359.838	4.74
360.207	4.06
360.576	3.95
360.945	4.64
361.314	4.71
361.682	4.11
362.051	4.03
362.42	4.54
362.788	4.36
363.157	4.44
363.525	4.62
363.894	4.38
364.262	4.43
364.631	4.11
364.999	4.3
365.367	4.09
365.735	5.14
366.104	4.42
366.472	4.7
366.84	4.18
367.208	4.26
367.576	4.57
367.944	4.59
368.312	4.13
368.68	4.15
369.048	4.77
369.416	4.29
369.783	4
370.151	4.05
370.519	4.8
370.886	4.76
371.254	4.58
371.621	4.69
371.989	4.73
372.356	3.8
372.724	4.46
373.091	4.22
373.458	4.69
373.826	4.47
374.193	4.1
374.56	4.69
374.927	4.37
375.294	4.49
375.661	4.61
376.028	4.29
376.395	4.14
376.762	4.5
377.129	4.32
377.496	4.16
377.863	4.7
378.229	4.04
378.596	4.51
378.963	4.42
379.329	4.5
379.696	4.58
380.062	4.5
380.429	4.54
380.795	4.16
381.161	4.17
381.528	4.69
381.894	4.21
382.26	4.37
382.626	4.77
382.993	4.19
383.359	4.61
383.725	4.37
384.091	4.49
384.457	4.86
384.823	4.35
385.188	4.56
385.554	4.48
385.92	4.71
386.286	4.77
386.651	4.52
387.017	4.48
387.383	4.33
387.748	4.15
388.114	4.77
388.479	4.5
388.845	4.6
389.21	4.74
389.575	4.8
389.94	4.61
390.306	4.69
390.671	4.78
391.036	4.34
391.401	4.08
391.766	4.61
392.131	4.36
392.496	4.62
392.861	4.31
393.226	4.62
393.591	4.73
393.956	4.57
394.32	4.53
394.685	4.26
395.05	4.58
395.414	4.57
395.779	4.34
396.143	4.44
396.508	4.58
396.872	4.71
397.236	4.7
397.601	4.67
397.965	4.47
398.329	4.6
398.694	4.73
399.058	4.6
399.422	4.33
399.786	4.54
400.15	4.83
400.514	4.63
400.878	4.63
401.242	4.89
401.605	4.64
401.969	4.7
402.333	4.6
402.697	4.91
403.06	4.56
403.424	4.44
403.787	4.5
404.151	4.85
404.514	4.36
404.878	4.4
405.241	4.86
405.604	4.6
405.968	4.75
406.331	4.67
406.694	4.89
407.057	4.86
407.42	4.7
407.783	4.45
408.146	4.54
408.509	4.6
408.872	4.31
409.235	4.61
409.598	5.16
409.961	4.81
410.323	4.57
410.686	4.54
411.049	4.65
411.411	4.53
411.774	4.66
412.136	4.79
412.499	4.51
412.861	4.71
413.223	4.69
413.586	4.63
413.948	4.78
414.31	4.86
414.672	4.72
415.035	4.33
415.397	4.68
415.759	4.54
416.121	4.84
416.483	4.67
416.845	4.55
417.206	4.81
417.568	4.79
417.93	4.48
418.292	4.59
418.653	4.72
419.015	4.77
419.377	4.6
419.738	4.75
420.1	4.7
420.461	4.73
420.822	4.8
421.184	4.67
421.545	4.77
421.906	4.53
422.267	4.67
422.629	4.63
422.99	4.61
423.351	4.6
423.712	4.6
424.073	4.64
424.434	4.52
424.795	4.55
425.155	4.61
425.516	4.55
425.877	4.67
426.238	4.67
426.598	4.71
426.959	4.59
427.32	4.58
427.68	4.5
428.041	4.52
428.401	4.66
428.761	4.68
429.122	4.69
429.482	4.57
429.842	4.76
430.202	4.7
430.563	4.86
430.923	4.73
431.283	4.69
431.643	4.81
432.003	4.65
432.363	4.81
432.722	4.64
433.082	4.9
433.442	4.85
433.802	4.78
434.161	4.75
434.521	4.92
434.881	4.85
435.24	4.71
435.6	4.8
435.959	4.9
436.319	4.77
436.678	4.55
437.037	4.72
437.396	4.92
437.756	4.95
438.115	4.77
438.474	4.9
438.833	4.63
439.192	4.73
439.551	4.88
439.91	4.88
440.269	4.87
440.628	4.76
440.987	4.82
441.345	4.65
441.704	4.77
442.063	4.7
442.421	4.67
442.78	4.66
443.138	4.65
443.497	4.72
443.855	4.7
444.214	4.71
444.572	4.88
444.93	4.84
445.288	4.8
445.647	4.89
446.005	4.68
446.363	4.84
446.721	4.83
447.079	4.8
447.437	4.74
447.795	4.83
448.153	4.73
448.51	4.75
448.868	4.72
449.226	4.68
449.584	4.7
449.941	4.86
450.299	4.63
450.656	4.67
451.014	4.75
451.371	4.7
451.729	4.75
452.086	5.05
452.443	4.67
452.801	4.78
453.158	4.81
453.515	4.76
453.872	5.04
454.229	4.8
454.586	4.88
454.943	4.82
455.3	4.79
455.657	4.75
456.014	4.95
456.371	4.89
456.727	4.97
457.084	5.02
457.441	4.74
457.797	4.78
458.154	4.99
458.51	5.12
458.867	4.94
459.223	4.96
459.58	5.19
459.936	4.92
460.292	4.94
460.648	4.88
461.005	4.96
461.361	5.09
461.717	4.84
462.073	4.67
462.429	4.8
462.785	4.81
463.141	4.78
463.496	4.89
463.852	4.93
464.208	4.78
464.564	4.96
464.919	4.89
465.275	5.09
465.631	5.09
465.986	5.1
466.342	4.96
466.697	4.87
467.052	5.11
467.408	4.89
467.763	4.88
468.118	4.84
468.473	4.91
468.829	4.88
469.184	4.92
469.539	4.87
469.894	4.73
470.249	4.93
470.603	5.14
470.958	4.96
471.313	4.98
471.668	5.21
472.023	5.02
472.377	4.86
472.732	4.95
473.086	4.94
473.441	4.83
473.795	5.04
474.15	5.09
474.504	5.12
474.859	4.94
475.213	4.84
475.567	4.89
475.921	4.99
476.275	5.04
476.63	5.05
476.984	5.2
477.338	5.04
477.692	4.92
478.045	4.88
478.399	5.03
478.753	5.03
479.107	5.1
479.461	5.04
479.814	4.83
480.168	4.93
480.521	4.89
480.875	4.96
481.228	5.03
481.582	5.07
481.935	4.96
482.289	5.18
482.642	5.1
482.995	5.01
483.348	4.85
483.701	5.01
484.055	5.05
484.408	5.08
484.761	5
485.114	4.99
485.466	4.9
485.819	4.89
486.172	4.8
486.525	4.72
486.878	4.68
487.23	4.71
487.583	4.84
487.936	4.97
488.288	4.94
488.641	5.07
488.993	4.92
489.345	4.88
489.698	4.89
490.05	4.81
490.402	4.86
490.754	4.75
491.107	4.88
491.459	4.92
491.811	5.05
492.163	4.97
492.515	4.9
492.866	5.14
493.218	5.08
493.57	5
493.922	4.88
494.274	4.94
494.625	4.96
494.977	4.96
495.328	5.12
495.68	5.09
496.031	5.08
496.383	5.1
496.734	5.35
497.086	5.16
497.437	5.07
497.788	5.12
498.139	5.17
498.49	5.27
498.842	5.02
499.193	5.14
499.544	5.08
499.894	5.16
500.245	5.12
500.596	5.07
500.947	5.22
501.298	5.19
501.648	5.23
501.999	5.27
502.35	5.19
502.7	5.34
503.051	5.13
503.401	5.19
503.752	5.3
504.102	5.29
504.452	5.39
504.803	5.43
505.153	5.38
505.503	5.38
505.853	5.39
506.203	5.21
506.553	5.13
506.903	5.16
507.253	5.34
507.603	5.24
507.953	5.48
508.303	5.51
508.652	5.21
509.002	5.32
509.352	5.41
509.701	5.33
510.051	5.5
510.4	5.38
510.75	5.3
511.099	5.43
511.449	5.29
511.798	5.4
512.147	5.35
512.496	5.26
512.846	5.32
513.195	5.31
513.544	5.38
513.893	5.49
514.242	5.38
514.591	5.5
514.939	5.39
515.288	5.32
515.637	5.48
515.986	5.37
516.334	5.41
516.683	5.48
517.032	5.3
517.38	5.44
517.729	5.48
518.077	5.33
518.426	5.61
518.774	5.67
519.122	5.46
519.47	5.59
519.819	5.34
520.167	5.55
520.515	5.45
520.863	5.55
521.211	5.47
521.559	5.52
521.907	5.39
522.255	5.42
522.602	5.53
522.95	5.48
523.298	5.57
523.645	5.58
523.993	5.53
524.341	5.74
524.688	5.61
525.036	5.55
525.383	5.68
525.73	5.75
526.078	5.73
526.425	5.72
526.772	5.75
527.119	5.77
527.466	5.66
527.814	5.67
528.161	5.64
528.508	5.69
528.854	5.69
529.201	5.66
529.548	5.67
529.895	5.73
530.242	5.64
530.588	5.62
530.935	5.57
531.282	5.57
531.628	5.5
531.975	5.53
532.321	5.62
532.667	5.7
533.014	5.75
533.36	5.77
533.706	5.82
534.052	5.77
534.399	5.78
534.745	5.76
535.091	5.79
535.437	5.82
535.783	5.77
536.129	5.82
536.474	5.78
536.82	5.79
537.166	5.83
537.512	5.98
537.857	6.03
538.203	6.09
538.549	5.89
538.894	5.86
539.239	5.96
539.585	5.9
539.93	5.88
540.276	6
540.621	6.16
540.966	6.17
541.311	6.06
541.656	6.08
542.001	6.11
542.346	6.22
542.691	6.11
543.036	6.18
543.381	6.08
543.726	6.03
544.071	5.99
544.415	6.09
544.76	6.03
545.105	6.15
545.449	6.28
545.794	6.31
546.138	6.19
546.483	6.24
546.827	6.28
547.171	6.29
547.516	6.36
547.86	6.37
548.204	6.38
548.548	6.34
548.892	6.37
549.236	6.37
549.58	6.36
549.924	6.59
550.268	6.61
550.612	6.59
550.956	6.58
551.3	6.55
551.643	6.8
551.987	6.58
552.33	6.71
552.674	6.7
553.017	6.62
553.361	6.66
553.704	6.84
554.048	6.61
554.391	6.83
554.734	6.71
555.077	6.77
555.42	6.56
555.764	6.73
556.107	6.81
556.45	6.68
556.793	6.75
557.135	6.85
557.478	6.94
557.821	6.92
558.164	6.95
558.507	7.02
558.849	6.81
559.192	7.08
559.534	7.09
559.877	7.24
560.219	6.77
560.562	7.14
560.904	7.15
561.246	7.04
561.589	7.22
561.931	7.17
562.273	7.09
562.615	7.26
562.957	7.17
563.299	7.07
563.641	7.31
563.983	7.31
564.325	7.2
564.667	7.17
565.008	7.27
565.35	7.37
565.692	7.33
566.033	7.35
566.375	7.49
566.716	7.53
567.058	7.43
567.399	7.45
567.741	7.38
568.082	7.45
568.423	7.66
568.764	7.44
569.105	7.6
569.447	7.58
569.788	7.34
570.129	7.68
570.47	7.85
570.811	7.7
571.151	7.81
571.492	7.81
571.833	7.78
572.174	7.98
572.514	7.85
572.855	7.84
573.195	7.96
573.536	7.83
573.876	7.73
574.217	7.92
574.557	8.01
574.898	8.06
575.238	8.02
575.578	7.94
575.918	8.14
576.258	8.2
576.598	8.15
576.938	8.07
577.278	8.1
577.618	8.15
577.958	8.07
578.298	8.05
578.638	8.09
578.977	8.03
579.317	8.24
579.657	8.41
579.996	8.35
580.336	8.22
580.675	8.5
581.014	8.45
581.354	8.61
581.693	8.5
582.032	8.33
582.372	8.49
582.711	8.68
583.05	8.31
583.389	8.88
583.728	8.5
584.067	8.78
584.406	8.69
584.745	8.64
585.083	8.74
585.422	8.84
585.761	8.99
586.1	8.72
586.438	8.89
586.777	9.15
587.115	9.02
587.454	8.78
587.792	8.72
588.13	9.07
588.469	9.2
588.807	9.26
589.145	9.14
589.483	9.13
589.821	9.25
590.159	9.3
590.497	9.43
590.835	9.49
591.173	9.32
591.511	9.43
591.849	9.41
592.187	9.48
592.524	9.57
592.862	9.38
593.2	9.33
593.537	9.59
593.875	9.23
594.212	9.35
594.55	9.69
594.887	9.84
595.224	9.72
595.561	9.88
595.899	9.57
596.236	9.85
596.573	10.06
596.91	9.42
597.247	9.49
597.584	9.98
597.921	9.6
598.258	9.65
598.594	9.88
598.931	9.98
599.268	10.01
599.604	9.87
599.941	10.05
600.277	10.17
600.614	9.93
600.95	10.04
601.287	10.41
601.623	9.94
601.959	10.07
602.296	10.17
602.632	9.98
602.968	10.24
603.304	10.5
603.64	10.3
603.976	10.52
604.312	10.51
604.648	10.45
604.984	10.68
605.319	10.58
605.655	10.64
605.991	10.81
606.326	10.81
606.662	10.63
606.998	10.5
607.333	10.79
607.668	10.63
608.004	10.9
608.339	10.83
608.674	10.9
609.01	11.12
609.345	10.62
609.68	11.21
610.015	10.89
610.35	11.24
610.685	10.75
611.02	10.96
611.355	11.14
611.689	11.2
612.024	11.27
612.359	11.03
612.694	11.12
613.028	11.31
613.363	11.55
613.697	11.45
614.032	11.69
614.366	11.27
614.7	11.57
615.035	11.64
615.369	11.3
615.703	11.51
616.037	11.75
616.371	11.37
616.705	11.51
617.039	11.69
617.373	11.6
617.707	11.73
618.041	11.52
618.375	11.89
618.709	11.9
619.042	11.38
619.376	12.02
619.71	12.24
620.043	12
620.377	12.01
620.71	11.8
621.043	12.16
621.377	12.41
621.71	12.11
622.043	11.94
622.376	11.9
622.709	12.36
623.043	12.37
623.376	12.24
623.709	12.33
624.041	13.02
624.374	12.21
624.707	12.18
625.04	12.66
625.373	12.11
625.705	12.49
626.038	12.72
626.37	12.67
626.703	12.4
627.035	12.9
627.368	13.12
627.7	12.76
628.032	12.65
628.365	12.82
628.697	12.91
629.029	12.49
629.361	12.82
629.693	13.17
630.025	12.92
630.357	13.11
630.689	13.22
631.021	13.09
631.353	13.19
631.684	12.95
632.016	13.31
632.348	13.6
632.679	13.18
633.011	13.66
633.342	13.72
633.674	13.3
634.005	13.96
634.336	13.68
634.668	13.91
634.999	13.36
635.33	13.82
635.661	13.69
635.992	13.7
636.323	13.62
636.654	13.82
636.985	13.85
637.316	13.75
637.647	13.65
637.977	14.02
638.308	13.81
638.639	13.55
638.969	13.75
639.3	14.35
639.63	14.07
639.961	14.06
640.291	14.07
640.622	14.29
640.952	14.17
641.282	14.15
641.612	14.72
641.943	14.12
642.273	14.25
642.603	14.45
642.933	13.91
643.263	14.38
643.592	14.09
643.922	14.58
644.252	14.51
644.582	14.46
644.911	14.19
645.241	14.8
645.571	14.53
645.9	14.53
646.23	14.4
646.559	14.92
646.888	15.11
647.218	14.87
647.547	15.19
647.876	14.24
648.205	15.4
648.534	14.91
648.863	14.74
649.192	15.54
649.521	15.11
649.85	14.72
650.179	15.32
650.508	15.29
650.837	15.25
651.165	15.24
651.494	15.59
651.822	15.26
652.151	15.21
652.479	15.77
652.808	15.28
653.136	15.69
653.465	14.82
653.793	14.94
654.121	15.68
654.449	15.86
654.777	16.15
655.105	16
655.433	15.35
655.761	15.39
656.089	16.29
656.417	15.58
656.745	15.61
657.073	15.3
657.4	16.71
657.728	16.17
658.056	16.17
658.383	16.15
658.711	15.96
659.038	16.36
659.365	16.09
659.693	16.42
660.02	16.41
660.347	16.19
660.674	16.9
661.001	16.73
661.329	15.79
661.656	16.87
661.982	16.45
662.309	16.45
662.636	16.27
662.963	16.38
663.29	16.87
663.616	17.03
663.943	16.49
664.27	16.94
664.596	17.57
664.923	16.89
665.249	16.8
665.576	16.81
665.902	17.33
666.228	16.9
666.554	17.51
666.881	17
667.207	17.82
667.533	17.23
667.859	17.28
668.185	17.09
668.511	16.97
668.837	16.65
669.162	17.49
669.488	17.46
669.814	17.77
670.139	17.67
670.465	17.91
670.791	17.55
671.116	18.1
671.442	17.82
671.767	17.42
672.092	17.83
672.418	17.51
672.743	17.75
673.068	16.94
673.393	18.16
673.718	17.75
674.043	17.83
674.368	17.46
674.693	18.55
675.018	18.19
675.343	18.27
675.667	18.06
675.992	19.13
676.317	18.29
676.641	18.31
676.966	18.01
677.29	18.35
677.615	18.63
677.939	19.23
678.264	18.94
678.588	18.84
678.912	18.67
679.236	18.89
679.56	17.83
679.885	18.92
680.209	18.63
680.532	18.45
680.856	19.36
681.18	18.89
681.504	18.62
681.828	19.12
682.152	19.02
682.475	18.64
682.799	19.36
683.122	18.89
683.446	18.19
683.769	19.11
684.093	18.39
684.416	19.06
684.739	19.36
685.062	19.03
685.386	19.78
685.709	18.68
686.032	19.02
686.355	20.06
686.678	19.22
