Data from 0390_forehead_Reflection__1__120.txt Node

Date: Fri Dec 15 17:27:49 CST 2023
User: ToomeyLab
Spectrometer: FLMS14357
Trigger mode: 0
Integration Time (sec): 1.000000E-2
Scans to average: 100
Electric dark correction enabled: true
Nonlinearity correction enabled: false
Boxcar width: 0
XAxis mode: Wavelengths
Number of Pixels in Spectrum: 2048
>>>>>Begin Spectral Data<<<<<
189.047	108.14
189.435	108.14
189.823	108.14
190.211	238.49
190.599	-723.98
190.987	79.18
191.375	70.78
191.763	137.74
192.151	88.03
192.538	42.13
192.926	168.52
193.314	64.5
193.702	-167.56
194.089	52.97
194.477	-103.55
194.864	-91.83
195.252	72.43
195.639	149.47
196.027	-78.48
196.414	35.61
196.801	28.32
197.189	-9.95
197.576	116.99
197.963	91.58
198.351	-25.64
198.738	-23.44
199.125	15.13
199.512	15.03
199.899	22.09
200.286	39.31
200.673	0.26
201.06	27.84
201.447	5.53
201.833	33.82
202.22	36.16
202.607	70.08
202.994	43.63
203.38	58.56
203.767	43.32
204.154	38.8
204.54	64.98
204.927	12.31
205.313	-3.49
205.699	27.45
206.086	41.47
206.472	26.01
206.858	3.91
207.245	-76.18
207.631	37.89
208.017	36.45
208.403	54.83
208.789	40.36
209.175	11.56
209.561	14.99
209.947	29.11
210.333	-7.36
210.719	22.47
211.105	45.44
211.491	-1.57
211.876	30.35
212.262	13.78
212.648	41.03
213.034	114.41
213.419	21.22
213.805	-1.22
214.19	9.56
214.576	38.33
214.961	-0.47
215.346	-23.62
215.732	-5.15
216.117	7.56
216.502	-3.62
216.888	-2.07
217.273	35.8
217.658	17.74
218.043	24.96
218.428	-39.75
218.813	8.53
219.198	-15.58
219.583	38.34
219.968	11.45
220.353	9.04
220.738	17.56
221.122	21.33
221.507	-9.1
221.892	-18.6
222.276	7.24
222.661	13.15
223.046	4.6
223.43	6.18
223.815	11.47
224.199	0.09
224.583	0.12
224.968	3.3
225.352	11.87
225.736	8.5
226.121	2.76
226.505	-5.49
226.889	11.88
227.273	0.93
227.657	7.64
228.041	4.21
228.425	0.74
228.809	2.49
229.193	5.42
229.577	3.12
229.961	4.71
230.344	2.51
230.728	2.68
231.112	2.69
231.495	1.91
231.879	1.88
232.263	3.32
232.646	3.79
233.03	4.62
233.413	0.66
233.797	2.96
234.18	5.67
234.563	5.41
234.946	1.62
235.33	3.85
235.713	1.27
236.096	1.52
236.479	5.37
236.862	2.23
237.245	5.27
237.628	2.91
238.011	3.48
238.394	3.59
238.777	4.55
239.16	3.29
239.543	2.13
239.925	3.5
240.308	3.19
240.691	2.65
241.073	3.09
241.456	2.57
241.838	1.58
242.221	2.03
242.603	4.02
242.986	3.11
243.368	3.47
243.75	3.11
244.133	2.76
244.515	3.55
244.897	2.52
245.279	3
245.661	2.15
246.043	1.51
246.425	3.24
246.807	3.5
247.189	4
247.571	3.96
247.953	3.64
248.335	2.97
248.717	3.07
249.098	2.78
249.48	3.22
249.862	3.32
250.243	3.2
250.625	3.01
251.006	3.43
251.388	2.58
251.769	3.64
252.151	3.78
252.532	2.24
252.913	2.38
253.295	3.34
253.676	3.44
254.057	3.16
254.438	3.13
254.819	3.5
255.2	2.61
255.581	4.35
255.962	2.79
256.343	3.39
256.724	3.17
257.105	4.39
257.486	2.87
257.867	3.75
258.247	2.95
258.628	3.24
259.009	2.3
259.389	3.54
259.77	3.47
260.15	2.71
260.531	2.52
260.911	3.56
261.292	3.18
261.672	3.37
262.052	3.09
262.432	3.27
262.813	3.46
263.193	3.04
263.573	3.02
263.953	3.01
264.333	4.11
264.713	3.71
265.093	3.16
265.473	3.19
265.853	3.52
266.233	3.29
266.612	2.73
266.992	3.59
267.372	3.69
267.752	3.49
268.131	3.39
268.511	3.63
268.89	4.09
269.27	3.57
269.649	2.52
270.029	2.87
270.408	3.98
270.787	3.77
271.167	3.69
271.546	3.92
271.925	2.89
272.304	2.99
272.683	3.23
273.062	2.93
273.441	3.01
273.82	3.04
274.199	2.94
274.578	3.22
274.957	2.98
275.336	3.14
275.715	3.1
276.093	2.57
276.472	3.28
276.851	3.02
277.229	2.94
277.608	2.85
277.986	3.44
278.365	3.21
278.743	3.01
279.122	3.64
279.5	3.86
279.878	3.26
280.257	3.01
280.635	2.5
281.013	2.86
281.391	3.29
281.769	3.56
282.147	3.87
282.525	4.23
282.903	3.32
283.281	4.12
283.659	3.45
284.037	3.1
284.415	3.46
284.792	3.58
285.17	2.17
285.548	2.59
285.925	3.43
286.303	3.43
286.68	2.77
287.058	2.9
287.435	3.05
287.813	3.3
288.19	3.18
288.567	3.29
288.945	3.69
289.322	3.24
289.699	3.59
290.076	3.35
290.453	3.11
290.83	3.39
291.207	3.2
291.584	3.64
291.961	3.77
292.338	3.51
292.715	3.79
293.092	3.2
293.469	3.91
293.845	3.97
294.222	3.49
294.599	4.02
294.975	3.56
295.352	3.99
295.728	3.18
296.105	3.07
296.481	4.26
296.858	3.93
297.234	3.9
297.61	4.07
297.986	4.04
298.363	4.29
298.739	4.73
299.115	4.12
299.491	3.95
299.867	4.02
300.243	4.3
300.619	4.01
300.995	4.47
301.371	5.1
301.746	4.25
302.122	4.63
302.498	4.33
302.874	4.87
303.249	4.56
303.625	4.96
304	4.71
304.376	4.47
304.751	4.92
305.127	5.25
305.502	4.48
305.878	3.96
306.253	4.75
306.628	5.4
307.003	4.95
307.378	4.64
307.754	4.95
308.129	4.85
308.504	5.48
308.879	5.25
309.254	5.86
309.629	5.5
310.003	5.87
310.378	5.97
310.753	5.91
311.128	5.82
311.502	5.43
311.877	5.67
312.252	5.32
312.626	5.67
313.001	5.85
313.375	6.02
313.75	5.77
314.124	6.12
314.498	6.52
314.873	6.14
315.247	6.13
315.621	6.45
315.995	5.68
316.369	6.33
316.743	6.34
317.117	6.35
317.491	6.41
317.865	6.57
318.239	6.4
318.613	6.92
318.987	6.28
319.361	6.36
319.734	7.13
320.108	7.78
320.482	7.49
320.855	7.58
321.229	6.7
321.602	7.41
321.976	7.27
322.349	7.06
322.723	7.49
323.096	8.42
323.469	6.96
323.843	8
324.216	7.91
324.589	8.2
324.962	7.68
325.335	7.84
325.708	7.6
326.081	7.2
326.454	8.29
326.827	7.91
327.2	8.21
327.573	7.91
327.945	7.88
328.318	8.46
328.691	7.59
329.063	8.65
329.436	8.25
329.809	9.12
330.181	7.76
330.553	8.62
330.926	8.63
331.298	8.76
331.671	8.37
332.043	9.36
332.415	8.6
332.787	8.98
333.159	9.73
333.532	9.27
333.904	8.96
334.276	8.91
334.648	9.34
335.02	9.29
335.391	8.85
335.763	9.11
336.135	9.53
336.507	9.98
336.879	8.9
337.25	9.27
337.622	9.95
337.993	9.51
338.365	9.73
338.736	9.53
339.108	10.09
339.479	9.58
339.851	10.24
340.222	9.71
340.593	9.41
340.964	9.61
341.336	10.29
341.707	9.51
342.078	9.97
342.449	10.31
342.82	9.66
343.191	10.26
343.562	10.06
343.933	10.67
344.303	10.64
344.674	10.17
345.045	10.35
345.416	10.42
345.786	9.91
346.157	10.22
346.527	9.93
346.898	10.45
347.268	10.6
347.639	10.32
348.009	10.26
348.38	10.66
348.75	11.05
349.12	10.68
349.49	11.82
349.861	11.46
350.231	10.97
350.601	11.24
350.971	11.63
351.341	11.09
351.711	11.12
352.081	11.41
352.45	11.13
352.82	12.03
353.19	11.5
353.56	11.18
353.929	11.62
354.299	11.46
354.669	11.29
355.038	12.24
355.408	11.5
355.777	11.84
356.147	11.66
356.516	12.31
356.885	12.23
357.254	11.64
357.624	12.33
357.993	12.28
358.362	12.49
358.731	11.74
359.1	11.92
359.469	12.23
359.838	12.33
360.207	11.85
360.576	12.36
360.945	12.5
361.314	12.85
361.682	12.22
362.051	12.81
362.42	12.56
362.788	12.64
363.157	12.89
363.525	13.07
363.894	12.68
364.262	13
364.631	12.84
364.999	13.19
365.367	12.78
365.735	13.97
366.104	13.38
366.472	13.48
366.84	13.22
367.208	13.19
367.576	13.62
367.944	13.49
368.312	13.65
368.68	13.41
369.048	13.61
369.416	13.8
369.783	13.91
370.151	13.9
370.519	14.25
370.886	13.99
371.254	13.37
371.621	13.91
371.989	14.24
372.356	13.38
372.724	14.12
373.091	14
373.458	14.32
373.826	13.8
374.193	14.09
374.56	14.28
374.927	14.42
375.294	14.41
375.661	14.48
376.028	14.32
376.395	14.43
376.762	14.54
377.129	14.55
377.496	14.71
377.863	14.74
378.229	14.24
378.596	15.06
378.963	14.9
379.329	14.82
379.696	15.04
380.062	15.02
380.429	15.15
380.795	15.05
381.161	15.01
381.528	15.56
381.894	15.13
382.26	15.44
382.626	15.71
382.993	15.16
383.359	15.91
383.725	15.39
384.091	15.61
384.457	15.86
384.823	15.91
385.188	16
385.554	15.94
385.92	16.11
386.286	15.89
386.651	16.16
387.017	16.38
387.383	16.08
387.748	15.86
388.114	16.43
388.479	16.14
388.845	16.55
389.21	16.73
389.575	16.48
389.94	16.45
390.306	16.51
390.671	16.55
391.036	16.41
391.401	16.5
391.766	17
392.131	16.95
392.496	17.03
392.861	16.87
393.226	17.19
393.591	17.28
393.956	17.17
394.32	16.95
394.685	17.02
395.05	16.92
395.414	17.73
395.779	17.02
396.143	17.6
396.508	17.6
396.872	17.58
397.236	17.34
397.601	17.26
397.965	17.41
398.329	17.76
398.694	17.85
399.058	17.79
399.422	17.59
399.786	18.07
400.15	18.06
400.514	18.25
400.878	18.01
401.242	18.22
401.605	18.41
401.969	18.27
402.333	18.07
402.697	18.3
403.06	18.34
403.424	18.63
403.787	18.53
404.151	18.79
404.514	18.44
404.878	18.47
405.241	18.77
405.604	18.56
405.968	18.64
406.331	18.74
406.694	19.11
407.057	18.87
407.42	18.93
407.783	19.13
408.146	18.83
408.509	19.01
408.872	18.69
409.235	19.25
409.598	19.62
409.961	19.2
410.323	19.28
410.686	19.62
411.049	19.21
411.411	19.78
411.774	19.57
412.136	19.77
412.499	19.58
412.861	19.65
413.223	19.75
413.586	19.92
413.948	19.67
414.31	19.87
414.672	19.89
415.035	19.74
415.397	20.42
415.759	19.71
416.121	20.19
416.483	20.24
416.845	20.21
417.206	20.12
417.568	20.41
417.93	20.38
418.292	20.4
418.653	20.51
419.015	20.5
419.377	20.44
419.738	20.46
420.1	20.5
420.461	20.67
420.822	20.73
421.184	20.65
421.545	20.63
421.906	20.56
422.267	20.77
422.629	20.73
422.99	20.82
423.351	20.71
423.712	20.76
424.073	20.72
424.434	20.92
424.795	21.09
425.155	21.05
425.516	21.01
425.877	21.02
426.238	21.08
426.598	21.16
426.959	21.19
427.32	21.1
427.68	21.31
428.041	21.45
428.401	21.65
428.761	21.62
429.122	21.63
429.482	21.86
429.842	21.96
430.202	22.19
430.563	22.04
430.923	21.98
431.283	22.25
431.643	22.18
432.003	22.33
432.363	22.43
432.722	22.38
433.082	22.43
433.442	22.46
433.802	22.46
434.161	22.4
434.521	22.72
434.881	22.71
435.24	22.51
435.6	22.68
435.959	22.76
436.319	22.66
436.678	22.86
437.037	22.81
437.396	23.1
437.756	23.16
438.115	23.11
438.474	23.3
438.833	23
439.192	23.42
439.551	23.47
439.91	23.36
440.269	23.27
440.628	23.48
440.987	23.47
441.345	23.35
441.704	23.42
442.063	23.68
442.421	23.47
442.78	23.62
443.138	23.64
443.497	23.55
443.855	23.81
444.214	23.51
444.572	23.96
444.93	23.83
445.288	24.08
445.647	24.18
446.005	23.99
446.363	24.19
446.721	24.21
447.079	24.14
447.437	24.3
447.795	24.25
448.153	24.05
448.51	24.26
448.868	24.19
449.226	24.29
449.584	24.4
449.941	24.49
450.299	24.47
450.656	24.58
451.014	24.66
451.371	24.68
451.729	24.53
452.086	24.96
452.443	25
452.801	25.21
453.158	25.13
453.515	25.06
453.872	25.47
454.229	25.41
454.586	25.37
454.943	25.45
455.3	25.49
455.657	25.47
456.014	25.43
456.371	25.68
456.727	25.71
457.084	25.51
457.441	25.75
457.797	25.81
458.154	25.93
458.51	26.02
458.867	25.99
459.223	25.98
459.58	26.04
459.936	26.13
460.292	26
460.648	26.25
461.005	26.17
461.361	26.23
461.717	26.11
462.073	25.84
462.429	25.78
462.785	26
463.141	26.12
463.496	26.26
463.852	26.41
464.208	26.57
464.564	26.55
464.919	26.8
465.275	26.76
465.631	27.04
465.986	26.94
466.342	26.81
466.697	26.83
467.052	27.18
467.408	27.05
467.763	27.17
468.118	27.2
468.473	27.11
468.829	27.3
469.184	27.43
469.539	27.49
469.894	27.22
470.249	27.39
470.603	27.79
470.958	27.32
471.313	27.68
471.668	27.95
472.023	27.53
472.377	27.68
472.732	27.85
473.086	27.9
473.441	27.59
473.795	27.91
474.15	27.87
474.504	28.13
474.859	28.11
475.213	28.07
475.567	28.1
475.921	28.21
476.275	28.22
476.63	28.48
476.984	28.57
477.338	28.45
477.692	28.3
478.045	28.51
478.399	28.59
478.753	28.52
479.107	28.56
479.461	28.52
479.814	28.55
480.168	28.51
480.521	28.5
480.875	28.53
481.228	28.66
481.582	28.65
481.935	28.85
482.289	28.77
482.642	28.89
482.995	28.8
483.348	28.88
483.701	28.94
484.055	28.88
484.408	28.78
484.761	28.57
485.114	28.51
485.466	28.28
485.819	28.33
486.172	28.12
486.525	27.93
486.878	27.9
487.23	28.03
487.583	28.27
487.936	28.64
488.288	28.81
488.641	28.89
488.993	28.85
489.345	28.64
489.698	28.62
490.05	28.72
490.402	28.73
490.754	28.72
491.107	28.96
491.459	29.15
491.811	29.23
492.163	29.47
492.515	29.67
492.866	29.76
493.218	29.59
493.57	29.41
493.922	29.23
494.274	29.22
494.625	29.3
494.977	29.57
495.328	29.75
495.68	30.07
496.031	30.31
496.383	30.35
496.734	30.57
497.086	30.52
497.437	30.58
497.788	30.79
498.139	30.53
498.49	30.8
498.842	30.58
499.193	30.66
499.544	30.6
499.894	30.64
500.245	30.82
500.596	30.89
500.947	30.89
501.298	30.78
501.648	30.99
501.999	31.14
502.35	31.13
502.7	31.37
503.051	31.23
503.401	31.27
503.752	31.66
504.102	31.33
504.452	31.58
504.803	31.59
505.153	31.57
505.503	31.56
505.853	31.65
506.203	31.67
506.553	31.64
506.903	31.64
507.253	31.65
507.603	31.79
507.953	31.99
508.303	32.05
508.652	31.81
509.002	32.06
509.352	32.09
509.701	32.01
510.051	32.23
510.4	32.25
510.75	32.09
511.099	32.35
511.449	32.25
511.798	32.19
512.147	32.11
512.496	32.07
512.846	32.37
513.195	32.33
513.544	32.32
513.893	32.52
514.242	32.55
514.591	32.56
514.939	32.44
515.288	32.71
515.637	32.59
515.986	32.64
516.334	32.91
516.683	32.94
517.032	32.73
517.38	32.9
517.729	32.99
518.077	33.08
518.426	33.08
518.774	33.12
519.122	33.14
519.47	33.11
519.819	32.92
520.167	33
520.515	32.86
520.863	32.79
521.211	32.82
521.559	32.95
521.907	33.12
522.255	33.05
522.602	33.25
522.95	33.35
523.298	33.45
523.645	33.48
523.993	33.61
524.341	33.72
524.688	33.76
525.036	33.64
525.383	33.83
525.73	33.96
526.078	33.72
526.425	34.11
526.772	33.94
527.119	33.94
527.466	33.71
527.814	33.83
528.161	33.66
528.508	33.48
528.854	33.67
529.201	33.63
529.548	33.86
529.895	33.85
530.242	33.65
530.588	33.58
530.935	33.4
531.282	33.09
531.628	33.08
531.975	33.26
532.321	33.53
532.667	33.73
533.014	34.07
533.36	34.02
533.706	34.09
534.052	34.26
534.399	34.38
534.745	34.21
535.091	34.33
535.437	34.25
535.783	34.1
536.129	33.93
536.474	33.98
536.82	34.36
537.166	34.4
537.512	34.76
537.857	34.86
538.203	35.07
538.549	34.86
538.894	34.72
539.239	34.79
539.585	34.69
539.93	34.93
540.276	34.95
540.621	35.24
540.966	35.25
541.311	35.21
541.656	35.51
542.001	35.4
542.346	35.29
542.691	35.43
543.036	35.15
543.381	35.18
543.726	34.92
544.071	34.88
544.415	34.78
544.76	34.77
545.105	35.17
545.449	35.24
545.794	35.58
546.138	35.49
546.483	35.68
546.827	35.77
547.171	35.92
547.516	35.9
547.86	36.09
548.204	36.1
548.548	35.94
548.892	36.14
549.236	36.2
549.58	35.88
549.924	36.21
550.268	36.1
550.612	36.35
550.956	36.4
551.3	36.51
551.643	36.86
551.987	36.82
552.33	36.8
552.674	36.95
553.017	37.09
553.361	36.81
553.704	37.14
554.048	37.09
554.391	36.91
554.734	37.29
555.077	37.17
555.42	36.82
555.764	37.02
556.107	36.65
556.45	37.22
556.793	37.2
557.135	37.32
557.478	37.21
557.821	37.46
558.164	37.44
558.507	37.56
558.849	37.6
559.192	37.91
559.534	37.62
559.877	37.85
560.219	37.93
560.562	38.04
560.904	37.76
561.246	37.78
561.589	37.99
561.931	37.62
562.273	37.89
562.615	38.17
562.957	37.91
563.299	38
563.641	38.13
563.983	37.88
564.325	37.93
564.667	37.86
565.008	38.01
565.35	38.06
565.692	37.93
566.033	38
566.375	38.45
566.716	38.62
567.058	38.42
567.399	38.17
567.741	38.06
568.082	38.3
568.423	38.2
568.764	38.19
569.105	38.16
569.447	38.28
569.788	38.35
570.129	38.46
570.47	38.61
570.811	38.73
571.151	38.83
571.492	38.92
571.833	39.05
572.174	38.78
572.514	38.75
572.855	39.02
573.195	39.01
573.536	38.75
573.876	38.89
574.217	38.75
574.557	38.93
574.898	38.84
575.238	38.81
575.578	38.96
575.918	38.93
576.258	38.99
576.598	39.11
576.938	39.16
577.278	39.19
577.618	38.9
577.958	39.33
578.298	39.39
578.638	38.97
578.977	39.17
579.317	39.23
579.657	39.4
579.996	39.49
580.336	39.6
580.675	39.45
581.014	39.67
581.354	39.55
581.693	39.91
582.032	40.01
582.372	39.78
582.711	39.99
583.05	39.88
583.389	40.05
583.728	39.84
584.067	40.17
584.406	40.27
584.745	40.02
585.083	40.19
585.422	40.39
585.761	40.12
586.1	40.22
586.438	40.28
586.777	40.43
587.115	40.56
587.454	40.4
587.792	40.45
588.13	40.81
588.469	40.24
588.807	40.35
589.145	40.45
589.483	40.54
589.821	40.49
590.159	40.64
590.497	41.09
590.835	40.9
591.173	40.49
591.511	40.84
591.849	41.09
592.187	41.01
592.524	41.02
592.862	40.74
593.2	40.72
593.537	40.72
593.875	41.23
594.212	40.78
594.55	40.99
594.887	40.79
595.224	41.44
595.561	41.21
595.899	41.06
596.236	41.05
596.573	41.23
596.91	41.1
597.247	41.16
597.584	41.05
597.921	41.31
598.258	41.53
598.594	41.38
598.931	41.13
599.268	41.18
599.604	41.06
599.941	40.89
600.277	41.37
600.614	41.01
600.95	41.18
601.287	41.42
601.623	41.46
601.959	41.51
602.296	41.74
602.632	41.69
602.968	41.72
603.304	41.76
603.64	41.96
603.976	41.51
604.312	41.61
604.648	42.1
604.984	42.2
605.319	42.25
605.655	42.11
605.991	41.83
606.326	41.65
606.662	41.87
606.998	41.68
607.333	41.59
607.668	41.54
608.004	41.88
608.339	41.81
608.674	41.86
609.01	41.79
609.345	41.89
609.68	42.27
610.015	42.61
610.35	42.19
610.685	42.57
611.02	42.41
611.355	42.34
611.689	42.1
612.024	42.25
612.359	42.35
612.694	42.23
613.028	41.95
613.363	42.67
613.697	42.43
614.032	42.61
614.366	42.29
614.7	42.74
615.035	42.5
615.369	42.64
615.703	42.65
616.037	42.68
616.371	42.42
616.705	42.81
617.039	43
617.373	42.7
617.707	42.63
618.041	42.22
618.375	43.06
618.709	43.1
619.042	42.46
619.376	43.23
619.71	43.41
620.043	43.05
620.377	43.06
620.71	43.32
621.043	43.45
621.377	43.44
621.71	42.76
622.043	42.9
622.376	42.75
622.709	43.23
623.043	43.42
623.376	42.86
623.709	43.14
624.041	43.51
624.374	43.7
624.707	43.2
625.04	43.55
625.373	42.54
625.705	43.7
626.038	43.6
626.37	43.42
626.703	43.79
627.035	43.91
627.368	44.04
627.7	43.86
628.032	44.08
628.365	43.98
628.697	43.78
629.029	43.38
629.361	43.97
629.693	44.3
630.025	43.35
630.357	43.97
630.689	43.85
631.021	44.02
631.353	43.8
631.684	44.29
632.016	43.77
632.348	44.14
632.679	44.04
633.011	43.68
633.342	44.66
633.674	43.81
634.005	43.94
634.336	43.39
634.668	44.4
634.999	44.08
635.33	44.56
635.661	44.55
635.992	44.12
636.323	44.5
636.654	43.99
636.985	44.37
637.316	44.08
637.647	44.05
637.977	44.77
638.308	44.62
638.639	44.15
638.969	44.64
639.3	44.29
639.63	44.61
639.961	44.34
640.291	44.08
640.622	44.71
640.952	44.85
641.282	45.15
641.612	45.06
641.943	44.75
642.273	45.18
642.603	45.25
642.933	45.42
643.263	44.97
643.592	44.88
643.922	45.39
644.252	45.61
644.582	45.3
644.911	44.4
645.241	45.93
645.571	45.09
645.9	44.83
646.23	44.89
646.559	45.54
646.888	45.52
647.218	45.62
647.547	45.51
647.876	44.4
648.205	45.12
648.534	45.54
648.863	45.53
649.192	45.5
649.521	45.46
649.85	45.5
650.179	44.86
650.508	44.88
650.837	45.04
651.165	44.59
651.494	45.29
651.822	45.66
652.151	45.17
652.479	46.06
652.808	45.35
653.136	45.44
653.465	45.18
653.793	45.49
654.121	45.61
654.449	45.66
654.777	46.28
655.105	45.72
655.433	45.61
655.761	45.44
656.089	45.59
656.417	45.69
656.745	45.7
657.073	45.59
657.4	46.02
657.728	45.02
658.056	45.36
658.383	46.2
658.711	45.86
659.038	45.67
659.365	46.26
659.693	45.73
660.02	45.67
660.347	45.81
660.674	45.65
661.001	46.48
661.329	46.01
661.656	46.05
661.982	45.78
662.309	46.03
662.636	46.21
662.963	46.02
663.29	45.7
663.616	45.6
663.943	46.31
664.27	46.03
664.596	46.28
664.923	46.29
665.249	45.92
665.576	46.03
665.902	46.22
666.228	46.26
666.554	46.13
666.881	45.87
667.207	46.44
667.533	46.75
667.859	46.37
668.185	47.83
668.511	46.38
668.837	46.45
669.162	46.52
669.488	46.34
669.814	46.72
670.139	46.96
670.465	46.39
670.791	46.34
