Data from 0390_chest_Reflection__4__112.txt Node

Date: Fri Dec 15 17:24:59 CST 2023
User: ToomeyLab
Spectrometer: FLMS14357
Trigger mode: 0
Integration Time (sec): 1.000000E-2
Scans to average: 100
Electric dark correction enabled: true
Nonlinearity correction enabled: false
Boxcar width: 0
XAxis mode: Wavelengths
Number of Pixels in Spectrum: 2048
>>>>>Begin Spectral Data<<<<<
189.047	41.93
189.435	41.93
189.823	41.93
190.211	151.15
190.599	620.36
190.987	50.47
191.375	22.88
191.763	46.55
192.151	117.94
192.538	120.78
192.926	45.06
193.314	264.02
193.702	-67.36
194.089	170.82
194.477	11.01
194.864	-20.64
195.252	104.02
195.639	160.87
196.027	-204.9
196.414	1.48
196.801	71.8
197.189	57.35
197.576	-18.68
197.963	177.82
198.351	-67.62
198.738	21.81
199.125	6.83
199.512	16.92
199.899	27.06
200.286	-11.12
200.673	15.76
201.06	-0.52
201.447	-2.58
201.833	-11.22
202.22	5.11
202.607	94
202.994	-0.16
203.38	24.36
203.767	57.29
204.154	34.08
204.54	84.5
204.927	6.9
205.313	0.18
205.699	14.84
206.086	34.87
206.472	24.93
206.858	23.84
207.245	-23.07
207.631	58.82
208.017	18.7
208.403	44.64
208.789	45.15
209.175	29.18
209.561	8.98
209.947	7.79
210.333	2.86
210.719	3.13
211.105	25.73
211.491	-1.57
211.876	11.44
212.262	48.79
212.648	31.42
213.034	77.09
213.419	57.3
213.805	-35.17
214.19	-28.79
214.576	27.98
214.961	37.21
215.346	-45.37
215.732	21.88
216.117	40.34
216.502	12.46
216.888	49.26
217.273	15.2
217.658	5.78
218.043	27.17
218.428	-13.01
218.813	4.22
219.198	-8
219.583	11.12
219.968	20.32
220.353	4.57
220.738	39.74
221.122	-0.95
221.507	-11.96
221.892	-12.06
222.276	-7.32
222.661	17.28
223.046	14.76
223.43	14.35
223.815	22.13
224.199	-0.84
224.583	19.86
224.968	5.43
225.352	19.11
225.736	3.17
226.121	-1.62
226.505	0.7
226.889	21.61
227.273	-3.49
227.657	9.99
228.041	7.68
228.425	2.26
228.809	8.02
229.193	7.08
229.577	4.29
229.961	7.96
230.344	5.22
230.728	6.04
231.112	6.79
231.495	5.49
231.879	5.27
232.263	6.12
232.646	6.75
233.03	5.28
233.413	4.41
233.797	5.63
234.18	6.58
234.563	2.79
234.946	5.26
235.33	8.26
235.713	6.05
236.096	4.61
236.479	6.62
236.862	5.37
237.245	6.52
237.628	6.04
238.011	5.82
238.394	6.68
238.777	6.21
239.16	4.34
239.543	5.59
239.925	5.39
240.308	5.76
240.691	5.17
241.073	5.3
241.456	6.79
241.838	4.56
242.221	4.55
242.603	6.29
242.986	5.62
243.368	5.25
243.75	5.8
244.133	5.54
244.515	5.71
244.897	5.64
245.279	6.09
245.661	5.03
246.043	5.17
246.425	4.76
246.807	6.71
247.189	5.89
247.571	6.29
247.953	5.96
248.335	5.47
248.717	5.3
249.098	5.52
249.48	5.51
249.862	5.68
250.243	5.41
250.625	5.06
251.006	5.42
251.388	4.15
251.769	5.99
252.151	5.73
252.532	6.06
252.913	4.95
253.295	5.22
253.676	5.09
254.057	5.49
254.438	5.58
254.819	4.81
255.2	5.16
255.581	5.9
255.962	5.33
256.343	6.43
256.724	4.93
257.105	5.15
257.486	4.82
257.867	5.63
258.247	5.68
258.628	4.58
259.009	5.27
259.389	5.32
259.77	5.05
260.15	4.27
260.531	4.89
260.911	5.98
261.292	5.11
261.672	5.31
262.052	5.06
262.432	5.13
262.813	4.79
263.193	5.44
263.573	5.48
263.953	4.46
264.333	5.69
264.713	5.54
265.093	4.66
265.473	5.03
265.853	3.88
266.233	5.62
266.612	3.85
266.992	3.36
267.372	4.79
267.752	5.37
268.131	4.35
268.511	5.48
268.89	4.92
269.27	4.65
269.649	4.61
270.029	4.16
270.408	5.67
270.787	5.73
271.167	5.69
271.546	5.18
271.925	4.55
272.304	4.92
272.683	5.03
273.062	4.65
273.441	4.95
273.82	4.82
274.199	4.46
274.578	5.18
274.957	4.91
275.336	4.66
275.715	4.26
276.093	4.43
276.472	5.16
276.851	4.57
277.229	4.62
277.608	4.08
277.986	5.23
278.365	4.59
278.743	4.06
279.122	4.86
279.5	4.73
279.878	5.41
280.257	5.24
280.635	3.98
281.013	4.47
281.391	4.74
281.769	4.86
282.147	5.34
282.525	5.66
282.903	4.73
283.281	4.99
283.659	4.82
284.037	4.89
284.415	4.86
284.792	5.42
285.17	4.88
285.548	4.15
285.925	4.45
286.303	4.64
286.68	4.29
287.058	5.05
287.435	4.73
287.813	4.96
288.19	4.6
288.567	4.32
288.945	5.14
289.322	4.22
289.699	4.52
290.076	4.53
290.453	4.86
290.83	4.8
291.207	4.25
291.584	4.64
291.961	4.68
292.338	4.88
292.715	4.84
293.092	4.79
293.469	4.48
293.845	4.76
294.222	4.68
294.599	4.91
294.975	4.73
295.352	4.43
295.728	3.92
296.105	4.8
296.481	4.93
296.858	4.42
297.234	4.48
297.61	4.83
297.986	4.33
298.363	4.84
298.739	4.96
299.115	4.64
299.491	4.5
299.867	4.43
300.243	5.23
300.619	4.47
300.995	4.54
301.371	4.55
301.746	4.2
302.122	5.06
302.498	4.57
302.874	5.04
303.249	4.92
303.625	5.02
304	4.4
304.376	4.67
304.751	4.05
305.127	5.23
305.502	4.24
305.878	3.84
306.253	4.51
306.628	5.11
307.003	4.65
307.378	5
307.754	4.61
308.129	4.02
308.504	4.64
308.879	4.34
309.254	5.87
309.629	5.48
310.003	4.64
310.378	4.75
310.753	5.67
311.128	5.2
311.502	4.84
311.877	4.77
312.252	4.36
312.626	4.93
313.001	4.46
313.375	4.61
313.75	4.39
314.124	4.58
314.498	4.82
314.873	4.53
315.247	4.32
315.621	4.73
315.995	4.06
316.369	4.36
316.743	4.59
317.117	4.78
317.491	4.76
317.865	4.33
318.239	4.63
318.613	4.82
318.987	5.3
319.361	4.19
319.734	5.16
320.108	4.53
320.482	4.44
320.855	5.12
321.229	4.38
321.602	4.47
321.976	4.23
322.349	4.6
322.723	4.46
323.096	4.88
323.469	4.41
323.843	4.66
324.216	4.93
324.589	4.6
324.962	4.62
325.335	4.24
325.708	4.21
326.081	4.49
326.454	5.43
326.827	4.43
327.2	4.74
327.573	5.35
327.945	4.95
328.318	4.66
328.691	4.18
329.063	4.92
329.436	4.69
329.809	5.04
330.181	4.24
330.553	4.89
330.926	4.76
331.298	5.04
331.671	4.64
332.043	5.12
332.415	4.9
332.787	4.97
333.159	5.2
333.532	4.82
333.904	4.32
334.276	4.94
334.648	4.67
335.02	4.46
335.391	4.42
335.763	4.67
336.135	4.68
336.507	5
336.879	5.06
337.25	4.44
337.622	4.7
337.993	4.87
338.365	5.13
338.736	5.45
339.108	4.63
339.479	4.58
339.851	4.87
340.222	4.78
340.593	4.99
340.964	4.68
341.336	5.06
341.707	4.46
342.078	5.14
342.449	4.7
342.82	4.15
343.191	4.81
343.562	4.99
343.933	4.9
344.303	5.07
344.674	4.45
345.045	5.39
345.416	5.25
345.786	4.79
346.157	4.85
346.527	4.57
346.898	4.29
347.268	5.08
347.639	4.84
348.009	4.93
348.38	4.56
348.75	4.77
349.12	5.07
349.49	4.67
349.861	4.76
350.231	4.79
350.601	4.77
350.971	5.08
351.341	4.97
351.711	4.89
352.081	4.92
352.45	4.81
352.82	4.72
353.19	4.88
353.56	4.44
353.929	4.62
354.299	4.24
354.669	4.63
355.038	4.96
355.408	4.74
355.777	4.98
356.147	4.44
356.516	5.24
356.885	4.77
357.254	4.93
357.624	5.15
357.993	4.83
358.362	4.46
358.731	4.95
359.1	4.79
359.469	4.92
359.838	5.04
360.207	4.64
360.576	4.4
360.945	4.69
361.314	5.33
361.682	4.77
362.051	4.5
362.42	5.02
362.788	4.66
363.157	4.87
363.525	5.17
363.894	5.02
364.262	4.8
364.631	4.8
364.999	4.77
365.367	4.35
365.735	5.37
366.104	4.99
366.472	4.99
366.84	4.71
367.208	5.01
367.576	4.92
367.944	5.08
368.312	5.03
368.68	4.64
369.048	4.77
369.416	5.06
369.783	4.47
370.151	5.08
370.519	5.3
370.886	5.14
371.254	4.73
371.621	4.83
371.989	4.84
372.356	4.55
372.724	5
373.091	5.22
373.458	4.96
373.826	4.86
374.193	4.75
374.56	5.28
374.927	5.01
375.294	5.03
375.661	4.56
376.028	4.8
376.395	4.98
376.762	5.13
377.129	4.95
377.496	5.13
377.863	5.02
378.229	4.42
378.596	5.09
378.963	5.04
379.329	4.86
379.696	5.16
380.062	5.11
380.429	4.79
380.795	4.84
381.161	4.81
381.528	5.42
381.894	5.17
382.26	4.99
382.626	5.39
382.993	4.79
383.359	5.14
383.725	4.95
384.091	5.11
384.457	4.97
384.823	5.14
385.188	5.28
385.554	4.85
385.92	5.09
386.286	5.24
386.651	5.07
387.017	5.5
387.383	4.99
387.748	5.04
388.114	5.34
388.479	4.81
388.845	5.09
389.21	5.22
389.575	5.18
389.94	5.1
390.306	5.11
390.671	5.09
391.036	4.99
391.401	4.74
391.766	5.41
392.131	4.95
392.496	5.25
392.861	4.83
393.226	5.38
393.591	5.06
393.956	4.95
394.32	4.82
394.685	5.02
395.05	4.96
395.414	5.11
395.779	4.73
396.143	5.26
396.508	5.23
396.872	5.38
397.236	5.04
397.601	5.06
397.965	4.86
398.329	5.19
398.694	5.19
399.058	4.92
399.422	4.82
399.786	5.24
400.15	5.02
400.514	5.06
400.878	5.22
401.242	5.25
401.605	5.14
401.969	5.32
402.333	5.31
402.697	5.13
403.06	5.4
403.424	5.41
403.787	4.96
404.151	5.41
404.514	5.47
404.878	5.1
405.241	5.6
405.604	4.96
405.968	5.28
406.331	5.14
406.694	5.41
407.057	5.4
407.42	5.28
407.783	4.89
408.146	5.18
408.509	5.25
408.872	4.9
409.235	5.07
409.598	5.08
409.961	5.29
410.323	5.28
410.686	5.05
411.049	5.15
411.411	5.27
411.774	5.12
412.136	5.08
412.499	5.02
412.861	4.99
413.223	5.32
413.586	5.49
413.948	5.52
414.31	5.16
414.672	5.08
415.035	5.36
415.397	5.57
415.759	5
416.121	5.52
416.483	5.05
416.845	5.17
417.206	5.11
417.568	5.28
417.93	5.14
418.292	5.16
418.653	5.15
419.015	5.37
419.377	5.26
419.738	5.25
420.1	5.15
420.461	5.14
420.822	5.2
421.184	5.12
421.545	5.13
421.906	5.06
422.267	5.15
422.629	5.17
422.99	5.2
423.351	5.1
423.712	5.15
424.073	5.15
424.434	5.17
424.795	5.22
425.155	5.12
425.516	5.09
425.877	5.08
426.238	5.09
426.598	5.25
426.959	5.08
427.32	5.11
427.68	5.16
428.041	5.18
428.401	5.32
428.761	5.15
429.122	5.43
429.482	5.02
429.842	5.33
430.202	5.18
430.563	5.43
430.923	5.3
431.283	5.28
431.643	5.27
432.003	5.27
432.363	5.31
432.722	5.32
433.082	5.19
433.442	5.27
433.802	5.23
434.161	5.22
434.521	5.44
434.881	5.34
435.24	5.19
435.6	5.24
435.959	5.23
436.319	5.23
436.678	5.3
437.037	5.4
437.396	5.46
437.756	5.53
438.115	5.19
438.474	5.49
438.833	5.3
439.192	5.11
439.551	5.43
439.91	5.32
440.269	5.47
440.628	5.21
440.987	5.33
441.345	5.05
441.704	5.39
442.063	5.18
442.421	5.41
442.78	5.17
443.138	5.17
443.497	5.22
443.855	5.21
444.214	5.41
444.572	5.38
444.93	5.28
445.288	5.39
445.647	5.48
446.005	5.4
446.363	5.58
446.721	5.45
447.079	5.22
447.437	5.37
447.795	5.28
448.153	5.19
448.51	5.2
448.868	5.33
449.226	5.27
449.584	5.3
449.941	5.48
450.299	5.43
450.656	5.4
451.014	5.43
451.371	5.36
451.729	5.2
452.086	5.65
452.443	5.4
452.801	5.52
453.158	5.27
453.515	5.35
453.872	5.56
454.229	5.28
454.586	5.41
454.943	5.33
455.3	5.41
455.657	5.4
456.014	5.3
456.371	5.32
456.727	5.32
457.084	5.5
457.441	5.47
457.797	5.43
458.154	5.59
458.51	5.36
458.867	5.74
459.223	5.46
459.58	5.42
459.936	5.57
460.292	5.51
460.648	5.45
461.005	5.4
461.361	5.51
461.717	5.37
462.073	5.22
462.429	5.27
462.785	5.31
463.141	5.37
463.496	5.52
463.852	5.49
464.208	5.5
464.564	5.53
464.919	5.33
465.275	5.5
465.631	5.76
465.986	5.4
466.342	5.44
466.697	5.4
467.052	5.56
467.408	5.65
467.763	5.38
468.118	5.69
468.473	5.52
468.829	5.59
469.184	5.42
469.539	5.57
469.894	5.27
470.249	5.49
470.603	5.5
470.958	5.75
471.313	5.76
471.668	5.59
472.023	5.48
472.377	5.43
472.732	5.36
473.086	5.53
473.441	5.39
473.795	5.6
474.15	5.57
474.504	5.54
474.859	5.51
475.213	5.42
475.567	5.56
475.921	5.55
476.275	5.67
476.63	5.47
476.984	5.66
477.338	5.77
477.692	5.46
478.045	5.43
478.399	5.52
478.753	5.81
479.107	5.59
479.461	5.44
479.814	5.54
480.168	5.62
480.521	5.58
480.875	5.58
481.228	5.52
481.582	5.51
481.935	5.65
482.289	5.49
482.642	5.67
482.995	5.59
483.348	5.52
483.701	5.57
484.055	5.66
484.408	5.58
484.761	5.53
485.114	5.47
485.466	5.33
485.819	5.28
486.172	5.27
486.525	5.31
486.878	5.37
487.23	5.35
487.583	5.49
487.936	5.52
488.288	5.5
488.641	5.62
488.993	5.39
489.345	5.35
489.698	5.38
490.05	5.33
490.402	5.42
490.754	5.47
491.107	5.52
491.459	5.61
491.811	5.54
492.163	5.64
492.515	5.6
492.866	5.59
493.218	5.55
493.57	5.5
493.922	5.46
494.274	5.54
494.625	5.63
494.977	5.69
495.328	5.66
495.68	5.66
496.031	5.89
496.383	5.75
496.734	5.91
497.086	5.9
497.437	5.83
497.788	5.69
498.139	5.72
498.49	5.83
498.842	5.69
499.193	5.71
499.544	5.71
499.894	5.81
500.245	5.72
500.596	5.81
500.947	5.82
501.298	5.89
501.648	5.92
501.999	6.05
502.35	5.86
502.7	5.84
503.051	5.79
503.401	5.78
503.752	5.87
504.102	5.8
504.452	5.98
504.803	5.8
505.153	5.73
505.503	5.94
505.853	5.84
506.203	5.86
506.553	5.88
506.903	5.88
507.253	5.93
507.603	5.78
507.953	5.98
508.303	6.06
508.652	5.69
509.002	6
509.352	6.14
509.701	5.91
510.051	5.89
510.4	5.91
510.75	6.01
511.099	5.9
511.449	5.99
511.798	5.98
512.147	5.92
512.496	5.92
512.846	6.05
513.195	5.95
513.544	5.95
513.893	5.94
514.242	5.99
514.591	6.08
514.939	5.88
515.288	5.92
515.637	6.12
515.986	5.97
516.334	6.02
516.683	6.03
517.032	6.04
517.38	6.08
517.729	6.19
518.077	6.04
518.426	6.21
518.774	6.08
519.122	5.98
519.47	6.11
519.819	6.07
520.167	6.07
520.515	6.08
520.863	6.07
521.211	6.12
521.559	6.17
521.907	5.98
522.255	6.14
522.602	6.29
522.95	6.08
523.298	6.29
523.645	6.28
523.993	6.21
524.341	6.17
524.688	6.28
525.036	6.25
525.383	6.42
525.73	6.42
526.078	6.25
526.425	6.19
526.772	6.34
527.119	6.28
527.466	6.14
527.814	6.28
528.161	6.2
528.508	6.33
528.854	6.23
529.201	6.21
529.548	6.12
529.895	6.17
530.242	6.04
530.588	6.03
530.935	6.09
531.282	6.14
531.628	6.16
531.975	6.19
532.321	6.32
532.667	6.33
533.014	6.4
533.36	6.33
533.706	6.44
534.052	6.41
534.399	6.31
534.745	6.34
535.091	6.3
535.437	6.23
535.783	6.3
536.129	6.43
536.474	6.45
536.82	6.48
537.166	6.49
537.512	6.55
537.857	6.62
538.203	6.54
538.549	6.48
538.894	6.51
539.239	6.62
539.585	6.59
539.93	6.6
540.276	6.86
540.621	6.75
540.966	6.73
541.311	6.62
541.656	6.68
542.001	6.74
542.346	6.72
542.691	6.58
543.036	6.55
543.381	6.51
543.726	6.51
544.071	6.66
544.415	6.76
544.76	6.74
545.105	6.78
545.449	6.8
545.794	6.85
546.138	6.78
546.483	6.95
546.827	7.03
547.171	6.96
547.516	7.1
547.86	6.99
548.204	6.96
548.548	6.98
548.892	6.93
549.236	6.98
549.58	6.94
549.924	7.06
550.268	7.12
550.612	7.28
550.956	7.21
551.3	7.17
551.643	7.47
551.987	7.26
552.33	7.35
552.674	7.33
553.017	7.25
553.361	7.03
553.704	7.4
554.048	7.31
554.391	7.31
554.734	7.26
555.077	7.39
555.42	7.33
555.764	7.18
556.107	7.22
556.45	7.42
556.793	7.55
557.135	7.49
557.478	7.69
557.821	7.69
558.164	7.46
558.507	7.57
558.849	7.43
559.192	7.9
559.534	7.6
559.877	7.75
560.219	7.59
560.562	7.95
560.904	7.92
561.246	7.69
561.589	7.66
561.931	7.72
562.273	7.76
562.615	7.81
562.957	7.78
563.299	7.75
563.641	7.93
563.983	7.77
564.325	7.9
564.667	7.94
565.008	7.86
565.35	7.93
565.692	8
566.033	8.06
566.375	8.3
566.716	8.13
567.058	8.21
567.399	7.88
567.741	7.93
568.082	8.27
568.423	8.03
568.764	7.93
569.105	8.26
569.447	8.17
569.788	8.21
570.129	8.38
570.47	8.19
570.811	8.47
571.151	8.53
571.492	8.39
571.833	8.34
572.174	8.23
572.514	8.43
572.855	8.34
573.195	8.52
573.536	8.48
573.876	8.37
574.217	8.3
574.557	8.62
574.898	8.62
575.238	8.65
575.578	8.68
575.918	8.72
576.258	8.9
576.598	8.68
576.938	8.73
577.278	8.78
577.618	8.57
577.958	8.63
578.298	8.79
578.638	8.75
578.977	8.95
579.317	8.74
579.657	8.93
579.996	9.03
580.336	8.98
580.675	8.97
581.014	8.86
581.354	9.1
581.693	9.09
582.032	9.05
582.372	9.07
582.711	9.05
583.05	8.99
583.389	9.32
583.728	8.9
584.067	9.35
584.406	9.23
584.745	9.48
585.083	9.4
585.422	9.42
585.761	9.59
586.1	9.54
586.438	9.59
586.777	9.69
587.115	9.83
587.454	9.51
587.792	9.41
588.13	9.69
588.469	9.7
588.807	9.69
589.145	9.65
589.483	9.75
589.821	9.58
590.159	9.94
590.497	9.98
590.835	10.3
591.173	9.87
591.511	10.16
591.849	10.02
592.187	9.89
592.524	9.94
592.862	10.01
593.2	10.14
593.537	9.99
593.875	10.03
594.212	9.99
594.55	9.98
594.887	10.31
595.224	10.54
595.561	10.43
595.899	10.59
596.236	10.39
596.573	10.37
596.91	10.04
597.247	10.16
597.584	10.81
597.921	10.34
598.258	10.26
598.594	10.31
598.931	10.39
599.268	10.37
599.604	10.5
599.941	10.64
600.277	10.63
600.614	10.38
600.95	10.5
601.287	10.71
601.623	10.61
601.959	10.52
602.296	10.67
602.632	10.78
602.968	10.85
603.304	10.89
603.64	10.78
603.976	11.01
604.312	10.99
604.648	10.75
604.984	11.2
605.319	11.09
605.655	10.92
605.991	11.16
606.326	11.27
606.662	11.14
606.998	10.84
607.333	11.31
607.668	11.15
608.004	11.35
608.339	11.39
608.674	11.38
609.01	11.4
609.345	11.19
609.68	11.59
610.015	11.21
610.35	11.4
610.685	11.6
611.02	11.59
611.355	11.53
611.689	11.6
612.024	11.65
612.359	11.78
612.694	11.49
613.028	11.54
613.363	11.95
613.697	12.07
614.032	11.99
614.366	11.67
614.7	11.96
615.035	12.1
615.369	12.01
615.703	12.05
616.037	12.04
616.371	11.82
616.705	11.9
617.039	12.25
617.373	12.1
617.707	11.94
618.041	12.32
618.375	12.48
618.709	12.6
619.042	12.43
619.376	12.94
619.71	12.44
620.043	12.59
620.377	12.64
620.71	12.62
621.043	12.48
621.377	12.62
621.71	12.81
622.043	12.62
622.376	12.63
622.709	12.67
623.043	12.87
623.376	12.91
623.709	12.73
624.041	13.29
624.374	13.16
624.707	12.9
625.04	13
625.373	12.41
625.705	12.79
626.038	13.15
626.37	13.06
626.703	13.05
627.035	13.16
627.368	13.25
627.7	12.88
628.032	12.84
628.365	13.35
628.697	13.17
629.029	12.91
629.361	13.16
629.693	13.55
630.025	13.46
630.357	13.78
630.689	13.56
631.021	13.57
631.353	13.7
631.684	13.25
632.016	13.75
632.348	13.84
632.679	14.06
633.011	13.9
633.342	14.06
633.674	13.73
634.005	14.12
634.336	13.66
634.668	14.52
634.999	13.61
635.33	14.12
635.661	14.21
635.992	14.11
636.323	14.27
636.654	14.11
636.985	14
637.316	14.35
637.647	13.95
637.977	14.41
638.308	14.31
638.639	14.27
638.969	13.99
639.3	14.25
639.63	13.96
639.961	14.04
640.291	14
640.622	14.89
640.952	14.4
641.282	15.06
641.612	14.67
641.943	14.45
642.273	14.16
642.603	15.18
642.933	15.07
643.263	14.84
643.592	14.53
643.922	14.27
644.252	15.1
644.582	14.84
644.911	14.65
645.241	15.03
645.571	14.59
645.9	14.62
646.23	15.32
646.559	15.35
646.888	15.2
647.218	15.1
647.547	15.29
647.876	15.56
648.205	15.25
648.534	15.26
648.863	14.84
649.192	15.66
649.521	15.17
649.85	15.58
650.179	15.15
650.508	15.35
650.837	14.96
651.165	15.19
651.494	15.84
651.822	15.57
652.151	15.58
652.479	15.32
652.808	15.43
653.136	15.61
653.465	15.35
653.793	15.37
654.121	15.92
654.449	15.65
654.777	15.89
655.105	15.8
655.433	15.81
655.761	16.11
656.089	16.03
656.417	16.06
656.745	15.73
657.073	15.92
657.4	16.33
657.728	15.95
658.056	16.13
658.383	16.45
658.711	16.94
659.038	16.44
659.365	16.42
659.693	16.21
660.02	16.18
660.347	16.8
660.674	16.28
661.001	16.45
661.329	15.9
661.656	16.11
661.982	16.46
662.309	16.45
662.636	16.7
662.963	16.84
663.29	16.86
663.616	16.97
663.943	16.64
664.27	17.17
664.596	17.32
664.923	16.51
665.249	17.03
665.576	16.51
665.902	17.93
666.228	17.31
666.554	17.05
666.881	17.25
667.207	17.44
667.533	16.56
667.859	17.17
668.185	17.02
668.511	17.09
668.837	16.62
669.162	17.25
669.488	16.67
669.814	17.49
670.139	17.79
670.465	17.55
670.791	17.82
671.116	17.79
671.442	17.07
671.767	17.73
672.092	18.1
672.418	17.93
672.743	17.74
673.068	16.89
673.393	18.07
673.718	17.76
674.043	17.84
674.368	17.97
674.693	18.34
675.018	18.27
675.343	17.44
675.667	18.1
675.992	18.34
676.317	17.78
676.641	18.71
676.966	18.35
677.29	18.23
677.615	18.98
677.939	17.87
678.264	18.08
678.588	18.75
678.912	18.57
679.236	18.39
679.56	17.96
679.885	18.9
680.209	18.09
680.532	17.95
680.856	18.91
681.18	18.51
681.504	18.8
681.828	18.85
682.152	18.06
682.475	18.54
682.799	18.73
683.122	18.67
683.446	18.08
683.769	19.36
684.093	18.61
684.416	19.78
684.739	18.42
685.062	18.76
685.386	20.18
685.709	18.8
686.032	19.06
