Data from 0390_forehead_Reflection__2__121.txt Node

Date: Fri Dec 15 17:27:59 CST 2023
User: ToomeyLab
Spectrometer: FLMS14357
Trigger mode: 0
Integration Time (sec): 1.000000E-2
Scans to average: 100
Electric dark correction enabled: true
Nonlinearity correction enabled: false
Boxcar width: 0
XAxis mode: Wavelengths
Number of Pixels in Spectrum: 2048
>>>>>Begin Spectral Data<<<<<
189.047	-65.32
189.435	-65.32
189.823	-65.32
190.211	-107.15
190.599	1.96
190.987	40.22
191.375	24.97
191.763	-25.93
192.151	98.6
192.538	128.03
192.926	90.78
193.314	102.02
193.702	-105.27
194.089	-11.85
194.477	200.93
194.864	-17.14
195.252	142.13
195.639	152.95
196.027	-312.61
196.414	69.03
196.801	31.09
197.189	117.45
197.576	125.47
197.963	-115.19
198.351	-63.7
198.738	-11.3
199.125	58.01
199.512	-33.17
199.899	18.06
200.286	62.59
200.673	67.35
201.06	32.81
201.447	37.02
201.833	57.22
202.22	42.01
202.607	103.69
202.994	34.87
203.38	-18.32
203.767	38.6
204.154	34.69
204.54	84.12
204.927	-32.19
205.313	21.75
205.699	39.41
206.086	38.19
206.472	90.66
206.858	48
207.245	22.74
207.631	32.45
208.017	44.28
208.403	23.24
208.789	36.63
209.175	27.21
209.561	35.07
209.947	43.71
210.333	13.01
210.719	32.54
211.105	53.96
211.491	21.54
211.876	79.26
212.262	32.97
212.648	40.88
213.034	74.07
213.419	39.51
213.805	11.22
214.19	5.68
214.576	27.61
214.961	13.84
215.346	-9.35
215.732	41.21
216.117	31.36
216.502	12.28
216.888	25.31
217.273	27.97
217.658	6.47
218.043	47.9
218.428	10.19
218.813	24.53
219.198	4.09
219.583	23.54
219.968	39.81
220.353	14.25
220.738	8.4
221.122	34.61
221.507	-9.64
221.892	14.46
222.276	10.17
222.661	29.14
223.046	15.64
223.43	20
223.815	18.25
224.199	6.14
224.583	10.66
224.968	7.48
225.352	21.97
225.736	4.51
226.121	8.47
226.505	18.38
226.889	13.48
227.273	6.8
227.657	12.36
228.041	6.34
228.425	4.87
228.809	8.66
229.193	6.96
229.577	6.37
229.961	4.95
230.344	3.98
230.728	4.71
231.112	6.09
231.495	4.16
231.879	5.65
232.263	7.61
232.646	4.63
233.03	5.92
233.413	3.76
233.797	5.74
234.18	7.43
234.563	6.05
234.946	7.09
235.33	6.36
235.713	5.57
236.096	5.89
236.479	6.86
236.862	4.17
237.245	5.97
237.628	2.86
238.011	6.43
238.394	7.34
238.777	4.2
239.16	5.45
239.543	6.33
239.925	7.85
240.308	6.48
240.691	7.11
241.073	8.98
241.456	7.12
241.838	5.98
242.221	5.86
242.603	6.09
242.986	5.89
243.368	5.9
243.75	5.93
244.133	5.46
244.515	5.85
244.897	5.93
245.279	5.9
245.661	6.27
246.043	4.93
246.425	4.87
246.807	6.24
247.189	7.58
247.571	6.35
247.953	6.06
248.335	5.63
248.717	5.76
249.098	5.8
249.48	5.96
249.862	5.8
250.243	5.89
250.625	5.81
251.006	6.21
251.388	5.45
251.769	6.16
252.151	6.98
252.532	7.23
252.913	5.55
253.295	5.63
253.676	6.24
254.057	5.95
254.438	6.17
254.819	5.54
255.2	6.2
255.581	6.41
255.962	6.77
256.343	6.76
256.724	6.65
257.105	5.8
257.486	5.71
257.867	6.06
258.247	5.72
258.628	6.7
259.009	5.13
259.389	6.04
259.77	5.98
260.15	6.36
260.531	5.03
260.911	6.24
261.292	5.59
261.672	5.82
262.052	5.61
262.432	5.89
262.813	5.94
263.193	6.1
263.573	6.11
263.953	6.15
264.333	6.48
264.713	6.25
265.093	5.75
265.473	6.82
265.853	4.61
266.233	6.83
266.612	4.38
266.992	4.97
267.372	6.43
267.752	5.67
268.131	5.84
268.511	6.53
268.89	6.57
269.27	5.68
269.649	5.84
270.029	6.1
270.408	7.03
270.787	5.6
271.167	7.17
271.546	6.38
271.925	5.55
272.304	6
272.683	6.87
273.062	5.44
273.441	5.89
273.82	5.37
274.199	6.11
274.578	5.97
274.957	6.07
275.336	5.52
275.715	5.42
276.093	5.76
276.472	6.4
276.851	5.72
277.229	5.6
277.608	5.13
277.986	6.16
278.365	5.88
278.743	5.62
279.122	6.51
279.5	5.93
279.878	5.95
280.257	6.22
280.635	5.21
281.013	5.42
281.391	6.09
281.769	6.12
282.147	5.9
282.525	6.28
282.903	5.66
283.281	6.14
283.659	6.33
284.037	6.27
284.415	6.31
284.792	6.29
285.17	5.76
285.548	5.26
285.925	6.3
286.303	6.41
286.68	6.33
287.058	6
287.435	5.91
287.813	5.8
288.19	5.94
288.567	6.05
288.945	6.86
289.322	6.26
289.699	6.06
290.076	6.46
290.453	5.76
290.83	6.23
291.207	5.77
291.584	6.71
291.961	6.64
292.338	6.46
292.715	6.81
293.092	6.48
293.469	6.82
293.845	7.25
294.222	6.65
294.599	6.67
294.975	6.58
295.352	7.2
295.728	7.03
296.105	6.94
296.481	7.49
296.858	7.52
297.234	7.38
297.61	7.63
297.986	7.41
298.363	7.77
298.739	7.7
299.115	7.59
299.491	7.53
299.867	7.75
300.243	8.06
300.619	7.91
300.995	7.62
301.371	8.54
301.746	8.07
302.122	8.63
302.498	8.49
302.874	8.71
303.249	8.29
303.625	8.54
304	8.6
304.376	8.68
304.751	8.55
305.127	9.45
305.502	7.99
305.878	8.2
306.253	9.52
306.628	9.73
307.003	8.29
307.378	9.57
307.754	9.74
308.129	9.7
308.504	9.2
308.879	9.37
309.254	10.37
309.629	10.28
310.003	10.12
310.378	10.52
310.753	10.71
311.128	10.3
311.502	10.27
311.877	10.71
312.252	10.3
312.626	10.48
313.001	10.61
313.375	11.09
313.75	10.62
314.124	10.62
314.498	11.37
314.873	10.79
315.247	11.47
315.621	11.54
315.995	10.93
316.369	11.86
316.743	11.59
317.117	12.49
317.491	11.37
317.865	11.52
318.239	12.72
318.613	12.34
318.987	12.24
319.361	12.07
319.734	12.98
320.108	13.37
320.482	12.85
320.855	12.72
321.229	12.67
321.602	13.28
321.976	12.93
322.349	12.64
322.723	13.15
323.096	14.11
323.469	13.19
323.843	13.35
324.216	13.94
324.589	13.95
324.962	14.26
325.335	13.58
325.708	14.42
326.081	13.9
326.454	13.95
326.827	14.12
327.2	14.22
327.573	14.77
327.945	14.16
328.318	14.3
328.691	13.74
329.063	14.71
329.436	14.38
329.809	14.96
330.181	14.89
330.553	15.27
330.926	15.55
331.298	15.22
331.671	14.89
332.043	15.94
332.415	15.97
332.787	15.55
333.159	15.92
333.532	15.58
333.904	15.73
334.276	16.53
334.648	16.06
335.02	16.36
335.391	16.03
335.763	16.17
336.135	15.95
336.507	16.56
336.879	16.64
337.25	16
337.622	16.4
337.993	17.07
338.365	17.39
338.736	16.78
339.108	16.28
339.479	16.18
339.851	17.08
340.222	16.94
340.593	16.95
340.964	16.68
341.336	17.79
341.707	16.9
342.078	17.92
342.449	17.69
342.82	17.74
343.191	17.42
343.562	17.42
343.933	17.88
344.303	17.79
344.674	17.86
345.045	18.32
345.416	18.86
345.786	17.96
346.157	18.47
346.527	17.53
346.898	17.87
347.268	18.62
347.639	18.82
348.009	18.36
348.38	18.54
348.75	18.73
349.12	18.45
349.49	19.49
349.861	19
350.231	19.13
350.601	19.15
350.971	19.89
351.341	19.09
351.711	19.19
352.081	19.13
352.45	19.26
352.82	19.78
353.19	19.45
353.56	19.63
353.929	19.5
354.299	19.81
354.669	19.74
355.038	20.63
355.408	20.19
355.777	19.85
356.147	19.97
356.516	20.25
356.885	20.24
357.254	20.19
357.624	20.2
357.993	20.41
358.362	20.24
358.731	20.28
359.1	20.81
359.469	20.66
359.838	20.72
360.207	20.31
360.576	20.63
360.945	21.21
361.314	21.55
361.682	21.02
362.051	20.93
362.42	21.59
362.788	21.19
363.157	21.76
363.525	21.7
363.894	21.48
364.262	21.43
364.631	21.55
364.999	21.59
365.367	21.46
365.735	22.24
366.104	21.97
366.472	22.2
366.84	22.15
367.208	22.3
367.576	22.14
367.944	22.45
368.312	22.76
368.68	22.23
369.048	22.97
369.416	22.66
369.783	22.25
370.151	23.16
370.519	22.96
370.886	23.58
371.254	23.29
371.621	23.63
371.989	23.09
372.356	22.75
372.724	23.19
373.091	23.68
373.458	23.6
373.826	23.54
374.193	23.59
374.56	23.42
374.927	23.78
375.294	24.15
375.661	24.07
376.028	24.11
376.395	23.71
376.762	24.49
377.129	24.18
377.496	24.09
377.863	24.37
378.229	24.03
378.596	24.57
378.963	24.57
379.329	24.69
379.696	24.66
380.062	24.62
380.429	24.84
380.795	25.08
381.161	25.22
381.528	24.84
381.894	24.78
382.26	25.12
382.626	25.43
382.993	25.1
383.359	26.03
383.725	25.08
384.091	25.68
384.457	25.69
384.823	25.59
385.188	25.93
385.554	26.12
385.92	25.75
386.286	26.01
386.651	26.44
387.017	26.48
387.383	26.21
387.748	26.1
388.114	26.45
388.479	26.52
388.845	26.15
389.21	26.67
389.575	26.54
389.94	26.66
390.306	26.56
390.671	26.63
391.036	26.61
391.401	26.87
391.766	27.16
392.131	27.11
392.496	27.62
392.861	27.38
393.226	27.32
393.591	27.5
393.956	27.23
394.32	27.51
394.685	27.31
395.05	27.54
395.414	27.75
395.779	27.5
396.143	27.9
396.508	28.06
396.872	27.7
397.236	28.29
397.601	28.06
397.965	28.05
398.329	28.49
398.694	28.5
399.058	28.2
399.422	28.24
399.786	28.87
400.15	28.6
400.514	28.91
400.878	28.85
401.242	29.05
401.605	28.9
401.969	28.69
402.333	28.96
402.697	29.12
403.06	29.22
403.424	29.13
403.787	29.3
404.151	29.77
404.514	29.49
404.878	29.57
405.241	29.66
405.604	29.58
405.968	29.57
406.331	29.44
406.694	29.64
407.057	29.96
407.42	29.91
407.783	29.8
408.146	30.11
408.509	29.87
408.872	30.24
409.235	30.05
409.598	30.35
409.961	30.53
410.323	30.72
410.686	30.57
411.049	30.48
411.411	30.62
411.774	30.8
412.136	30.82
412.499	30.44
412.861	30.49
413.223	31
413.586	31.12
413.948	30.66
414.31	31.07
414.672	30.88
415.035	31.36
415.397	31.64
415.759	31.31
416.121	31.56
416.483	31.36
416.845	31.73
417.206	31.57
417.568	31.79
417.93	31.39
418.292	31.69
418.653	31.55
419.015	31.91
419.377	31.55
419.738	31.99
420.1	31.62
420.461	31.64
420.822	31.85
421.184	31.78
421.545	31.77
421.906	31.85
422.267	31.82
422.629	32.1
422.99	32.1
423.351	32.01
423.712	32.19
424.073	32
424.434	32.09
424.795	32.35
425.155	32.45
425.516	32.24
425.877	32.3
426.238	32.46
426.598	32.46
426.959	32.46
427.32	32.5
427.68	32.56
428.041	32.8
428.401	32.85
428.761	32.98
429.122	33.16
429.482	33.19
429.842	33.51
430.202	33.58
430.563	33.84
430.923	33.8
431.283	33.98
431.643	33.86
432.003	34.03
432.363	33.96
432.722	34.19
433.082	34.24
433.442	34.15
433.802	34.32
434.161	34.22
434.521	34.2
434.881	34.45
435.24	34.23
435.6	34.36
435.959	34.36
436.319	34.15
436.678	34.4
437.037	34.56
437.396	34.81
437.756	34.62
438.115	35
438.474	34.79
438.833	34.94
439.192	35.28
439.551	35.2
439.91	35.11
440.269	35.11
440.628	34.98
440.987	35.07
441.345	35.18
441.704	35.18
442.063	35.18
442.421	35.12
442.78	35.03
443.138	35.43
443.497	35.31
443.855	35.27
444.214	35.49
444.572	35.83
444.93	35.87
445.288	35.78
445.647	35.89
446.005	35.69
446.363	36
446.721	35.97
447.079	35.97
447.437	36.12
447.795	36.1
448.153	35.83
448.51	35.99
448.868	36
449.226	36.09
449.584	36.16
449.941	36.46
450.299	36.4
450.656	36.54
451.014	36.32
451.371	36.68
451.729	36.47
452.086	36.77
452.443	36.84
452.801	37
453.158	37.18
453.515	37.05
453.872	37.41
454.229	37.08
454.586	37.27
454.943	37.05
455.3	37.13
455.657	37.35
456.014	37.23
456.371	37.31
456.727	37.65
457.084	37.63
457.441	37.61
457.797	37.69
458.154	37.82
458.51	37.94
458.867	37.99
459.223	37.88
459.58	38.02
459.936	38.12
460.292	38.1
460.648	38.16
461.005	37.92
461.361	38.12
461.717	38.14
462.073	37.7
462.429	37.75
462.785	37.81
463.141	38.06
463.496	38.27
463.852	38.44
464.208	38.55
464.564	38.58
464.919	38.64
465.275	38.84
465.631	39.05
465.986	38.95
466.342	39.19
466.697	39.1
467.052	39.34
467.408	39.2
467.763	39.19
468.118	39.3
468.473	39.34
468.829	39.22
469.184	39.37
469.539	39.51
469.894	39.2
470.249	39.59
470.603	39.66
470.958	39.62
471.313	39.71
471.668	40.04
472.023	39.75
472.377	40.1
472.732	40.22
473.086	40.2
473.441	39.65
473.795	40.47
474.15	39.91
474.504	40.21
474.859	40.32
475.213	40.15
475.567	40.28
475.921	40.26
476.275	40.44
476.63	40.51
476.984	40.62
477.338	40.59
477.692	40.51
478.045	40.47
478.399	40.73
478.753	40.81
479.107	40.49
479.461	40.63
479.814	40.62
480.168	40.7
480.521	40.59
480.875	40.72
481.228	40.8
481.582	41.12
481.935	40.99
482.289	40.89
482.642	41.15
482.995	41.11
483.348	40.99
483.701	40.93
484.055	40.87
484.408	41.04
484.761	40.79
485.114	40.8
485.466	40.31
485.819	40.5
486.172	40.34
486.525	40.14
486.878	40.01
487.23	40.19
487.583	40.48
487.936	40.76
488.288	40.94
488.641	41.08
488.993	41.06
489.345	40.91
489.698	40.88
490.05	40.71
490.402	40.91
490.754	40.67
491.107	41.2
491.459	41.21
491.811	41.61
492.163	41.8
492.515	41.83
492.866	41.95
493.218	41.8
493.57	41.68
493.922	41.44
494.274	41.41
494.625	41.57
494.977	41.85
495.328	41.96
495.68	42.41
496.031	42.63
496.383	42.75
496.734	43.02
497.086	42.77
497.437	42.98
497.788	42.83
498.139	43.14
498.49	42.99
498.842	42.9
499.193	43.05
499.544	43.07
499.894	43.04
500.245	43.09
500.596	43.08
500.947	43.34
501.298	43.37
501.648	43.53
501.999	43.54
502.35	43.43
502.7	43.65
503.051	43.68
503.401	43.68
503.752	43.74
504.102	44.01
504.452	43.91
504.803	43.97
505.153	44.04
505.503	44.03
505.853	44.12
506.203	44.09
506.553	44.26
506.903	43.94
507.253	44.31
507.603	44.06
507.953	44.67
508.303	44.53
508.652	44.22
509.002	44.51
509.352	44.53
509.701	44.56
510.051	44.58
510.4	44.49
510.75	44.56
511.099	44.54
511.449	44.45
511.798	44.48
512.147	44.61
512.496	44.49
512.846	44.67
513.195	44.73
513.544	44.77
513.893	44.96
514.242	45.12
514.591	44.84
514.939	44.77
515.288	45.01
515.637	45.12
515.986	44.9
516.334	45.34
516.683	45.24
517.032	45.13
517.38	45.41
517.729	45.42
518.077	45.36
518.426	45.71
518.774	45.43
519.122	45.53
519.47	45.63
519.819	45.4
520.167	45.44
520.515	45.14
520.863	45.38
521.211	45.34
521.559	45.45
521.907	45.49
522.255	45.65
522.602	45.64
522.95	45.77
523.298	45.93
523.645	45.9
523.993	46.02
524.341	46.32
524.688	46.47
525.036	46.15
525.383	46.1
525.73	46.55
526.078	46.29
526.425	46.31
526.772	46.55
527.119	46.27
527.466	46.16
527.814	46.26
528.161	46.11
528.508	46.23
528.854	46.05
529.201	46.09
529.548	46.12
529.895	46.16
530.242	45.79
530.588	46.07
530.935	45.9
531.282	45.63
531.628	45.51
531.975	45.61
532.321	45.93
532.667	46.14
533.014	46.5
533.36	46.54
533.706	46.88
534.052	46.75
534.399	46.8
534.745	46.8
535.091	46.77
535.437	46.63
535.783	46.68
536.129	46.57
536.474	46.49
536.82	46.68
537.166	47.18
537.512	47.2
537.857	47.38
538.203	47.45
538.549	47.28
538.894	47.35
539.239	47.24
539.585	47.35
539.93	47.41
540.276	47.71
540.621	47.76
540.966	47.97
541.311	47.85
541.656	48.06
542.001	48.13
542.346	48.06
542.691	48.02
543.036	47.76
543.381	47.6
543.726	47.38
544.071	47.3
544.415	47.49
544.76	47.45
545.105	47.66
545.449	47.98
545.794	47.9
546.138	48.1
546.483	48
546.827	48.19
547.171	48.18
547.516	48.61
547.86	48.79
548.204	48.5
548.548	48.68
548.892	48.55
549.236	48.63
549.58	48.44
549.924	48.93
550.268	48.8
550.612	48.9
550.956	48.98
551.3	49.23
551.643	49.26
551.987	49.35
552.33	49.38
552.674	49.8
553.017	49.48
553.361	49.41
553.704	49.72
554.048	49.72
554.391	49.93
554.734	49.68
555.077	49.6
555.42	49.61
555.764	49.66
556.107	49.39
556.45	49.69
556.793	49.74
557.135	49.86
557.478	49.91
557.821	50.01
558.164	49.81
558.507	50.18
558.849	50.13
559.192	50.41
559.534	50.37
559.877	50.64
560.219	50.12
560.562	50.65
560.904	50.44
561.246	50.57
561.589	50.56
561.931	50.66
562.273	50.72
562.615	50.62
562.957	50.68
563.299	50.5
563.641	50.96
563.983	50.52
564.325	50.68
564.667	50.66
565.008	50.93
565.35	50.74
565.692	50.77
566.033	50.77
566.375	50.88
566.716	51.4
567.058	51.25
567.399	50.76
567.741	51.14
568.082	51.13
568.423	51.09
568.764	50.79
569.105	50.84
569.447	50.91
569.788	50.84
570.129	51.5
570.47	51.48
570.811	51.57
571.151	51.36
571.492	51.37
571.833	51.56
572.174	51.5
572.514	51.05
572.855	51.4
573.195	51.28
573.536	51.58
573.876	51.62
574.217	51.44
574.557	51.49
574.898	51.43
575.238	51.59
575.578	51.49
575.918	51.64
576.258	52.04
576.598	51.88
576.938	51.77
577.278	51.55
577.618	51.69
577.958	52.1
578.298	51.97
578.638	51.64
578.977	52.33
579.317	51.88
579.657	52.3
579.996	52.46
580.336	52.06
580.675	52.49
581.014	52.55
581.354	52.32
581.693	52.5
582.032	52.09
582.372	52.93
582.711	52.55
583.05	52.75
583.389	52.7
583.728	52.37
584.067	52.98
584.406	52.91
584.745	52.65
585.083	52.85
585.422	53.3
585.761	53
586.1	52.84
586.438	53.09
586.777	53.12
587.115	53.55
587.454	53.12
587.792	53.39
588.13	53.19
588.469	53.19
588.807	53.41
589.145	53.23
589.483	53.05
589.821	53.44
590.159	53.28
590.497	53.79
590.835	53.53
591.173	53.05
591.511	53.52
591.849	53.86
592.187	53.37
592.524	53.55
592.862	53.64
593.2	54
593.537	53.82
593.875	53.57
594.212	53.74
594.55	54.03
594.887	53.86
595.224	53.92
595.561	54.12
595.899	53.94
596.236	53.95
596.573	53.6
596.91	54.08
597.247	53.86
597.584	54.38
597.921	54.03
598.258	54.02
598.594	53.8
598.931	54.22
599.268	53.58
599.604	53.84
599.941	53.88
600.277	54.14
600.614	54.1
600.95	54.08
601.287	54.34
601.623	54.42
601.959	54.32
602.296	54.06
602.632	54.72
602.968	54.8
603.304	54.17
603.64	54.93
603.976	54.41
604.312	54.3
604.648	54.79
604.984	54.76
605.319	54.91
605.655	54.77
605.991	54.5
606.326	54.7
606.662	54.52
606.998	54.58
607.333	54.46
607.668	54.67
608.004	54.47
608.339	54.46
608.674	54.76
609.01	54.2
609.345	54.56
609.68	54.99
610.015	55.06
610.35	55.22
610.685	54.94
611.02	54.91
611.355	55.07
611.689	54.93
612.024	55.13
612.359	55.29
612.694	54.95
613.028	54.85
613.363	55.01
613.697	55.04
614.032	55.17
614.366	55.45
614.7	55.44
615.035	56.14
615.369	55.42
615.703	55.78
616.037	55.72
616.371	55.59
616.705	56.1
617.039	55.8
617.373	55.59
617.707	55.64
618.041	55.53
618.375	56.45
618.709	56.26
619.042	55.89
619.376	55.53
619.71	55.89
620.043	56.11
620.377	55.98
620.71	56.64
621.043	56.21
621.377	56.28
621.71	56.49
622.043	56.08
622.376	56.16
622.709	55.97
623.043	56.41
623.376	56.14
623.709	56.38
624.041	55.66
624.374	56.52
624.707	56.17
625.04	55.99
625.373	56.24
625.705	56.68
626.038	56.69
626.37	56.75
626.703	56.67
627.035	56.63
627.368	56.92
627.7	57.1
628.032	56.76
628.365	56.85
628.697	56.74
629.029	56.31
629.361	56.82
629.693	56.82
630.025	56.74
630.357	56.67
630.689	56.62
631.021	56.88
631.353	57.12
631.684	57.36
632.016	56.9
632.348	57.02
632.679	57.23
633.011	57.35
633.342	57.17
633.674	56.96
634.005	57.08
634.336	56.44
634.668	57.57
634.999	57.18
635.33	57.25
635.661	57.48
635.992	57.12
636.323	57.82
636.654	57.55
636.985	57.65
637.316	56.87
637.647	57.2
637.977	57.61
638.308	58.1
638.639	57.7
638.969	57.29
639.3	57.42
639.63	57.59
639.961	58.26
640.291	57.28
640.622	57.32
640.952	57.67
641.282	57.83
641.612	58.17
641.943	57.89
642.273	58.35
642.603	58.1
642.933	58.11
643.263	58.02
643.592	57.38
643.922	58.01
644.252	58.3
644.582	58.62
644.911	58.18
645.241	58.71
645.571	58.62
645.9	57.73
646.23	58.21
646.559	58.77
646.888	57.79
647.218	58.2
647.547	58.88
647.876	57.25
648.205	58.39
648.534	58.24
648.863	58.79
649.192	58.19
649.521	58.2
649.85	57.38
650.179	58.37
650.508	58.71
650.837	58.1
651.165	58.16
651.494	58.52
651.822	58.35
652.151	58.26
652.479	58.76
652.808	58.73
653.136	58.52
653.465	58.15
653.793	58.06
654.121	58.76
654.449	58.93
654.777	58.75
655.105	58.85
655.433	57.82
655.761	58.46
656.089	58.55
656.417	58.37
656.745	58.88
657.073	58.56
657.4	59.13
657.728	58.85
658.056	58.64
658.383	59.03
658.711	59.04
659.038	58.56
659.365	58.94
659.693	59.01
660.02	59.31
660.347	59.03
660.674	59.05
661.001	58.7
661.329	58.53
661.656	59.41
661.982	59.21
662.309	58.63
662.636	59.1
662.963	59.26
663.29	58.66
663.616	59.44
663.943	58.8
664.27	58.95
664.596	59.56
664.923	59.07
665.249	59.65
665.576	59.03
665.902	59.07
666.228	59.72
666.554	59.21
666.881	59.05
667.207	59.43
667.533	59.65
667.859	59.76
668.185	59.8
668.511	59.42
668.837	59.72
669.162	59.92
