Data from 0390_forehead_Reflection__4__123.txt Node

Date: Fri Dec 15 17:28:20 CST 2023
User: ToomeyLab
Spectrometer: FLMS14357
Trigger mode: 0
Integration Time (sec): 1.000000E-2
Scans to average: 100
Electric dark correction enabled: true
Nonlinearity correction enabled: false
Boxcar width: 0
XAxis mode: Wavelengths
Number of Pixels in Spectrum: 2048
>>>>>Begin Spectral Data<<<<<
189.047	41.17
189.435	41.17
189.823	41.17
190.211	28.69
190.599	410.56
190.987	48.74
191.375	63.04
191.763	17.82
192.151	19.27
192.538	81.79
192.926	115.02
193.314	265.25
193.702	-0.06
194.089	-42.65
194.477	32.98
194.864	188.6
195.252	160.5
195.639	186.52
196.027	-286.49
196.414	24.12
196.801	59.98
197.189	132.27
197.576	79.63
197.963	109.96
198.351	41.58
198.738	-12.33
199.125	38.08
199.512	-13.3
199.899	51.23
200.286	15.32
200.673	30.46
201.06	17.09
201.447	-38.34
201.833	5.98
202.22	29.02
202.607	76.7
202.994	8.92
203.38	83.49
203.767	12.41
204.154	41.5
204.54	71.95
204.927	8.88
205.313	16.81
205.699	34.74
206.086	33.79
206.472	38.96
206.858	24.2
207.245	-0.26
207.631	49.45
208.017	29.24
208.403	41.46
208.789	66.08
209.175	2.93
209.561	36.73
209.947	-11.65
210.333	-19.43
210.719	12.7
211.105	37.76
211.491	-2.23
211.876	53.05
212.262	88.7
212.648	23.75
213.034	77.66
213.419	-59.39
213.805	16.49
214.19	14.09
214.576	26.65
214.961	12.31
215.346	-31.69
215.732	0.02
216.117	16.35
216.502	-13.89
216.888	48.47
217.273	5.27
217.658	15.32
218.043	29.02
218.428	-14.26
218.813	-3.49
219.198	-12.43
219.583	34.87
219.968	19.92
220.353	0.01
220.738	24.6
221.122	25.16
221.507	-9.35
221.892	-2.2
222.276	-26.73
222.661	5.28
223.046	26.3
223.43	12.51
223.815	28.04
224.199	-10.35
224.583	5.38
224.968	11.04
225.352	19.11
225.736	7.8
226.121	-4.38
226.505	5.74
226.889	11.29
227.273	10.5
227.657	11.29
228.041	8.57
228.425	6.32
228.809	7.23
229.193	4.6
229.577	1.94
229.961	3.61
230.344	2.62
230.728	2.78
231.112	3.31
231.495	2.91
231.879	2.54
232.263	4.69
232.646	4.4
233.03	4.98
233.413	1.71
233.797	4.59
234.18	3.53
234.563	5.14
234.946	5.07
235.33	6.33
235.713	5.09
236.096	3.69
236.479	4.72
236.862	4.52
237.245	5.02
237.628	3.7
238.011	4.96
238.394	4.75
238.777	4.88
239.16	3.46
239.543	2.93
239.925	4.51
240.308	2.23
240.691	3.71
241.073	6.28
241.456	3.19
241.838	4.14
242.221	1.83
242.603	3.29
242.986	3.57
243.368	3.81
243.75	4.19
244.133	3.12
244.515	3.74
244.897	3.89
245.279	4.23
245.661	4.06
246.043	2.55
246.425	3.29
246.807	4.23
247.189	4.65
247.571	4.13
247.953	3.96
248.335	3.82
248.717	4.16
249.098	3.39
249.48	3.77
249.862	3.65
250.243	3.87
250.625	3.8
251.006	3.87
251.388	2.93
251.769	4.32
252.151	3.73
252.532	4.6
252.913	3.15
253.295	3.39
253.676	3.76
254.057	4.34
254.438	3.59
254.819	3.47
255.2	4.11
255.581	3.94
255.962	4.35
256.343	4.34
256.724	3.29
257.105	3.26
257.486	3.35
257.867	5.48
258.247	4.82
258.628	4.69
259.009	4.12
259.389	3.9
259.77	4.23
260.15	3.98
260.531	3.09
260.911	4.24
261.292	3.4
261.672	3.77
262.052	3.74
262.432	3.77
262.813	3.55
263.193	4.2
263.573	3.43
263.953	4.1
264.333	4.47
264.713	3.99
265.093	3.48
265.473	4.22
265.853	2.89
266.233	4.46
266.612	1.69
266.992	3.02
267.372	3.55
267.752	3.67
268.131	3.68
268.511	4.45
268.89	3.7
269.27	3.6
269.649	2.85
270.029	3.77
270.408	4.83
270.787	3.44
271.167	4.03
271.546	4.22
271.925	3.1
272.304	3.64
272.683	3.92
273.062	3.85
273.441	3.64
273.82	3.1
274.199	3.5
274.578	3.7
274.957	3.52
275.336	3.72
275.715	3.36
276.093	3.9
276.472	4.73
276.851	3.63
277.229	3.5
277.608	3.2
277.986	3.44
278.365	4.08
278.743	3.68
279.122	3.26
279.5	3.51
279.878	4.51
280.257	4.27
280.635	3.14
281.013	3.48
281.391	4.31
281.769	4.29
282.147	4.79
282.525	3.9
282.903	3.64
283.281	3.84
283.659	3.74
284.037	3.7
284.415	4.13
284.792	3.92
285.17	3.39
285.548	3.57
285.925	4.35
286.303	3.78
286.68	3.72
287.058	3.99
287.435	4.08
287.813	3.61
288.19	3.32
288.567	3.89
288.945	4.11
289.322	3.81
289.699	4.29
290.076	3.83
290.453	4.13
290.83	3.93
291.207	3.54
291.584	4.23
291.961	4.17
292.338	4.27
292.715	4.42
293.092	3.96
293.469	4.24
293.845	4.39
294.222	3.66
294.599	3.96
294.975	3.66
295.352	4.98
295.728	3.92
296.105	4.36
296.481	4.76
296.858	4.86
297.234	4.52
297.61	4.37
297.986	4.72
298.363	4.81
298.739	4.93
299.115	4.42
299.491	4.66
299.867	4.51
300.243	4.77
300.619	4.28
300.995	4.7
301.371	5.22
301.746	4.49
302.122	5.17
302.498	4.87
302.874	5.15
303.249	5.55
303.625	4.83
304	5.75
304.376	4.95
304.751	4.38
305.127	5.73
305.502	4.94
305.878	5.03
306.253	5.46
306.628	5.83
307.003	5.56
307.378	5.85
307.754	5.51
308.129	5.67
308.504	5.47
308.879	5.12
309.254	6.74
309.629	6.45
310.003	5.93
310.378	6.66
310.753	6.75
311.128	6.31
311.502	6.23
311.877	6.52
312.252	5.89
312.626	6.1
313.001	6.15
313.375	6.6
313.75	6
314.124	6.96
314.498	6.79
314.873	6.81
315.247	6.94
315.621	6.45
315.995	6.4
316.369	7.19
316.743	7.1
317.117	7.16
317.491	6.89
317.865	7.36
318.239	7.32
318.613	7.32
318.987	7.75
319.361	7.39
319.734	8
320.108	7.59
320.482	7.95
320.855	8.32
321.229	7.63
321.602	7.98
321.976	8.01
322.349	8.12
322.723	7.34
323.096	8.59
323.469	7.9
323.843	8.54
324.216	8.66
324.589	8.26
324.962	8.56
325.335	7.85
325.708	8.1
326.081	8.82
326.454	8.39
326.827	8.24
327.2	8.41
327.573	8.55
327.945	8.56
328.318	8.45
328.691	8.21
329.063	9.01
329.436	9.02
329.809	9.23
330.181	9.22
330.553	9.71
330.926	8.97
331.298	9.37
331.671	8.9
332.043	9.85
332.415	9.29
332.787	9.93
333.159	10
333.532	9.8
333.904	9.24
334.276	9.92
334.648	9.54
335.02	9.8
335.391	9.88
335.763	9.43
336.135	9.71
336.507	9.9
336.879	9.79
337.25	10.12
337.622	9.5
337.993	10.18
338.365	10.49
338.736	10.56
339.108	10.22
339.479	9.92
339.851	10.56
340.222	10.56
340.593	10.13
340.964	10.52
341.336	11.8
341.707	10.41
342.078	11.35
342.449	10.65
342.82	10.49
343.191	11.38
343.562	10.86
343.933	11.28
344.303	10.7
344.674	10.21
345.045	11.15
345.416	11.24
345.786	10.9
346.157	11.16
346.527	10.93
346.898	11
347.268	11.24
347.639	11.08
348.009	11.1
348.38	10.9
348.75	11.22
349.12	10.98
349.49	11.57
349.861	11.73
350.231	11.67
350.601	11.87
350.971	11.71
351.341	11.78
351.711	11.8
352.081	11.82
352.45	11.13
352.82	12.03
353.19	11.82
353.56	11.65
353.929	12.22
354.299	11.94
354.669	11.75
355.038	12.36
355.408	12.24
355.777	12.51
356.147	12.12
356.516	12.52
356.885	12.84
357.254	12.5
357.624	12.66
357.993	12.74
358.362	12.67
358.731	12.14
359.1	12.86
359.469	12.66
359.838	12.98
360.207	12.84
360.576	12.78
360.945	13.4
361.314	13.77
361.682	12.6
362.051	12.74
362.42	13.44
362.788	13.28
363.157	13.39
363.525	13.07
363.894	13.18
364.262	13.11
364.631	13.46
364.999	13.73
365.367	13.17
365.735	14.03
366.104	13.79
366.472	13.76
366.84	13.66
367.208	13.82
367.576	14.18
367.944	14.19
368.312	13.68
368.68	13.93
369.048	14.42
369.416	14.34
369.783	13.83
370.151	14.49
370.519	14.6
370.886	14.75
371.254	14.09
371.621	14.55
371.989	14.6
372.356	14.31
372.724	14.51
373.091	14.68
373.458	14.78
373.826	14.88
374.193	14.7
374.56	14.97
374.927	14.87
375.294	14.96
375.661	14.77
376.028	14.49
376.395	14.73
376.762	15.1
377.129	14.97
377.496	14.94
377.863	15.18
378.229	14.62
378.596	15.42
378.963	15.25
379.329	15.15
379.696	15.26
380.062	15.32
380.429	15.49
380.795	15.39
381.161	15.58
381.528	15.97
381.894	15.63
382.26	15.61
382.626	16.05
382.993	15.52
383.359	15.92
383.725	15.65
384.091	15.48
384.457	15.98
384.823	15.77
385.188	15.85
385.554	15.99
385.92	16.4
386.286	16.1
386.651	16.26
387.017	16.62
387.383	16.41
387.748	16.08
388.114	16.42
388.479	16.34
388.845	16.58
389.21	16.71
389.575	16.59
389.94	16.47
390.306	16.6
390.671	16.78
391.036	16.48
391.401	16.7
391.766	16.94
392.131	16.86
392.496	16.93
392.861	17.06
393.226	17.06
393.591	17.16
393.956	16.76
394.32	17.04
394.685	17.27
395.05	16.93
395.414	17.29
395.779	17
396.143	17.36
396.508	17.44
396.872	17.43
397.236	17.31
397.601	17.61
397.965	17.41
398.329	17.92
398.694	17.66
399.058	17.6
399.422	17.68
399.786	18.06
400.15	18.06
400.514	17.85
400.878	18.03
401.242	18.06
401.605	17.98
401.969	18.04
402.333	18.09
402.697	17.91
403.06	18.21
403.424	18.18
403.787	18.4
404.151	18.51
404.514	18.36
404.878	18.18
405.241	18.55
405.604	18.57
405.968	18.31
406.331	18.23
406.694	18.81
407.057	18.72
407.42	18.99
407.783	18.71
408.146	18.77
408.509	18.45
408.872	18.85
409.235	19.12
409.598	19.25
409.961	19.23
410.323	19.24
410.686	19.31
411.049	18.89
411.411	19.26
411.774	19.11
412.136	19.36
412.499	19.19
412.861	19.22
413.223	19.4
413.586	19.26
413.948	19.45
414.31	19.62
414.672	19.56
415.035	19.58
415.397	19.91
415.759	19.74
416.121	19.58
416.483	19.72
416.845	19.63
417.206	19.65
417.568	19.84
417.93	19.64
418.292	19.75
418.653	19.75
419.015	19.9
419.377	20.03
419.738	19.94
420.1	19.85
420.461	19.99
420.822	19.88
421.184	19.75
421.545	19.94
421.906	19.89
422.267	19.86
422.629	19.99
422.99	19.94
423.351	19.98
423.712	20.23
424.073	20.26
424.434	20.15
424.795	20.21
425.155	20.26
425.516	20.35
425.877	20.31
426.238	20.42
426.598	20.47
426.959	20.62
427.32	20.37
427.68	20.6
428.041	20.66
428.401	20.87
428.761	20.56
429.122	20.73
429.482	20.89
429.842	21.15
430.202	20.98
430.563	21.23
430.923	21.11
431.283	21.29
431.643	21.31
432.003	21.43
432.363	21.5
432.722	21.46
433.082	21.32
433.442	21.56
433.802	21.48
434.161	21.51
434.521	21.45
434.881	21.63
435.24	21.53
435.6	21.44
435.959	21.54
436.319	21.54
436.678	21.8
437.037	21.73
437.396	22.15
437.756	21.73
438.115	21.86
438.474	22.17
438.833	21.85
439.192	22.01
439.551	22.23
439.91	21.86
440.269	22.14
440.628	22.01
440.987	22.07
441.345	22.17
441.704	22.19
442.063	22.3
442.421	22.13
442.78	22.18
443.138	22.19
443.497	22.22
443.855	22.35
444.214	22.33
444.572	22.57
444.93	22.6
445.288	22.57
445.647	22.94
446.005	22.64
446.363	22.58
446.721	22.65
447.079	22.52
447.437	22.85
447.795	22.77
448.153	22.5
448.51	22.5
448.868	22.62
449.226	22.69
449.584	22.73
449.941	22.94
450.299	23.12
450.656	22.86
451.014	23.14
451.371	23.08
451.729	23.21
452.086	23.49
452.443	23.39
452.801	23.44
453.158	23.52
453.515	23.31
453.872	23.55
454.229	23.49
454.586	23.55
454.943	23.49
455.3	23.64
455.657	23.72
456.014	23.73
456.371	23.85
456.727	23.85
457.084	23.78
457.441	23.78
457.797	23.93
458.154	24.23
458.51	24.18
458.867	24.36
459.223	24.31
459.58	24.33
459.936	24.12
460.292	24.21
460.648	24.08
461.005	24.04
461.361	24.14
461.717	23.95
462.073	23.93
462.429	23.94
462.785	23.99
463.141	24.38
463.496	24.42
463.852	24.41
464.208	24.46
464.564	24.41
464.919	24.74
465.275	24.83
465.631	24.99
465.986	24.78
466.342	24.71
466.697	24.58
467.052	24.79
467.408	25.06
467.763	25.15
468.118	24.95
468.473	24.89
468.829	24.93
469.184	25.03
469.539	24.95
469.894	24.98
470.249	25.4
470.603	25.21
470.958	25.32
471.313	25.62
471.668	25.24
472.023	25.34
472.377	25.24
472.732	25.3
473.086	25.17
473.441	25.06
473.795	25.64
474.15	25.35
474.504	25.49
474.859	25.47
475.213	25.55
475.567	25.46
475.921	25.74
476.275	26
476.63	25.89
476.984	26.11
477.338	25.9
477.692	26.01
478.045	25.67
478.399	25.86
478.753	25.97
479.107	25.88
479.461	25.87
479.814	26.03
480.168	25.92
480.521	25.84
480.875	25.87
481.228	25.9
481.582	25.97
481.935	26.24
482.289	25.98
482.642	26.01
482.995	26.08
483.348	25.86
483.701	25.95
484.055	25.95
484.408	25.94
484.761	25.7
485.114	25.39
485.466	25.12
485.819	25.13
486.172	25.25
486.525	25.29
486.878	25.38
487.23	25.56
487.583	25.76
487.936	25.94
488.288	26.04
488.641	25.96
488.993	25.72
489.345	25.68
489.698	25.67
490.05	25.58
490.402	25.82
490.754	25.78
491.107	26.14
491.459	26.28
491.811	26.36
492.163	26.45
492.515	26.63
492.866	26.32
493.218	26.11
493.57	26.04
493.922	26.03
494.274	26.28
494.625	26.45
494.977	26.76
495.328	26.81
495.68	26.95
496.031	27.25
496.383	26.98
496.734	27.37
497.086	27.37
497.437	27.2
497.788	27.44
498.139	27.34
498.49	27.37
498.842	27.1
499.193	27.27
499.544	27.36
499.894	27.42
500.245	27.43
500.596	27.49
500.947	27.52
501.298	27.44
501.648	27.85
501.999	27.91
502.35	27.75
502.7	27.69
503.051	27.76
503.401	27.87
503.752	27.89
504.102	27.9
504.452	27.91
504.803	28.12
505.153	28.07
505.503	28.17
505.853	28.05
506.203	28.01
506.553	28
506.903	27.89
507.253	28.02
507.603	28.09
507.953	28.24
508.303	28.53
508.652	28.24
509.002	28.29
509.352	28.24
509.701	28.15
510.051	28.34
510.4	28.27
510.75	28.37
511.099	28.33
511.449	28.3
511.798	28.34
512.147	28.41
512.496	28.38
512.846	28.35
513.195	28.65
513.544	28.5
513.893	28.51
514.242	28.54
514.591	28.65
514.939	28.62
515.288	28.42
515.637	28.87
515.986	28.66
516.334	28.75
516.683	28.74
517.032	28.92
517.38	28.87
517.729	28.93
518.077	28.78
518.426	28.94
518.774	28.91
519.122	29.04
519.47	28.7
519.819	28.68
520.167	28.79
520.515	28.53
520.863	28.5
521.211	28.78
521.559	28.87
521.907	28.85
522.255	28.89
522.602	29.09
522.95	29.05
523.298	29.22
523.645	29.17
523.993	29.45
524.341	29.57
524.688	29.32
525.036	29.27
525.383	29.5
525.73	29.44
526.078	29.2
526.425	29.38
526.772	29.38
527.119	29.39
527.466	29.05
527.814	29.11
528.161	29.13
528.508	29.16
528.854	29.32
529.201	29.33
529.548	29.15
529.895	28.94
530.242	28.51
530.588	28.61
530.935	28.65
531.282	28.78
531.628	28.82
531.975	28.99
532.321	29.19
532.667	29.33
533.014	29.48
533.36	29.62
533.706	29.61
534.052	29.64
534.399	29.48
534.745	29.24
535.091	29.25
535.437	29.18
535.783	29.32
536.129	29.43
536.474	29.62
536.82	29.83
537.166	30.06
537.512	29.82
537.857	30
538.203	29.98
538.549	29.86
538.894	29.94
539.239	30.04
539.585	29.98
539.93	30.21
540.276	30.41
540.621	30.47
540.966	30.45
541.311	30.6
541.656	30.32
542.001	30.42
542.346	30.3
542.691	29.97
543.036	29.72
543.381	29.58
543.726	29.77
544.071	29.91
544.415	30.02
544.76	30.02
545.105	30.19
545.449	30.37
545.794	30.55
546.138	30.56
546.483	30.72
546.827	30.66
547.171	30.77
547.516	30.84
547.86	30.7
548.204	30.72
548.548	30.55
548.892	30.74
549.236	30.8
549.58	30.79
549.924	31
550.268	31.11
550.612	31.33
550.956	31.23
551.3	31.25
551.643	31.3
551.987	31.4
552.33	31.5
552.674	31.39
553.017	31.38
553.361	31.29
553.704	31.49
554.048	31.57
554.391	31.49
554.734	31.47
555.077	31.56
555.42	31.35
555.764	31.45
556.107	31.2
556.45	31.58
556.793	31.49
557.135	31.9
557.478	32.05
557.821	31.8
558.164	31.97
558.507	31.83
558.849	31.75
559.192	31.85
559.534	31.7
559.877	32.09
560.219	31.95
560.562	32.28
560.904	31.94
561.246	32.08
561.589	32.03
561.931	31.91
562.273	31.87
562.615	32.17
562.957	31.91
563.299	31.96
563.641	32.1
563.983	32.05
564.325	31.82
564.667	32.25
565.008	32.21
565.35	32.39
565.692	32.03
566.033	32.26
566.375	32.2
566.716	32.66
567.058	32.25
567.399	32.33
567.741	32.07
568.082	32.24
568.423	32.14
568.764	32.14
569.105	32.33
569.447	32.38
569.788	32.17
570.129	32.53
570.47	32.49
570.811	32.91
571.151	32.64
571.492	32.47
571.833	32.5
572.174	32.6
572.514	32.53
572.855	32.63
573.195	32.53
573.536	32.64
573.876	32.55
574.217	32.57
574.557	32.81
574.898	32.76
575.238	32.64
575.578	32.71
575.918	32.86
576.258	32.77
576.598	32.6
576.938	32.86
577.278	32.73
577.618	32.83
577.958	32.95
578.298	32.61
578.638	32.77
578.977	32.9
579.317	32.88
579.657	33.17
579.996	33.18
580.336	33.38
580.675	33.57
581.014	33.14
581.354	33.36
581.693	33.33
582.032	32.97
582.372	33.41
582.711	33.31
583.05	33.31
583.389	33.2
583.728	33.29
584.067	33.48
584.406	33.78
584.745	33.88
585.083	33.56
585.422	33.86
585.761	33.72
586.1	33.66
586.438	33.6
586.777	33.74
587.115	33.76
587.454	33.47
587.792	33.85
588.13	33.56
588.469	33.34
588.807	33.68
589.145	33.32
589.483	33.77
589.821	33.59
590.159	33.64
590.497	34.37
590.835	33.89
591.173	33.51
591.511	33.48
591.849	33.85
592.187	34.25
592.524	33.97
592.862	34.01
593.2	34.16
593.537	34.48
593.875	33.95
594.212	33.88
594.55	34
594.887	34.2
595.224	34.28
595.561	33.89
595.899	34.22
596.236	34.23
596.573	33.91
596.91	33.76
597.247	33.64
597.584	34.58
597.921	34.46
598.258	34.28
598.594	34.25
598.931	33.99
599.268	34.08
599.604	34.02
599.941	34.25
600.277	34.45
600.614	34.22
600.95	34.24
601.287	34.65
601.623	34.31
601.959	34.32
602.296	34.66
602.632	34.64
602.968	34.51
603.304	34.38
603.64	34.65
603.976	34.74
604.312	34.76
604.648	34.42
604.984	34.27
605.319	34.42
605.655	34.49
605.991	34.55
606.326	34.51
606.662	34.28
606.998	34.28
607.333	34.48
607.668	34.32
608.004	34.79
608.339	34.85
608.674	34.85
609.01	34.56
609.345	34.84
609.68	34.75
610.015	34.83
610.35	34.46
610.685	34.89
611.02	34.8
611.355	34.75
611.689	34.51
612.024	34.99
612.359	34.68
612.694	34.93
613.028	34.73
613.363	35.05
613.697	35.18
614.032	34.79
614.366	34.77
614.7	35.08
615.035	35.28
615.369	35.14
615.703	35.39
616.037	35.11
616.371	34.71
616.705	35.04
617.039	35.34
617.373	35.17
617.707	35.11
618.041	34.66
618.375	35.66
618.709	35.65
619.042	35.47
619.376	35.49
619.71	35.29
620.043	35.2
620.377	35.33
620.71	35.85
621.043	35.27
621.377	35.71
621.71	35.53
622.043	35.59
622.376	35.26
622.709	35.52
623.043	35.5
623.376	35.5
623.709	35.66
624.041	35.84
624.374	35.81
624.707	35.79
625.04	35.8
625.373	35.71
625.705	35.73
626.038	35.96
626.37	36.25
626.703	35.85
627.035	35.83
627.368	35.92
627.7	35.58
628.032	35.47
628.365	35.99
628.697	35.84
629.029	35.31
629.361	35.8
629.693	36.02
630.025	35.93
630.357	36.1
630.689	35.82
631.021	35.9
631.353	35.63
631.684	35.93
632.016	35.65
632.348	35.85
632.679	35.97
633.011	35.96
633.342	36.3
633.674	36.33
634.005	36.51
634.336	36.03
634.668	35.9
634.999	36.02
635.33	35.98
635.661	36.16
635.992	36.22
636.323	36.12
636.654	36.2
636.985	36.55
637.316	35.94
637.647	35.74
637.977	36.03
638.308	36.4
638.639	36.23
638.969	36.32
639.3	36.14
639.63	35.92
639.961	36.04
640.291	36.24
640.622	36.85
640.952	36.42
641.282	36.55
641.612	36.61
641.943	36.57
642.273	36.53
642.603	36.63
642.933	37.38
643.263	36.73
643.592	36.33
643.922	36.6
644.252	36.09
644.582	36.78
644.911	36.84
645.241	37.16
645.571	36.45
645.9	36.49
646.23	36.73
646.559	37.25
646.888	36.63
647.218	36.65
647.547	36.92
647.876	36.15
648.205	36.9
648.534	36.63
648.863	36.57
649.192	36.86
649.521	37.07
649.85	36.71
650.179	36.54
650.508	37.17
650.837	36.66
651.165	36.25
651.494	36.42
651.822	37.26
652.151	36.64
652.479	37.34
652.808	36.7
653.136	36.96
653.465	36.49
653.793	36.67
654.121	36.47
654.449	36.95
654.777	36.92
655.105	36.98
655.433	36.7
655.761	36.98
656.089	36.38
656.417	37.26
656.745	37.17
657.073	37.19
657.4	37.48
657.728	37.23
658.056	37.53
658.383	37.57
658.711	37.18
659.038	37.29
659.365	37.6
659.693	37.32
660.02	37.22
660.347	37.15
660.674	37.19
661.001	37.11
661.329	36.47
661.656	37.12
661.982	37.2
662.309	36.63
662.636	37.04
662.963	37.39
663.29	37.14
663.616	37.43
663.943	37.94
664.27	36.95
664.596	37.72
664.923	37.72
665.249	37.94
665.576	37.78
665.902	37.64
666.228	37.65
666.554	37.51
666.881	36.46
667.207	37.7
667.533	38.22
667.859	37.85
668.185	37.73
668.511	36.97
668.837	37.33
669.162	37.59
669.488	37.62
669.814	37.84
670.139	37.56
670.465	37.9
