Data from 0390_crown_Reflection__4__118.txt Node

Date: Fri Dec 15 17:27:09 CST 2023
User: ToomeyLab
Spectrometer: FLMS14357
Trigger mode: 0
Integration Time (sec): 1.000000E-2
Scans to average: 100
Electric dark correction enabled: true
Nonlinearity correction enabled: false
Boxcar width: 0
XAxis mode: Wavelengths
Number of Pixels in Spectrum: 2048
>>>>>Begin Spectral Data<<<<<
189.047	35.7
189.435	35.7
189.823	35.7
190.211	146.86
190.599	38.16
190.987	257.78
191.375	-39.67
191.763	191.89
192.151	75.66
192.538	112.18
192.926	-76.78
193.314	118.74
193.702	-37.94
194.089	23.99
194.477	14.75
194.864	90.5
195.252	160.58
195.639	207.15
196.027	-134.83
196.414	70.02
196.801	36.48
197.189	56.44
197.576	47.69
197.963	156.91
198.351	-62.37
198.738	28.67
199.125	19.57
199.512	-9.77
199.899	-6.51
200.286	12.96
200.673	-11.94
201.06	-44.81
201.447	20.76
201.833	-1.83
202.22	12.58
202.607	57.68
202.994	-10.3
203.38	3.49
203.767	41.21
204.154	17.93
204.54	44.25
204.927	-59.27
205.313	-19.32
205.699	45.31
206.086	41.82
206.472	10.32
206.858	5.91
207.245	-87.03
207.631	30.29
208.017	17.43
208.403	2.36
208.789	6.78
209.175	19.75
209.561	-23.89
209.947	-20.89
210.333	-24.01
210.719	22.76
211.105	9.47
211.491	-32.48
211.876	49.93
212.262	40.22
212.648	27.86
213.034	68.31
213.419	23.69
213.805	-17.27
214.19	-43.43
214.576	-0.02
214.961	28.34
215.346	-58.78
215.732	43.6
216.117	9.37
216.502	7.07
216.888	-7.84
217.273	39.4
217.658	3.83
218.043	3.6
218.428	-1.43
218.813	-45.61
219.198	-26.96
219.583	-10.57
219.968	-5.82
220.353	14.9
220.738	29.26
221.122	11.92
221.507	-18.14
221.892	-42.56
222.276	-14.02
222.661	1.32
223.046	15.02
223.43	17.21
223.815	-1.27
224.199	-8.73
224.583	4.67
224.968	-3.27
225.352	16.65
225.736	4.04
226.121	-6.48
226.505	3.98
226.889	9.73
227.273	2.91
227.657	13.76
228.041	3.34
228.425	0.09
228.809	7.33
229.193	5.16
229.577	4.94
229.961	6.75
230.344	5.13
230.728	4.85
231.112	6.66
231.495	5.89
231.879	5.36
232.263	6.22
232.646	5.38
233.03	6.19
233.413	3.95
233.797	4.46
234.18	4.57
234.563	4.13
234.946	6.44
235.33	7.42
235.713	7.95
236.096	5.26
236.479	5.63
236.862	5.45
237.245	6.02
237.628	5.65
238.011	7.14
238.394	6.5
238.777	7.28
239.16	3.88
239.543	6.41
239.925	6.78
240.308	5.85
240.691	6.81
241.073	4.14
241.456	5.49
241.838	4.75
242.221	5.54
242.603	6
242.986	5.69
243.368	5.45
243.75	5.78
244.133	5.24
244.515	5.59
244.897	6.12
245.279	5.46
245.661	5.32
246.043	5.45
246.425	5.07
246.807	6.32
247.189	5.5
247.571	5.7
247.953	5.22
248.335	5.22
248.717	5.24
249.098	5.39
249.48	5.36
249.862	5.89
250.243	5.77
250.625	5.34
251.006	5.33
251.388	4.4
251.769	5.5
252.151	5.75
252.532	5.3
252.913	4.69
253.295	4.44
253.676	4.99
254.057	5.22
254.438	5.42
254.819	5.14
255.2	5.15
255.581	5.27
255.962	5.18
256.343	5.65
256.724	4.09
257.105	4.75
257.486	3.87
257.867	5.02
258.247	5.93
258.628	4.95
259.009	4.63
259.389	4.29
259.77	4.3
260.15	5.01
260.531	4.25
260.911	5.09
261.292	4.85
261.672	5.11
262.052	4.89
262.432	5.38
262.813	5.22
263.193	4.45
263.573	4.33
263.953	4.02
264.333	4.66
264.713	5.02
265.093	3.99
265.473	5.2
265.853	3.49
266.233	4.38
266.612	2.44
266.992	3.38
267.372	4.31
267.752	4.05
268.131	4.11
268.511	5.25
268.89	5.07
269.27	4.36
269.649	4.5
270.029	4.65
270.408	5.08
270.787	5.54
271.167	4.84
271.546	5.48
271.925	4.27
272.304	4.86
272.683	5.06
273.062	3.9
273.441	4.75
273.82	4.05
274.199	4.51
274.578	4.86
274.957	4.59
275.336	4.71
275.715	4.34
276.093	4.22
276.472	4.46
276.851	4.14
277.229	4.35
277.608	4.3
277.986	4.22
278.365	4.36
278.743	3.97
279.122	4.64
279.5	4.97
279.878	5.04
280.257	3.99
280.635	4.08
281.013	4.36
281.391	4.7
281.769	5.01
282.147	4.87
282.525	4.77
282.903	4.67
283.281	4.34
283.659	4.86
284.037	4.37
284.415	4.59
284.792	4.72
285.17	3.74
285.548	4.01
285.925	4.21
286.303	4.32
286.68	4.04
287.058	4.61
287.435	4.37
287.813	4.34
288.19	4.48
288.567	4.1
288.945	4.57
289.322	4.16
289.699	3.91
290.076	4.41
290.453	4.44
290.83	4.04
291.207	3.75
291.584	3.98
291.961	4.63
292.338	3.84
292.715	4.77
293.092	4.48
293.469	4.02
293.845	3.99
294.222	4
294.599	4.67
294.975	4.07
295.352	4.49
295.728	4.26
296.105	4.08
296.481	4.8
296.858	4.54
297.234	4.05
297.61	3.69
297.986	3.92
298.363	4.4
298.739	4.49
299.115	4.11
299.491	3.76
299.867	4.06
300.243	4.33
300.619	3.91
300.995	3.85
301.371	4.74
301.746	4.1
302.122	4.34
302.498	4.28
302.874	4.3
303.249	4.27
303.625	4.37
304	4.13
304.376	4.93
304.751	3.89
305.127	5.31
305.502	4.08
305.878	3.16
306.253	3.92
306.628	4.92
307.003	3.9
307.378	3.74
307.754	4.1
308.129	3.47
308.504	3.88
308.879	3.81
309.254	5.21
309.629	4.18
310.003	4.18
310.378	4.19
310.753	4.79
311.128	4.19
311.502	3.98
311.877	4.21
312.252	3.73
312.626	3.77
313.001	4.12
313.375	4.3
313.75	3.64
314.124	4.14
314.498	3.93
314.873	3.9
315.247	4.45
315.621	3.91
315.995	3.09
316.369	4.23
316.743	3.92
317.117	3.95
317.491	3.7
317.865	4.02
318.239	3.62
318.613	4.73
318.987	3.94
319.361	3.81
319.734	4.42
320.108	4.57
320.482	3.85
320.855	4.1
321.229	3.98
321.602	4.46
321.976	4.27
322.349	3.87
322.723	4.03
323.096	4.55
323.469	3.31
323.843	4.14
324.216	4.89
324.589	3.85
324.962	3.74
325.335	3.37
325.708	4.36
326.081	3.94
326.454	4.27
326.827	3.8
327.2	3.96
327.573	4.5
327.945	4.36
328.318	3.43
328.691	3.52
329.063	4.51
329.436	3.83
329.809	4.6
330.181	3.77
330.553	4.17
330.926	4.18
331.298	4.06
331.671	4.12
332.043	4.62
332.415	4.91
332.787	4.88
333.159	5.42
333.532	4.65
333.904	4.44
334.276	4.17
334.648	4.14
335.02	4.23
335.391	3.98
335.763	4.11
336.135	4.28
336.507	4.66
336.879	4.18
337.25	3.71
337.622	4.23
337.993	3.98
338.365	4.28
338.736	4.22
339.108	4.31
339.479	3.93
339.851	4.5
340.222	4.27
340.593	3.93
340.964	4.09
341.336	4.83
341.707	3.82
342.078	4.32
342.449	4.62
342.82	4.23
343.191	4.26
343.562	4.46
343.933	4.38
344.303	4.27
344.674	4.89
345.045	4.2
345.416	4.71
345.786	4.16
346.157	4.7
346.527	4.12
346.898	4.33
347.268	4.27
347.639	4.03
348.009	4.57
348.38	4.24
348.75	4.24
349.12	3.88
349.49	4.83
349.861	4.4
350.231	4.17
350.601	4.34
350.971	4.89
351.341	4.13
351.711	4.29
352.081	4.61
352.45	4.26
352.82	4.59
353.19	4.58
353.56	4.27
353.929	4.63
354.299	4.2
354.669	3.85
355.038	4.34
355.408	4.4
355.777	4.34
356.147	4.49
356.516	4.31
356.885	4.88
357.254	4.26
357.624	4.7
357.993	4.51
358.362	4.12
358.731	4.19
359.1	4.2
359.469	4.27
359.838	4.49
360.207	4.11
360.576	4.3
360.945	4.42
361.314	4.79
361.682	4.64
362.051	4.3
362.42	4.6
362.788	4.28
363.157	4.52
363.525	4.61
363.894	4.66
364.262	4.8
364.631	4.53
364.999	4.68
365.367	3.91
365.735	5.23
366.104	4.67
366.472	4.71
366.84	4.05
367.208	4.4
367.576	4.83
367.944	4.8
368.312	4.26
368.68	4.4
369.048	4.63
369.416	4.68
369.783	4.39
370.151	4.95
370.519	4.87
370.886	4.84
371.254	4.68
371.621	4.74
371.989	4.8
372.356	4.46
372.724	4.85
373.091	4.21
373.458	4.41
373.826	4.41
374.193	4.67
374.56	4.83
374.927	5.19
375.294	4.42
375.661	4.38
376.028	4.45
376.395	4.3
376.762	4.86
377.129	4.49
377.496	4.78
377.863	4.36
378.229	4.11
378.596	4.91
378.963	4.81
379.329	4.73
379.696	4.7
380.062	4.37
380.429	4.81
380.795	4.4
381.161	4.78
381.528	5.17
381.894	4.56
382.26	4.72
382.626	4.93
382.993	4.54
383.359	5.09
383.725	4.58
384.091	4.86
384.457	5.01
384.823	4.88
385.188	4.65
385.554	4.49
385.92	4.97
386.286	5.07
386.651	4.89
387.017	5.28
387.383	4.66
387.748	4.93
388.114	5.09
388.479	4.71
388.845	4.86
389.21	4.9
389.575	5
389.94	4.73
390.306	4.9
390.671	5.13
391.036	4.59
391.401	4.5
391.766	4.66
392.131	4.78
392.496	4.94
392.861	4.86
393.226	4.86
393.591	4.98
393.956	4.72
394.32	4.88
394.685	4.55
395.05	4.75
395.414	4.85
395.779	4.78
396.143	4.86
396.508	5.01
396.872	5.09
397.236	4.83
397.601	4.63
397.965	4.89
398.329	4.93
398.694	5.03
399.058	4.97
399.422	4.63
399.786	5.09
400.15	5.03
400.514	4.85
400.878	4.92
401.242	5.2
401.605	5.02
401.969	4.77
402.333	4.97
402.697	5.08
403.06	4.88
403.424	4.92
403.787	4.7
404.151	5.06
404.514	5.05
404.878	4.82
405.241	5.2
405.604	5.01
405.968	5.04
406.331	4.75
406.694	5.1
407.057	5.17
407.42	4.88
407.783	4.99
408.146	5.05
408.509	4.87
408.872	4.77
409.235	5.01
409.598	5.2
409.961	4.92
410.323	4.93
410.686	4.93
411.049	4.69
411.411	4.98
411.774	5.04
412.136	5.09
412.499	4.73
412.861	5.14
413.223	4.91
413.586	4.85
413.948	4.93
414.31	4.85
414.672	4.89
415.035	4.93
415.397	5.1
415.759	4.77
416.121	4.99
416.483	4.84
416.845	4.83
417.206	5.06
417.568	4.95
417.93	4.64
418.292	4.85
418.653	4.95
419.015	5.1
419.377	4.94
419.738	5.08
420.1	5.01
420.461	4.96
420.822	5.08
421.184	4.89
421.545	4.99
421.906	4.87
422.267	4.89
422.629	4.97
422.99	4.92
423.351	4.82
423.712	4.88
424.073	5.08
424.434	4.95
424.795	4.88
425.155	4.97
425.516	4.88
425.877	4.73
426.238	4.84
426.598	5.02
426.959	4.98
427.32	4.87
427.68	4.93
428.041	4.99
428.401	5.1
428.761	5
429.122	5.16
429.482	4.96
429.842	5.14
430.202	5.06
430.563	5.24
430.923	4.97
431.283	5.12
431.643	5.06
432.003	5.06
432.363	5.02
432.722	4.96
433.082	4.98
433.442	5.18
433.802	4.97
434.161	5.06
434.521	5.27
434.881	5.06
435.24	4.87
435.6	4.92
435.959	4.96
436.319	5.04
436.678	5.11
437.037	5.04
437.396	5.25
437.756	5.15
438.115	5.06
438.474	5.04
438.833	5.08
439.192	4.89
439.551	5.17
439.91	4.99
440.269	4.99
440.628	5.02
440.987	5.01
441.345	4.78
441.704	4.87
442.063	4.94
442.421	5.11
442.78	5.01
443.138	5
443.497	5.05
443.855	4.94
444.214	5.16
444.572	5.05
444.93	4.99
445.288	5.13
445.647	4.97
446.005	4.99
446.363	5.23
446.721	5.09
447.079	4.9
447.437	5
447.795	5.05
448.153	4.89
448.51	5
448.868	4.96
449.226	4.98
449.584	5.07
449.941	5.1
450.299	5.13
450.656	4.98
451.014	5.1
451.371	5.11
451.729	5
452.086	5.33
452.443	5.35
452.801	5.3
453.158	5.25
453.515	5.04
453.872	5.04
454.229	4.92
454.586	4.99
454.943	5.33
455.3	5.14
455.657	5.05
456.014	4.94
456.371	5.07
456.727	5.02
457.084	5.22
457.441	5.05
457.797	5.04
458.154	5.26
458.51	5.33
458.867	5.16
459.223	5.26
459.58	5.25
459.936	5.16
460.292	5.15
460.648	5.02
461.005	5.09
461.361	5.08
461.717	5.15
462.073	4.93
462.429	5.14
462.785	5.09
463.141	5.1
463.496	5.27
463.852	5.29
464.208	5.37
464.564	5.27
464.919	5.26
465.275	5.25
465.631	5.49
465.986	5.2
466.342	5.22
466.697	5.05
467.052	5.37
467.408	5.22
467.763	5.07
468.118	5.23
468.473	4.97
468.829	5.09
469.184	5.2
469.539	5.21
469.894	5.06
470.249	5.61
470.603	5.29
470.958	5.21
471.313	5.21
471.668	5.19
472.023	5.15
472.377	5.12
472.732	5.32
473.086	5.24
473.441	4.94
473.795	5.12
474.15	5.09
474.504	5.17
474.859	5.34
475.213	5.34
475.567	5.19
475.921	4.99
476.275	5.4
476.63	5.19
476.984	5.35
477.338	5.14
477.692	5.11
478.045	5
478.399	5.36
478.753	5.19
479.107	5.21
479.461	5.15
479.814	5.22
480.168	5.27
480.521	5.11
480.875	5.15
481.228	5.08
481.582	5.23
481.935	5.13
482.289	5.16
482.642	5.15
482.995	5.11
483.348	5.14
483.701	5.09
484.055	5.14
484.408	5.17
484.761	4.97
485.114	4.88
485.466	4.7
485.819	4.67
486.172	4.81
486.525	4.95
486.878	5.06
487.23	5.1
487.583	5.12
487.936	5.09
488.288	5.09
488.641	5.04
488.993	4.85
489.345	4.81
489.698	4.9
490.05	4.88
490.402	5.01
490.754	5.05
491.107	5.14
491.459	5.21
491.811	5.16
492.163	5.16
492.515	5.04
492.866	5.07
493.218	4.94
493.57	4.84
493.922	4.9
494.274	5.06
494.625	5.28
494.977	5.25
495.328	5.39
495.68	5.2
496.031	5.29
496.383	5.3
496.734	5.3
497.086	5.18
497.437	5.24
497.788	5.19
498.139	5.06
498.49	5.18
498.842	4.95
499.193	5.14
499.544	5.13
499.894	5.21
500.245	5.23
500.596	5.15
500.947	5.38
501.298	5.14
501.648	5.29
501.999	5.31
502.35	5.23
502.7	5.26
503.051	4.88
503.401	5.22
503.752	5.35
504.102	5.11
504.452	5.11
504.803	5.02
505.153	5.21
505.503	5.2
505.853	5.23
506.203	5.11
506.553	5.2
506.903	5.19
507.253	5.28
507.603	5.2
507.953	5.18
508.303	5.34
508.652	5.07
509.002	5.34
509.352	5.36
509.701	5.22
510.051	5.16
510.4	5.17
510.75	5.08
511.099	5.06
511.449	5.03
511.798	5.15
512.147	5.17
512.496	5.14
512.846	5.16
513.195	5.2
513.544	5.09
513.893	5.28
514.242	5.14
514.591	5.37
514.939	5.15
515.288	5.21
515.637	5.28
515.986	5.25
516.334	5.21
516.683	5.28
517.032	5.18
517.38	5.3
517.729	5.3
518.077	5.13
518.426	5.27
518.774	5.28
519.122	5.21
519.47	5.12
519.819	5
520.167	4.92
520.515	5.07
520.863	5.18
521.211	5.12
521.559	5.23
521.907	5.14
522.255	5.22
522.602	5.21
522.95	5.07
523.298	5.17
523.645	5.26
523.993	5.27
524.341	5.21
524.688	5.29
525.036	5.17
525.383	5.3
525.73	5.34
526.078	5.1
526.425	5.04
526.772	5.11
527.119	5.05
527.466	5
527.814	4.99
528.161	5.05
528.508	5.11
528.854	5.14
529.201	5.03
529.548	4.94
529.895	4.89
530.242	4.69
530.588	4.72
530.935	4.81
531.282	4.99
531.628	5
531.975	5.06
532.321	5.13
532.667	5.16
533.014	5.25
533.36	5.08
533.706	5.08
534.052	5.08
534.399	4.93
534.745	4.96
535.091	4.85
535.437	4.93
535.783	4.96
536.129	5.07
536.474	5.16
536.82	5.2
537.166	5.32
537.512	5.16
537.857	5.05
538.203	5.11
538.549	4.88
538.894	4.92
539.239	5.1
539.585	5.17
539.93	5.04
540.276	5.13
540.621	5.21
540.966	5.16
541.311	4.94
541.656	5.21
542.001	4.92
542.346	5.06
542.691	4.98
543.036	4.86
543.381	4.74
543.726	4.83
544.071	5
544.415	5.11
544.76	4.93
545.105	5
545.449	5.08
545.794	5.15
546.138	5.15
546.483	5.16
546.827	5.13
547.171	5.14
547.516	5.15
547.86	5.05
548.204	5.18
548.548	5.02
548.892	5.09
549.236	5.02
549.58	4.9
549.924	5.11
550.268	5.19
550.612	5.12
550.956	5.37
551.3	5.18
551.643	5.24
551.987	5.16
552.33	5.19
552.674	5.02
553.017	4.97
553.361	5.12
553.704	5.27
554.048	5.08
554.391	4.97
554.734	5.04
555.077	5.08
555.42	5.02
555.764	5.03
556.107	4.91
556.45	4.93
556.793	5
557.135	5.07
557.478	5.31
557.821	5.18
558.164	5.02
558.507	5.03
558.849	4.92
559.192	5.19
559.534	5.11
559.877	5.08
560.219	5.03
560.562	5.27
560.904	5.06
561.246	5.29
561.589	5.1
561.931	5.06
562.273	4.89
562.615	5.22
562.957	5.11
563.299	4.83
563.641	4.99
563.983	5.24
564.325	4.97
564.667	5.12
565.008	4.94
565.35	5.11
565.692	4.91
566.033	5.12
566.375	5.11
566.716	5.34
567.058	5.03
567.399	5.12
567.741	4.88
568.082	4.96
568.423	4.99
568.764	4.92
569.105	5.01
569.447	5.16
569.788	5.04
570.129	5.12
570.47	5.22
570.811	5.48
571.151	5.08
571.492	5.24
571.833	5.06
572.174	5.05
572.514	5.13
572.855	4.94
573.195	5.01
573.536	5.01
573.876	4.8
574.217	4.87
574.557	5.04
574.898	5.22
575.238	5.11
575.578	4.78
575.918	5.19
576.258	5.24
576.598	5.12
576.938	5.03
577.278	5
577.618	4.89
577.958	5.08
578.298	5.13
578.638	5.02
578.977	5.1
579.317	5.09
579.657	5.04
579.996	5.18
580.336	5.04
580.675	5.01
581.014	4.88
581.354	4.78
581.693	4.99
582.032	5.11
582.372	4.82
582.711	5.11
583.05	5
583.389	5.14
583.728	4.89
584.067	5.05
584.406	5.04
584.745	5.05
585.083	5.13
585.422	5.17
585.761	5.15
586.1	5.03
586.438	5.12
586.777	5.07
587.115	5.21
587.454	4.98
587.792	4.94
588.13	5.3
588.469	4.9
588.807	5.04
589.145	5.03
589.483	5.01
589.821	5.32
590.159	4.99
590.497	5.29
590.835	5.4
591.173	5.11
591.511	5.13
591.849	5.24
592.187	4.99
592.524	4.95
592.862	5.07
593.2	5.03
593.537	5.04
593.875	4.97
594.212	5.06
594.55	4.98
594.887	5.27
595.224	5.04
595.561	4.99
595.899	4.96
596.236	4.87
596.573	5.02
596.91	4.64
597.247	4.83
597.584	5.46
597.921	4.97
598.258	5.01
598.594	5.08
598.931	4.84
599.268	4.99
599.604	5.02
599.941	5.1
600.277	4.8
600.614	4.81
600.95	4.99
601.287	5.06
601.623	5.2
601.959	5
602.296	5.29
602.632	5.12
602.968	5.14
603.304	5.07
603.64	4.68
603.976	4.96
604.312	4.87
604.648	4.79
604.984	4.89
605.319	4.77
605.655	4.82
605.991	4.6
606.326	4.9
606.662	5.09
606.998	4.76
607.333	4.93
607.668	4.97
608.004	5.17
608.339	5.28
608.674	5.22
609.01	4.71
609.345	4.67
609.68	4.99
610.015	4.91
610.35	4.82
610.685	4.84
611.02	4.83
611.355	5.1
611.689	4.74
612.024	5.2
612.359	4.85
612.694	4.84
613.028	4.96
613.363	5.17
613.697	5.1
614.032	5.04
614.366	5.11
614.7	5.11
615.035	4.99
615.369	4.95
615.703	4.61
616.037	4.89
616.371	4.83
616.705	4.41
617.039	4.75
617.373	5.07
617.707	5.15
618.041	4.83
618.375	4.87
618.709	4.82
619.042	4.45
619.376	5.03
619.71	5.21
620.043	5.12
620.377	4.91
620.71	5.21
621.043	4.92
621.377	5.15
621.71	5.11
622.043	4.82
622.376	4.81
622.709	4.92
623.043	5.13
623.376	5.3
623.709	4.73
624.041	5.29
624.374	4.95
624.707	4.54
625.04	5.17
625.373	4.22
625.705	5
626.038	5
626.37	4.96
626.703	4.96
627.035	4.81
627.368	5.2
627.7	5.07
628.032	4.72
628.365	5.16
628.697	4.66
629.029	4.67
629.361	4.92
629.693	5.42
630.025	4.99
630.357	5.21
630.689	4.97
631.021	4.95
631.353	5.2
631.684	4.76
632.016	4.59
632.348	5.35
632.679	5.25
633.011	5.29
633.342	5.63
633.674	5.2
634.005	5.14
634.336	4.8
634.668	5.46
634.999	4.79
635.33	5.1
635.661	5.47
635.992	5.17
636.323	5.02
636.654	4.91
636.985	5.12
637.316	4.93
637.647	4.61
637.977	5.08
638.308	5.09
638.639	4.53
638.969	5
639.3	4.95
639.63	4.71
639.961	4.88
640.291	5.33
640.622	5.13
640.952	5.12
641.282	5.3
641.612	5.47
641.943	4.72
642.273	4.79
642.603	5.22
642.933	5.42
643.263	4.9
643.592	4.85
643.922	4.95
644.252	4.9
644.582	5.25
644.911	4.82
645.241	5.2
645.571	5.06
645.9	4.55
646.23	4.89
646.559	5.08
646.888	4.58
647.218	5.09
647.547	5.74
647.876	4.94
648.205	4.94
648.534	5.09
648.863	4.65
649.192	5.24
649.521	4.7
649.85	4.55
650.179	4.94
650.508	4.71
650.837	4.45
651.165	4.83
651.494	4.91
651.822	5.07
652.151	5.36
652.479	5.05
652.808	5.06
653.136	4.78
653.465	4.69
653.793	5.15
654.121	4.68
654.449	5.55
654.777	5.37
655.105	4.77
655.433	4.6
655.761	4.84
656.089	5.38
656.417	4.96
656.745	5.16
657.073	4.76
657.4	5.03
657.728	5.07
658.056	4.85
658.383	5.17
658.711	4.94
659.038	5.15
659.365	5.13
659.693	4.89
660.02	5.05
660.347	5.35
660.674	5.22
661.001	5.02
661.329	4.43
661.656	4.92
661.982	5.37
662.309	5.15
662.636	4.73
662.963	5.59
663.29	5.43
663.616	5.48
663.943	4.4
664.27	5.34
664.596	5.38
664.923	5.16
665.249	5.64
665.576	5.07
665.902	5.64
666.228	5.13
666.554	5.36
666.881	4.56
667.207	5.01
667.533	5.11
667.859	5.34
668.185	5.91
668.511	4.36
668.837	4.44
669.162	5.12
669.488	4.75
669.814	5.07
670.139	5.46
670.465	4.99
670.791	5.43
671.116	5.58
671.442	5.36
671.767	5.48
672.092	5.31
672.418	5.32
672.743	5.42
673.068	5.03
673.393	5.19
673.718	4.45
674.043	5.68
674.368	4.93
674.693	6.26
675.018	5.22
675.343	5.05
675.667	4.92
675.992	5.21
676.317	5.45
676.641	5.43
676.966	5.65
677.29	5.32
677.615	5.51
677.939	5.56
678.264	6.15
678.588	5.26
678.912	4.82
679.236	5.68
679.56	4.98
679.885	5.57
680.209	5.12
680.532	5.91
680.856	6.06
681.18	5.36
681.504	5.34
681.828	5.13
682.152	4.55
682.475	5.62
682.799	5.9
683.122	5.27
683.446	5.16
683.769	5.46
684.093	4.89
684.416	5.42
684.739	4.97
685.062	5.15
685.386	5.42
685.709	4.69
686.032	4.73
686.355	5.05
686.678	4.6
687.001	5.96
687.324	5.31
687.646	4.88
687.969	4.68
688.292	4.73
688.614	5.31
688.937	5.84
689.26	5.7
689.582	6.02
689.904	5.39
690.227	5.42
690.549	5.2
690.871	5.84
691.194	5.69
691.516	5.22
691.838	5.62
692.16	4.51
692.482	5.25
692.804	5.9
693.126	4.23
