Data from 0390_chest_Reflection__1__109.txt Node

Date: Fri Dec 15 17:24:28 CST 2023
User: ToomeyLab
Spectrometer: FLMS14357
Trigger mode: 0
Integration Time (sec): 1.000000E-2
Scans to average: 100
Electric dark correction enabled: true
Nonlinearity correction enabled: false
Boxcar width: 0
XAxis mode: Wavelengths
Number of Pixels in Spectrum: 2048
>>>>>Begin Spectral Data<<<<<
189.047	-58.16
189.435	-58.16
189.823	-58.16
190.211	-90.86
190.599	-140.57
190.987	106.07
191.375	155.9
191.763	-142.94
192.151	1.47
192.538	90.05
192.926	67.74
193.314	144.38
193.702	-127.34
194.089	-93.87
194.477	80.4
194.864	-71.91
195.252	100.19
195.639	109.32
196.027	-584.98
196.414	112.87
196.801	24.03
197.189	74.36
197.576	146.73
197.963	74.19
198.351	-77.41
198.738	3.41
199.125	-13.05
199.512	-13.54
199.899	9.21
200.286	48.55
200.673	-29.42
201.06	4.96
201.447	7.07
201.833	0.66
202.22	23.12
202.607	71.85
202.994	-45.04
203.38	38.53
203.767	31.15
204.154	5.13
204.54	92.76
204.927	-30.07
205.313	37.2
205.699	11.86
206.086	20.79
206.472	34.14
206.858	-8.57
207.245	-30.37
207.631	49.16
208.017	4
208.403	18.13
208.789	31.84
209.175	19.75
209.561	7.62
209.947	30
210.333	-50.6
210.719	-6.06
211.105	37.51
211.491	21.98
211.876	63.39
212.262	35.68
212.648	4.72
213.034	32.83
213.419	12.3
213.805	-10.27
214.19	-15.69
214.576	15.35
214.961	8.31
215.346	-67.02
215.732	21.09
216.117	2.93
216.502	10.54
216.888	-24.74
217.273	25.78
217.658	-43.21
218.043	5.08
218.428	-30.41
218.813	-1.2
219.198	-26.96
219.583	-1.81
219.968	6.99
220.353	2.59
220.738	-2.14
221.122	10.09
221.507	-40.86
221.892	-33.71
222.276	-5.35
222.661	-0.97
223.046	14.3
223.43	32.69
223.815	8.39
224.199	-14.26
224.583	3.48
224.968	5.2
225.352	12.08
225.736	-1.53
226.121	0.26
226.505	7.54
226.889	9.13
227.273	0.19
227.657	11.22
228.041	3.13
228.425	6.94
228.809	5.17
229.193	3.67
229.577	4.09
229.961	4.12
230.344	2.88
230.728	4.65
231.112	4.79
231.495	4.79
231.879	3.7
232.263	5.42
232.646	6.5
233.03	5.4
233.413	2.59
233.797	5.58
234.18	3.15
234.563	5.2
234.946	5.11
235.33	5.99
235.713	4.44
236.096	3.35
236.479	5.64
236.862	2.34
237.245	6.01
237.628	5.81
238.011	6.82
238.394	4.11
238.777	4.66
239.16	3.32
239.543	2.69
239.925	2.9
240.308	5
240.691	5.65
241.073	6.2
241.456	4.1
241.838	3.05
242.221	3.77
242.603	4.94
242.986	3.94
243.368	4.63
243.75	4.56
244.133	3.84
244.515	4.85
244.897	4.24
245.279	4.7
245.661	4.73
246.043	3.62
246.425	4.28
246.807	5.46
247.189	4.85
247.571	5.12
247.953	4.27
248.335	4.25
248.717	4.43
249.098	3.95
249.48	4.12
249.862	4.28
250.243	4.04
250.625	3.95
251.006	4.25
251.388	2.54
251.769	4.69
252.151	4.82
252.532	3.55
252.913	3.97
253.295	3.6
253.676	4.05
254.057	4.13
254.438	4.09
254.819	3.95
255.2	3.45
255.581	4.31
255.962	4.05
256.343	5.29
256.724	3.09
257.105	3.62
257.486	3.03
257.867	4.21
258.247	3.73
258.628	3.95
259.009	3.73
259.389	3.9
259.77	3.25
260.15	3.28
260.531	3.33
260.911	3.99
261.292	3.87
261.672	4.09
262.052	3.83
262.432	4.23
262.813	3.73
263.193	4.13
263.573	3.2
263.953	3.51
264.333	4.27
264.713	3.87
265.093	3.56
265.473	3.92
265.853	2.79
266.233	3.81
266.612	1.68
266.992	3.2
267.372	4.46
267.752	3.94
268.131	3.69
268.511	3.84
268.89	4.45
269.27	3.8
269.649	3.37
270.029	3.93
270.408	4.59
270.787	3.49
271.167	3.81
271.546	4.14
271.925	3.52
272.304	3.3
272.683	3.98
273.062	3.41
273.441	4.11
273.82	3.1
274.199	3.82
274.578	4.23
274.957	3.25
275.336	3.37
275.715	3.42
276.093	3.46
276.472	3.65
276.851	3.53
277.229	3.53
277.608	2.97
277.986	3.4
278.365	4.28
278.743	3.65
279.122	3.32
279.5	3
279.878	4.61
280.257	3.47
280.635	2.86
281.013	2.86
281.391	4.9
281.769	4.06
282.147	3.83
282.525	4
282.903	3.59
283.281	3.44
283.659	3.46
284.037	3.7
284.415	3.56
284.792	3.73
285.17	3.02
285.548	3.49
285.925	3.4
286.303	3.32
286.68	3.41
287.058	3.48
287.435	3.49
287.813	3.69
288.19	3.26
288.567	3.49
288.945	3.74
289.322	3.71
289.699	3.64
290.076	3.08
290.453	3.78
290.83	3.45
291.207	3.35
291.584	4.03
291.961	3.77
292.338	3.59
292.715	4
293.092	3.51
293.469	3.69
293.845	3.81
294.222	2.88
294.599	3.81
294.975	3.6
295.352	3.8
295.728	3.4
296.105	3.42
296.481	3.59
296.858	3.78
297.234	3.17
297.61	3.65
297.986	3.45
298.363	3.94
298.739	3.84
299.115	3.38
299.491	3.31
299.867	3.48
300.243	3.78
300.619	3.09
300.995	3.24
301.371	3.5
301.746	3.31
302.122	3.51
302.498	3.26
302.874	3.3
303.249	3.65
303.625	3.77
304	3.96
304.376	3.47
304.751	2.81
305.127	4.13
305.502	2.97
305.878	3.08
306.253	4.17
306.628	4.34
307.003	3.65
307.378	3.7
307.754	3.6
308.129	3.07
308.504	3.17
308.879	3.21
309.254	4.46
309.629	4.39
310.003	3.74
310.378	3.84
310.753	4.07
311.128	3.69
311.502	3.32
311.877	4.13
312.252	3.14
312.626	3.78
313.001	3.29
313.375	3.79
313.75	3.35
314.124	3.94
314.498	3.5
314.873	3.23
315.247	3.27
315.621	3.45
315.995	3.43
316.369	3.27
316.743	3.33
317.117	3.69
317.491	3.15
317.865	3.24
318.239	4.03
318.613	3.18
318.987	3.67
319.361	2.91
319.734	4.14
320.108	3.91
320.482	3.57
320.855	4.05
321.229	3.17
321.602	3.45
321.976	3.63
322.349	3.63
322.723	3.51
323.096	4.27
323.469	3.06
323.843	3.43
324.216	4.26
324.589	3.48
324.962	3.63
325.335	3.8
325.708	3.26
326.081	3.66
326.454	4.03
326.827	3.62
327.2	3.38
327.573	3.97
327.945	3.75
328.318	3.33
328.691	3.22
329.063	3.59
329.436	3.3
329.809	4.46
330.181	3.55
330.553	3.57
330.926	3.68
331.298	3.62
331.671	3.55
332.043	4.23
332.415	3.82
332.787	3.47
333.159	4.49
333.532	4.1
333.904	3.82
334.276	3.79
334.648	3.29
335.02	3.57
335.391	3.37
335.763	3.44
336.135	3.86
336.507	4.57
336.879	3.48
337.25	3.28
337.622	3.55
337.993	3.68
338.365	3.82
338.736	3.9
339.108	3.74
339.479	3.41
339.851	3.82
340.222	3.98
340.593	3.73
340.964	3.5
341.336	4.24
341.707	3.2
342.078	4.28
342.449	4.63
342.82	3.78
343.191	3.73
343.562	3.73
343.933	4.1
344.303	3.68
344.674	4.12
345.045	4.12
345.416	3.91
345.786	3.5
346.157	4.2
346.527	2.93
346.898	3.64
347.268	3.82
347.639	3.59
348.009	3.66
348.38	3.38
348.75	3.69
349.12	3.56
349.49	3.81
349.861	3.92
350.231	3.78
350.601	3.56
350.971	4.07
351.341	4.12
351.711	3.6
352.081	4.15
352.45	3.56
352.82	3.8
353.19	3.64
353.56	3.5
353.929	4.13
354.299	3.78
354.669	3.86
355.038	3.67
355.408	4.11
355.777	3.96
356.147	3.71
356.516	4.1
356.885	3.84
357.254	3.8
357.624	3.86
357.993	3.84
358.362	3.73
358.731	3.75
359.1	3.68
359.469	3.86
359.838	3.99
360.207	3.32
360.576	3.52
360.945	3.45
361.314	4.07
361.682	3.5
362.051	3.84
362.42	3.94
362.788	3.36
363.157	4.05
363.525	3.94
363.894	4.02
364.262	4.01
364.631	3.88
364.999	3.7
365.367	3.35
365.735	4.61
366.104	4.12
366.472	4.06
366.84	3.94
367.208	3.62
367.576	3.98
367.944	3.71
368.312	3.68
368.68	3.55
369.048	3.82
369.416	3.89
369.783	3.86
370.151	3.99
370.519	4.32
370.886	4.08
371.254	3.6
371.621	3.67
371.989	3.94
372.356	3.38
372.724	3.55
373.091	3.77
373.458	3.65
373.826	3.62
374.193	3.96
374.56	4.17
374.927	3.92
375.294	3.79
375.661	3.73
376.028	4.05
376.395	3.94
376.762	3.76
377.129	3.8
377.496	4.09
377.863	3.75
378.229	3.5
378.596	4.16
378.963	4.05
379.329	3.65
379.696	4.04
380.062	4
380.429	3.88
380.795	3.67
381.161	3.97
381.528	3.88
381.894	4.07
382.26	3.69
382.626	3.7
382.993	3.48
383.359	4.53
383.725	3.76
384.091	3.76
384.457	4.13
384.823	3.9
385.188	4.27
385.554	3.8
385.92	4.28
386.286	4.11
386.651	4.12
387.017	4.3
387.383	4.12
387.748	3.88
388.114	4.07
388.479	3.59
388.845	4.38
389.21	4.23
389.575	3.99
389.94	4.07
390.306	4.02
390.671	4.35
391.036	3.5
391.401	3.64
391.766	4.14
392.131	3.82
392.496	3.92
392.861	3.94
393.226	4.13
393.591	4
393.956	3.98
394.32	3.91
394.685	3.96
395.05	3.78
395.414	4.04
395.779	3.86
396.143	4.02
396.508	4.07
396.872	4.07
397.236	3.84
397.601	3.82
397.965	4.04
398.329	4.07
398.694	4.27
399.058	4.18
399.422	3.76
399.786	3.8
400.15	4.26
400.514	3.88
400.878	3.91
401.242	4.16
401.605	4.07
401.969	3.88
402.333	4.13
402.697	4.04
403.06	4.1
403.424	3.99
403.787	3.9
404.151	4.18
404.514	4.07
404.878	3.82
405.241	4.1
405.604	3.98
405.968	4.18
406.331	3.98
406.694	4.06
407.057	3.85
407.42	4.11
407.783	3.74
408.146	4.01
408.509	4.1
408.872	3.78
409.235	4.03
409.598	4.31
409.961	3.99
410.323	4.28
410.686	3.93
411.049	3.96
411.411	4
411.774	3.95
412.136	4.07
412.499	3.86
412.861	4.05
413.223	3.88
413.586	4.24
413.948	4.07
414.31	4.12
414.672	3.99
415.035	4.03
415.397	4.1
415.759	3.76
416.121	4.16
416.483	3.94
416.845	4.02
417.206	4.06
417.568	4
417.93	4.11
418.292	4.19
418.653	4.06
419.015	4.08
419.377	4
419.738	4.13
420.1	4.1
420.461	4.26
420.822	3.92
421.184	4.13
421.545	3.97
421.906	3.86
422.267	3.99
422.629	4.11
422.99	4.01
423.351	3.86
423.712	4
424.073	4.03
424.434	3.89
424.795	4.02
425.155	4.07
425.516	3.86
425.877	3.94
426.238	3.91
426.598	4.04
426.959	4
427.32	3.92
427.68	3.94
428.041	4.03
428.401	4.05
428.761	4
429.122	4.16
429.482	3.96
429.842	4.35
430.202	4.08
430.563	4.03
430.923	3.81
431.283	4.23
431.643	4.14
432.003	3.95
432.363	4.28
432.722	4.12
433.082	4.05
433.442	4.09
433.802	3.84
434.161	4.13
434.521	4.25
434.881	4.12
435.24	4.09
435.6	4.07
435.959	4.08
436.319	4.04
436.678	4.08
437.037	4.04
437.396	4.16
437.756	4.26
438.115	4.05
438.474	4.06
438.833	3.98
439.192	4.15
439.551	4.29
439.91	3.93
440.269	4.04
440.628	3.96
440.987	4.05
441.345	4.05
441.704	4.18
442.063	4.1
442.421	4.07
442.78	4.09
443.138	3.93
443.497	4.11
443.855	4.09
444.214	4.07
444.572	4.32
444.93	4.09
445.288	4.15
445.647	4.23
446.005	4.07
446.363	4.14
446.721	4.32
447.079	3.99
447.437	4.15
447.795	4.16
448.153	3.91
448.51	4.06
448.868	4.09
449.226	4.1
449.584	4.03
449.941	4.31
450.299	4.13
450.656	4.07
451.014	4.19
451.371	4.03
451.729	3.89
452.086	4.3
452.443	4.26
452.801	4.28
453.158	4.09
453.515	4.12
453.872	4.26
454.229	4.32
454.586	4.11
454.943	4.24
455.3	4.28
455.657	4.04
456.014	4.04
456.371	4.18
456.727	4.18
457.084	4.32
457.441	4.31
457.797	4.19
458.154	4.29
458.51	4.44
458.867	4.38
459.223	4.32
459.58	4.23
459.936	4.29
460.292	4.26
460.648	4.29
461.005	4.25
461.361	4.23
461.717	4.19
462.073	4.16
462.429	4.11
462.785	4.15
463.141	4.1
463.496	4.17
463.852	4.45
464.208	4.11
464.564	4.32
464.919	4.13
465.275	4.26
465.631	4.29
465.986	4.26
466.342	4.18
466.697	4.28
467.052	4.21
467.408	4.41
467.763	4.35
468.118	4.44
468.473	4.19
468.829	4.13
469.184	4.19
469.539	4.21
469.894	4.19
470.249	4.31
470.603	4.25
470.958	4.38
471.313	4.34
471.668	4.42
472.023	4.14
472.377	4.26
472.732	4.36
473.086	4.23
473.441	4.19
473.795	4.51
474.15	4.25
474.504	4.16
474.859	4.4
475.213	4.34
475.567	4.28
475.921	4.31
476.275	4.48
476.63	4.27
476.984	4.43
477.338	4.4
477.692	4.23
478.045	4.36
478.399	4.16
478.753	4.29
479.107	4.38
479.461	4.41
479.814	4.28
480.168	4.43
480.521	4.21
480.875	4.33
481.228	4.17
481.582	4.24
481.935	4.29
482.289	4.34
482.642	4.44
482.995	4.26
483.348	4.25
483.701	4.35
484.055	4.39
484.408	4.31
484.761	4.18
485.114	4.22
485.466	4.12
485.819	4.13
486.172	4.07
486.525	4.12
486.878	4.13
487.23	4.15
487.583	4.24
487.936	4.24
488.288	4.26
488.641	4.31
488.993	4.24
489.345	4.23
489.698	4.11
490.05	4.17
490.402	4.23
490.754	4.21
491.107	4.29
491.459	4.31
491.811	4.23
492.163	4.31
492.515	4.31
492.866	4.32
493.218	4.35
493.57	4.26
493.922	4.2
494.274	4.24
494.625	4.4
494.977	4.41
495.328	4.33
495.68	4.37
496.031	4.59
496.383	4.46
496.734	4.68
497.086	4.53
497.437	4.46
497.788	4.52
498.139	4.44
498.49	4.58
498.842	4.35
499.193	4.39
499.544	4.44
499.894	4.37
500.245	4.48
500.596	4.55
500.947	4.45
501.298	4.45
501.648	4.5
501.999	4.64
502.35	4.42
502.7	4.54
503.051	4.31
503.401	4.59
503.752	4.48
504.102	4.62
504.452	4.66
504.803	4.48
505.153	4.5
505.503	4.63
505.853	4.53
506.203	4.67
506.553	4.56
506.903	4.43
507.253	4.51
507.603	4.55
507.953	4.69
508.303	4.8
508.652	4.42
509.002	4.68
509.352	4.65
509.701	4.56
510.051	4.63
510.4	4.57
510.75	4.68
511.099	4.55
511.449	4.56
511.798	4.64
512.147	4.59
512.496	4.63
512.846	4.6
513.195	4.68
513.544	4.65
513.893	4.72
514.242	4.64
514.591	4.72
514.939	4.71
515.288	4.61
515.637	4.78
515.986	4.75
516.334	4.79
516.683	4.8
517.032	4.56
517.38	4.83
517.729	4.69
518.077	4.7
518.426	4.87
518.774	4.79
519.122	4.69
519.47	4.79
519.819	4.52
520.167	4.7
520.515	4.73
520.863	4.82
521.211	4.8
521.559	4.71
521.907	4.72
522.255	4.79
522.602	4.87
522.95	4.78
523.298	4.93
523.645	4.94
523.993	4.91
524.341	5.08
524.688	4.96
525.036	4.79
525.383	4.88
525.73	5.06
526.078	4.89
526.425	4.9
526.772	4.95
527.119	4.95
527.466	4.86
527.814	4.97
528.161	4.99
528.508	4.86
528.854	4.83
529.201	4.83
529.548	4.87
529.895	4.91
530.242	4.75
530.588	4.8
530.935	4.83
531.282	4.84
531.628	4.77
531.975	4.85
532.321	4.89
532.667	4.93
533.014	5.06
533.36	5.01
533.706	5.02
534.052	5.08
534.399	5.05
534.745	4.97
535.091	5
535.437	5
535.783	4.99
536.129	5.06
536.474	5.12
536.82	5.05
537.166	5.13
537.512	5.21
537.857	5.14
538.203	5.28
538.549	5.15
538.894	5.16
539.239	5.2
539.585	5.27
539.93	5.14
540.276	5.32
540.621	5.44
540.966	5.35
541.311	5.14
541.656	5.3
542.001	5.34
542.346	5.46
542.691	5.26
543.036	5.31
543.381	5.22
543.726	5.24
544.071	5.31
544.415	5.34
544.76	5.29
545.105	5.27
545.449	5.34
545.794	5.48
546.138	5.37
546.483	5.46
546.827	5.6
547.171	5.45
547.516	5.63
547.86	5.51
548.204	5.51
548.548	5.59
548.892	5.61
549.236	5.59
549.58	5.55
549.924	5.65
550.268	5.67
550.612	5.8
550.956	5.99
551.3	5.84
551.643	5.81
551.987	5.82
552.33	5.81
552.674	5.96
553.017	5.83
553.361	5.69
553.704	6.09
554.048	5.85
554.391	5.96
554.734	5.68
555.077	5.97
555.42	5.77
555.764	5.86
556.107	5.76
556.45	5.81
556.793	5.86
557.135	6.12
557.478	6.17
557.821	6.1
558.164	6.22
558.507	6.13
558.849	6.11
559.192	6.18
559.534	6.02
559.877	6.1
560.219	6.15
560.562	6.57
560.904	6.15
561.246	6.32
561.589	6.16
561.931	6.18
562.273	6.09
562.615	6.29
562.957	6.24
563.299	6.15
563.641	6.55
563.983	6.46
564.325	6.22
564.667	6.3
565.008	6.35
565.35	6.4
565.692	6.1
566.033	6.32
566.375	6.52
566.716	6.76
567.058	6.24
567.399	6.57
567.741	6.37
568.082	6.72
568.423	6.52
568.764	6.51
569.105	6.76
569.447	6.74
569.788	6.73
570.129	6.71
570.47	6.87
570.811	6.86
571.151	6.8
571.492	6.96
571.833	6.85
572.174	6.86
572.514	6.89
572.855	6.82
573.195	6.83
573.536	6.95
573.876	6.81
574.217	6.71
574.557	7.07
574.898	7.16
575.238	6.96
575.578	6.91
575.918	7.3
576.258	7.13
576.598	7.14
576.938	7.09
577.278	7.16
577.618	7.06
577.958	6.96
578.298	7.03
578.638	7.04
578.977	7.29
579.317	7.21
579.657	7.35
579.996	7.66
580.336	7.33
580.675	7.35
581.014	7.45
581.354	7.38
581.693	7.51
582.032	7.24
582.372	7.3
582.711	7.81
583.05	7.54
583.389	7.61
583.728	7.59
584.067	7.77
584.406	7.66
584.745	7.67
585.083	7.76
585.422	7.68
585.761	7.94
586.1	8.06
586.438	7.81
586.777	8.06
587.115	7.94
587.454	7.88
587.792	7.64
588.13	8.02
588.469	7.95
588.807	8.08
589.145	8.17
589.483	7.97
589.821	8.03
590.159	8.12
590.497	8.66
590.835	8.47
591.173	8.14
591.511	8.53
591.849	8.5
592.187	8.32
592.524	8.39
592.862	8.24
593.2	8.45
593.537	8.55
593.875	8.59
594.212	8.33
594.55	8.45
594.887	8.84
595.224	8.54
595.561	8.65
595.899	8.76
596.236	8.47
596.573	8.65
596.91	8.21
597.247	8.41
597.584	8.87
597.921	8.8
598.258	8.92
598.594	8.93
598.931	8.85
599.268	9.03
599.604	8.84
599.941	8.85
600.277	8.85
600.614	8.76
600.95	8.74
601.287	8.9
601.623	8.96
601.959	9.04
602.296	9.22
602.632	9.32
602.968	9.65
603.304	9.33
603.64	9.18
603.976	9.37
604.312	9.29
604.648	9.27
604.984	9.15
605.319	9.5
605.655	9.37
605.991	9.55
606.326	9.52
606.662	9.43
606.998	9.31
607.333	9.55
607.668	9.67
608.004	9.66
608.339	9.92
608.674	9.79
609.01	9.42
609.345	9.78
609.68	9.82
610.015	9.7
610.35	9.51
610.685	9.91
611.02	9.85
611.355	10.07
611.689	9.91
612.024	9.88
612.359	10
612.694	10.2
613.028	9.96
613.363	10.35
613.697	10.24
614.032	10.24
614.366	10.37
614.7	10.41
615.035	10.34
615.369	10.17
615.703	10.47
616.037	10.66
616.371	9.96
616.705	10.46
617.039	10.42
617.373	10.44
617.707	10.79
618.041	10.47
618.375	10.74
618.709	11.16
619.042	10.58
619.376	10.82
619.71	10.74
620.043	10.81
620.377	10.82
620.71	10.8
621.043	10.87
621.377	10.68
621.71	11.16
622.043	10.74
622.376	10.73
622.709	10.53
623.043	11.25
623.376	11.36
623.709	11.13
624.041	11.34
624.374	11.46
624.707	10.75
625.04	11.44
625.373	10.69
625.705	11.59
626.038	11.25
626.37	11.25
626.703	11.18
627.035	11.56
627.368	12.01
627.7	11.53
628.032	11.44
628.365	12.12
628.697	11.78
629.029	11.64
629.361	11.69
629.693	11.93
630.025	11.78
630.357	11.75
630.689	11.65
631.021	11.81
631.353	11.7
631.684	12.15
632.016	11.82
632.348	12.2
632.679	12.31
633.011	12.29
633.342	12.16
633.674	12.16
634.005	12.63
634.336	12.01
634.668	12.73
634.999	12.27
635.33	12.64
635.661	12.45
635.992	12.77
636.323	12.96
636.654	12.54
636.985	12.44
637.316	12.65
637.647	11.98
637.977	12.99
638.308	12.9
638.639	12.48
638.969	12.73
639.3	12.61
639.63	12.79
639.961	12.73
640.291	12.86
640.622	13.4
640.952	12.82
641.282	13.23
641.612	13.55
641.943	13.07
642.273	13.39
642.603	13.38
642.933	13.25
643.263	13.49
643.592	13.06
643.922	13.24
644.252	12.92
644.582	13.66
644.911	13.13
645.241	13.36
645.571	13.63
645.9	13.71
646.23	13.6
646.559	13.97
646.888	13.86
647.218	13.2
647.547	14.25
647.876	13.35
648.205	14.04
648.534	14.25
648.863	12.98
649.192	14.09
649.521	14.36
649.85	13.71
650.179	14.26
650.508	13.59
650.837	13.99
651.165	13.6
651.494	14.38
651.822	14.24
652.151	14.26
652.479	14.32
652.808	13.63
653.136	14.42
653.465	13.73
653.793	14.48
654.121	14.22
654.449	14.54
654.777	14.73
655.105	14.59
655.433	13.79
655.761	14.4
656.089	14.84
656.417	14.56
656.745	14.84
657.073	15
657.4	15.58
657.728	15.42
658.056	14.7
658.383	14.89
658.711	15.1
659.038	15.29
659.365	14.88
659.693	15.14
660.02	14.8
660.347	15.43
660.674	15.36
661.001	15.2
661.329	14.64
661.656	15.32
661.982	15.3
662.309	15.24
662.636	15.03
662.963	15.56
663.29	15.64
663.616	15.77
663.943	15.07
664.27	15.33
664.596	15.45
664.923	15.55
665.249	14.99
665.576	16.04
665.902	15.9
666.228	16.72
666.554	16.01
666.881	15.72
667.207	15.76
667.533	16.01
667.859	16.38
668.185	15.94
668.511	15.32
668.837	15.35
669.162	16.3
669.488	15.46
669.814	15.9
670.139	16.57
670.465	16.55
670.791	16.08
671.116	17.44
671.442	16.3
671.767	17.22
672.092	16.69
672.418	16.28
672.743	17
673.068	16.15
673.393	16.76
673.718	16.6
674.043	16.96
674.368	17
674.693	17.43
675.018	16.52
675.343	16.57
675.667	17.2
675.992	16.99
676.317	17.09
676.641	17.49
676.966	16.92
677.29	17.81
677.615	17.36
677.939	17.54
678.264	17.79
678.588	18.3
678.912	17.97
679.236	17.53
679.56	17.57
679.885	18.34
680.209	17.22
680.532	17.76
680.856	18.25
681.18	17.55
681.504	17.33
681.828	17.88
682.152	17.52
682.475	17.75
682.799	18.4
683.122	17.74
683.446	17.68
683.769	18.08
684.093	17.5
684.416	18.52
684.739	17.83
685.062	18.23
685.386	18.3
685.709	18.05
686.032	17.79
686.355	19.12
686.678	18.24
687.001	18.28
687.324	18.84
687.646	18.26
687.969	18.2
