Data from 0390_chest_Reflection__0__108.txt Node

Date: Fri Dec 15 17:24:19 CST 2023
User: ToomeyLab
Spectrometer: FLMS14357
Trigger mode: 0
Integration Time (sec): 1.000000E-2
Scans to average: 100
Electric dark correction enabled: true
Nonlinearity correction enabled: false
Boxcar width: 0
XAxis mode: Wavelengths
Number of Pixels in Spectrum: 2048
>>>>>Begin Spectral Data<<<<<
189.047	-11.61
189.435	-11.61
189.823	-11.61
190.211	148.9
190.599	406.18
190.987	134.64
191.375	132.81
191.763	183.08
192.151	136.75
192.538	120.62
192.926	-128.01
193.314	120.83
193.702	12.69
194.089	183.67
194.477	163.6
194.864	44.58
195.252	128.84
195.639	127.71
196.027	-258.96
196.414	-5.31
196.801	151.97
197.189	53.28
197.576	48.65
197.963	145.02
198.351	-1.04
198.738	2.6
199.125	17.52
199.512	-21.47
199.899	24.06
200.286	34.59
200.673	-1.81
201.06	-19.13
201.447	-12.26
201.833	-26.85
202.22	24.27
202.607	28.08
202.994	25.38
203.38	16.09
203.767	60.97
204.154	33.57
204.54	56.55
204.927	9.57
205.313	-7.76
205.699	30.34
206.086	25.03
206.472	-1.05
206.858	24.94
207.245	-90.48
207.631	18.56
208.017	-12.05
208.403	-1.86
208.789	18.62
209.175	9.11
209.561	-8.33
209.947	17.48
210.333	-32.2
210.719	-11.93
211.105	32.09
211.491	-13.89
211.876	27.17
212.262	-13.18
212.648	14.65
213.034	33.67
213.419	-60.7
213.805	-15.88
214.19	-4.74
214.576	-0.75
214.961	6.51
215.346	-33.37
215.732	42.15
216.117	26.97
216.502	-12.27
216.888	33.2
217.273	8.52
217.658	-17.51
218.043	28.96
218.428	-35.93
218.813	7.52
219.198	-10.89
219.583	-1.1
219.968	7.44
220.353	-18.62
220.738	33.47
221.122	6.23
221.507	10.08
221.892	-48.04
222.276	3.92
222.661	-9.82
223.046	9.01
223.43	16.62
223.815	10.56
224.199	-15.12
224.583	10.06
224.968	3.39
225.352	11.1
225.736	1.93
226.121	-13.68
226.505	-1.8
226.889	13.33
227.273	0.18
227.657	14.32
228.041	0.06
228.425	0.13
228.809	6.29
229.193	4.22
229.577	0.45
229.961	4.66
230.344	3.02
230.728	4.85
231.112	4.14
231.495	4.04
231.879	4.36
232.263	4.08
232.646	4.17
233.03	4.86
233.413	3.04
233.797	4.21
234.18	4.28
234.563	5.26
234.946	2.05
235.33	4.34
235.713	5.87
236.096	4.4
236.479	6.67
236.862	4.51
237.245	6.93
237.628	3.03
238.011	4.91
238.394	7.17
238.777	5.36
239.16	3.44
239.543	3.25
239.925	4.95
240.308	3.95
240.691	6.04
241.073	4.82
241.456	4.56
241.838	3.85
242.221	3.92
242.603	4.82
242.986	4.28
243.368	4.26
243.75	4.43
244.133	4.01
244.515	4.27
244.897	4.64
245.279	4.52
245.661	3.69
246.043	4.74
246.425	2.76
246.807	4.28
247.189	5.45
247.571	5.19
247.953	4.86
248.335	4.53
248.717	4.31
249.098	4.13
249.48	4.2
249.862	4.27
250.243	4.33
250.625	4.06
251.006	4.79
251.388	3.19
251.769	3.96
252.151	5.15
252.532	4.51
252.913	3.86
253.295	3.3
253.676	3.67
254.057	4.34
254.438	4.24
254.819	3.62
255.2	3.25
255.581	4.4
255.962	2.64
256.343	3.81
256.724	3.73
257.105	4.33
257.486	4.01
257.867	4.8
258.247	3.51
258.628	4.22
259.009	3.45
259.389	4.61
259.77	4.01
260.15	4.2
260.531	3.48
260.911	4.87
261.292	4.16
261.672	4.18
262.052	4.08
262.432	4.33
262.813	3.74
263.193	3.68
263.573	2.99
263.953	3.88
264.333	4.75
264.713	4.83
265.093	3.76
265.473	3.81
265.853	3.42
266.233	3.83
266.612	2.12
266.992	3.28
267.372	4.39
267.752	4.49
268.131	3.7
268.511	4.46
268.89	4.8
269.27	3.91
269.649	3.34
270.029	4.02
270.408	4.66
270.787	4.02
271.167	4.83
271.546	4.23
271.925	3.85
272.304	4.31
272.683	4.48
273.062	3.7
273.441	4.01
273.82	3.29
274.199	3.48
274.578	4.04
274.957	3.78
275.336	3.93
275.715	3.81
276.093	3.49
276.472	4.3
276.851	2.88
277.229	3.94
277.608	3.62
277.986	3.76
278.365	4.09
278.743	3.38
279.122	4.11
279.5	3.53
279.878	4.06
280.257	3.41
280.635	3.48
281.013	3.79
281.391	4.25
281.769	3.97
282.147	4.63
282.525	4.45
282.903	3.52
283.281	4.1
283.659	3.75
284.037	3.98
284.415	4.16
284.792	4.08
285.17	3.42
285.548	3.11
285.925	3.47
286.303	3.59
286.68	3.64
287.058	3.95
287.435	3.87
287.813	3.74
288.19	3.67
288.567	3.66
288.945	4.09
289.322	4.15
289.699	3.54
290.076	3.8
290.453	4.33
290.83	3.48
291.207	3.75
291.584	3.97
291.961	4.29
292.338	3.82
292.715	3.95
293.092	3.91
293.469	3.82
293.845	3.85
294.222	4.13
294.599	3.76
294.975	3.51
295.352	4.3
295.728	3.63
296.105	3.96
296.481	4.75
296.858	3.98
297.234	4.44
297.61	4.21
297.986	3.93
298.363	4.11
298.739	4.1
299.115	4.14
299.491	3.81
299.867	4.37
300.243	4.01
300.619	4.03
300.995	3.84
301.371	4.65
301.746	4.07
302.122	4.73
302.498	4.3
302.874	4
303.249	4.6
303.625	4.22
304	4.51
304.376	3.42
304.751	3.73
305.127	4.54
305.502	3.73
305.878	3.48
306.253	4.42
306.628	4.63
307.003	4.51
307.378	4.51
307.754	4.06
308.129	3.8
308.504	4.35
308.879	3.93
309.254	4.87
309.629	4.27
310.003	3.58
310.378	4.98
310.753	4.89
311.128	4.16
311.502	5.07
311.877	4.52
312.252	3.73
312.626	4.66
313.001	3.94
313.375	4.49
313.75	3.99
314.124	4.68
314.498	4.56
314.873	4.2
315.247	3.65
315.621	4.95
315.995	3.9
316.369	4.18
316.743	4.43
317.117	4.2
317.491	3.66
317.865	4.26
318.239	4.18
318.613	4.58
318.987	3.8
319.361	4.26
319.734	4.67
320.108	4.51
320.482	4.66
320.855	4.72
321.229	4.18
321.602	3.8
321.976	5.1
322.349	3.86
322.723	3.55
323.096	4.88
323.469	3.7
323.843	4.82
324.216	5.14
324.589	4.29
324.962	4.43
325.335	4.74
325.708	3.9
326.081	4.07
326.454	4.15
326.827	4.23
327.2	4.47
327.573	4.66
327.945	4.5
328.318	3.92
328.691	3.96
329.063	4.35
329.436	4.02
329.809	4.99
330.181	4.56
330.553	4.73
330.926	4.6
331.298	4.35
331.671	4.38
332.043	4.58
332.415	4.41
332.787	4.69
333.159	5.22
333.532	4.93
333.904	4.71
334.276	4.79
334.648	4.23
335.02	4.97
335.391	4.31
335.763	4.1
336.135	4.28
336.507	5.24
336.879	4.1
337.25	4.37
337.622	4.61
337.993	4.13
338.365	4.14
338.736	4.51
339.108	4.74
339.479	4.5
339.851	4.2
340.222	4.18
340.593	4.52
340.964	3.96
341.336	5.65
341.707	4.12
342.078	4.69
342.449	4.91
342.82	4.51
343.191	4.41
343.562	4.45
343.933	4.45
344.303	4.58
344.674	4.04
345.045	4.88
345.416	4.93
345.786	4.14
346.157	4.76
346.527	4.14
346.898	4.31
347.268	4.4
347.639	4.45
348.009	4.38
348.38	4.34
348.75	4.49
349.12	4.54
349.49	4.58
349.861	4.71
350.231	4.5
350.601	4.23
350.971	4.35
351.341	4.26
351.711	4.25
352.081	4.7
352.45	4.66
352.82	4.88
353.19	4.35
353.56	4.75
353.929	4.56
354.299	4.62
354.669	3.84
355.038	4.85
355.408	4.44
355.777	4.26
356.147	4.35
356.516	4.61
356.885	4.51
357.254	4.56
357.624	4.6
357.993	4.24
358.362	4.31
358.731	4
359.1	4.56
359.469	4.76
359.838	4.62
360.207	4.44
360.576	4.31
360.945	4.35
361.314	5.04
361.682	4.53
362.051	4.82
362.42	4.45
362.788	4.31
363.157	4.66
363.525	4.59
363.894	4.49
364.262	4.38
364.631	4.55
364.999	4.73
365.367	4.1
365.735	5.07
366.104	4.87
366.472	4.59
366.84	4.43
367.208	4.56
367.576	4.63
367.944	4.8
368.312	4.56
368.68	3.95
369.048	4.79
369.416	4.55
369.783	4.49
370.151	4.46
370.519	4.91
370.886	4.78
371.254	4.59
371.621	4.79
371.989	4.86
372.356	4.32
372.724	4.38
373.091	4.7
373.458	4.69
373.826	4.49
374.193	4.5
374.56	4.57
374.927	4.77
375.294	4.94
375.661	4.48
376.028	4.7
376.395	4.35
376.762	4.78
377.129	4.51
377.496	4.3
377.863	4.52
378.229	4.51
378.596	4.69
378.963	4.64
379.329	4.21
379.696	4.99
380.062	4.82
380.429	4.64
380.795	4.37
381.161	4.7
381.528	5.22
381.894	4.93
382.26	4.49
382.626	4.74
382.993	4.18
383.359	5
383.725	4.41
384.091	4.7
384.457	4.54
384.823	4.58
385.188	4.7
385.554	4.57
385.92	5.1
386.286	4.83
386.651	4.88
387.017	5.02
387.383	4.87
387.748	4.66
388.114	4.77
388.479	4.6
388.845	5.03
389.21	4.93
389.575	4.68
389.94	4.9
390.306	4.51
390.671	4.59
391.036	4.24
391.401	4.43
391.766	4.73
392.131	4.55
392.496	4.74
392.861	4.66
393.226	4.82
393.591	4.84
393.956	4.36
394.32	4.83
394.685	4.53
395.05	4.25
395.414	4.64
395.779	4.66
396.143	4.7
396.508	4.95
396.872	5.05
397.236	4.81
397.601	4.53
397.965	4.77
398.329	4.58
398.694	4.8
399.058	4.79
399.422	4.5
399.786	5.21
400.15	4.65
400.514	4.78
400.878	4.76
401.242	4.91
401.605	4.78
401.969	4.94
402.333	4.95
402.697	4.8
403.06	4.94
403.424	4.6
403.787	4.87
404.151	4.68
404.514	4.78
404.878	4.65
405.241	4.97
405.604	4.75
405.968	4.87
406.331	4.81
406.694	4.86
407.057	4.9
407.42	4.91
407.783	4.76
408.146	4.82
408.509	4.67
408.872	4.76
409.235	4.73
409.598	5.14
409.961	4.92
410.323	4.86
410.686	4.88
411.049	4.71
411.411	4.97
411.774	4.77
412.136	4.77
412.499	4.72
412.861	4.78
413.223	4.84
413.586	5.07
413.948	4.7
414.31	5.06
414.672	4.69
415.035	4.64
415.397	5.25
415.759	4.54
416.121	5.03
416.483	4.65
416.845	4.94
417.206	4.84
417.568	5.06
417.93	4.5
418.292	4.79
418.653	4.87
419.015	4.98
419.377	4.74
419.738	4.83
420.1	4.84
420.461	4.85
420.822	5.04
421.184	4.77
421.545	4.77
421.906	4.85
422.267	4.8
422.629	4.88
422.99	4.83
423.351	4.86
423.712	4.87
424.073	4.74
424.434	4.89
424.795	4.74
425.155	4.91
425.516	4.72
425.877	4.95
426.238	4.9
426.598	4.87
426.959	4.91
427.32	4.8
427.68	4.82
428.041	4.82
428.401	5.05
428.761	4.87
429.122	5
429.482	4.71
429.842	5.04
430.202	5.01
430.563	5.07
430.923	4.83
431.283	5.3
431.643	5.05
432.003	4.83
432.363	4.88
432.722	4.94
433.082	4.99
433.442	4.93
433.802	4.74
434.161	4.8
434.521	5.16
434.881	5.05
435.24	5.07
435.6	4.85
435.959	4.98
436.319	5.08
436.678	4.94
437.037	4.94
437.396	5.14
437.756	5.03
438.115	4.89
438.474	5.22
438.833	4.94
439.192	4.84
439.551	4.99
439.91	5.01
440.269	4.96
440.628	4.97
440.987	4.99
441.345	4.88
441.704	4.95
442.063	4.82
442.421	4.96
442.78	4.94
443.138	4.83
443.497	5.11
443.855	4.97
444.214	4.95
444.572	5.18
444.93	5.13
445.288	5.16
445.647	5.16
446.005	4.89
446.363	4.98
446.721	5.1
447.079	4.83
447.437	5.01
447.795	5.11
448.153	4.86
448.51	5.09
448.868	5.03
449.226	5.07
449.584	5.01
449.941	5.18
450.299	5.1
450.656	5.13
451.014	5.11
451.371	5.09
451.729	5.1
452.086	5.27
452.443	5.12
452.801	5.2
453.158	5.04
453.515	4.93
453.872	5.26
454.229	5.13
454.586	5.14
454.943	5.23
455.3	5.15
455.657	5.03
456.014	5.05
456.371	5.01
456.727	5.14
457.084	5.34
457.441	5.27
457.797	5.16
458.154	5.32
458.51	5.37
458.867	5.37
459.223	5.36
459.58	5.4
459.936	5.37
460.292	5.21
460.648	5.18
461.005	5.31
461.361	5.21
461.717	5.21
462.073	5.17
462.429	5.13
462.785	5.19
463.141	5.05
463.496	5.28
463.852	5.3
464.208	5.32
464.564	5.24
464.919	5.36
465.275	5.32
465.631	5.44
465.986	5.24
466.342	5.43
466.697	5.22
467.052	5.46
467.408	5.47
467.763	5.26
468.118	5.47
468.473	5.17
468.829	5.28
469.184	5.11
469.539	5.42
469.894	5.19
470.249	5.35
470.603	5.57
470.958	5.5
471.313	5.51
471.668	5.52
472.023	5.39
472.377	5.33
472.732	5.53
473.086	5.32
473.441	5.26
473.795	5.64
474.15	5.29
474.504	5.26
474.859	5.47
475.213	5.31
475.567	5.33
475.921	5.21
476.275	5.45
476.63	5.47
476.984	5.57
477.338	5.72
477.692	5.39
478.045	5.38
478.399	5.56
478.753	5.56
479.107	5.56
479.461	5.56
479.814	5.5
480.168	5.5
480.521	5.44
480.875	5.43
481.228	5.35
481.582	5.35
481.935	5.44
482.289	5.39
482.642	5.51
482.995	5.23
483.348	5.39
483.701	5.47
484.055	5.57
484.408	5.65
484.761	5.37
485.114	5.3
485.466	5.18
485.819	5.2
486.172	5.22
486.525	5.22
486.878	5.23
487.23	5.27
487.583	5.38
487.936	5.43
488.288	5.41
488.641	5.45
488.993	5.34
489.345	5.3
489.698	5.29
490.05	5.32
490.402	5.4
490.754	5.37
491.107	5.5
491.459	5.52
491.811	5.65
492.163	5.51
492.515	5.53
492.866	5.54
493.218	5.52
493.57	5.37
493.922	5.46
494.274	5.53
494.625	5.57
494.977	5.67
495.328	5.7
495.68	5.69
496.031	5.75
496.383	5.6
496.734	5.83
497.086	5.7
497.437	5.72
497.788	5.67
498.139	5.69
498.49	5.82
498.842	5.68
499.193	5.68
499.544	5.76
499.894	5.73
500.245	5.73
500.596	5.74
500.947	5.8
501.298	5.82
501.648	5.65
501.999	5.85
502.35	5.83
502.7	5.86
503.051	5.76
503.401	5.69
503.752	6.01
504.102	5.76
504.452	5.94
504.803	5.88
505.153	5.78
505.503	5.94
505.853	5.96
506.203	5.93
506.553	5.95
506.903	5.94
507.253	5.98
507.603	5.8
507.953	6.15
508.303	6.15
508.652	5.77
509.002	6.02
509.352	6.12
509.701	5.94
510.051	5.91
510.4	5.93
510.75	5.96
511.099	5.95
511.449	6.01
511.798	5.95
512.147	5.97
512.496	6.08
512.846	6.17
513.195	5.95
513.544	6.04
513.893	6.17
514.242	6.09
514.591	6.26
514.939	6.05
515.288	6.09
515.637	6.25
515.986	6.27
516.334	6.22
516.683	6.2
517.032	6.19
517.38	6.24
517.729	6.25
518.077	6.07
518.426	6.26
518.774	6.26
519.122	6.28
519.47	6.28
519.819	6.11
520.167	6.2
520.515	6.17
520.863	6.28
521.211	6.22
521.559	6.27
521.907	6.29
522.255	6.25
522.602	6.29
522.95	6.3
523.298	6.32
523.645	6.45
523.993	6.4
524.341	6.55
524.688	6.59
525.036	6.39
525.383	6.41
525.73	6.6
526.078	6.58
526.425	6.36
526.772	6.55
527.119	6.52
527.466	6.41
527.814	6.52
528.161	6.46
528.508	6.5
528.854	6.49
529.201	6.47
529.548	6.43
529.895	6.46
530.242	6.36
530.588	6.35
530.935	6.37
531.282	6.41
531.628	6.4
531.975	6.45
532.321	6.57
532.667	6.63
533.014	6.63
533.36	6.65
533.706	6.68
534.052	6.74
534.399	6.64
534.745	6.61
535.091	6.68
535.437	6.66
535.783	6.69
536.129	6.69
536.474	6.8
536.82	6.88
537.166	6.93
537.512	6.92
537.857	6.9
538.203	6.94
538.549	6.91
538.894	6.82
539.239	6.94
539.585	6.95
539.93	6.96
540.276	7.15
540.621	7.1
540.966	7.18
541.311	7.04
541.656	7.21
542.001	7.2
542.346	7.2
542.691	7.07
543.036	7.14
543.381	6.93
543.726	7.03
544.071	7.09
544.415	7.16
544.76	7.15
545.105	7.19
545.449	7.18
545.794	7.38
546.138	7.17
546.483	7.43
546.827	7.44
547.171	7.36
547.516	7.55
547.86	7.44
548.204	7.42
548.548	7.45
548.892	7.58
549.236	7.5
549.58	7.42
549.924	7.51
550.268	7.62
550.612	7.81
550.956	7.85
551.3	7.64
551.643	8
551.987	8
552.33	7.86
552.674	8.08
553.017	7.99
553.361	7.84
553.704	8.11
554.048	7.96
554.391	8.07
554.734	7.79
555.077	7.8
555.42	7.81
555.764	7.84
556.107	7.74
556.45	8.08
556.793	7.82
557.135	8.23
557.478	8.43
557.821	8.24
558.164	8.18
558.507	8.28
558.849	8.3
559.192	8.21
559.534	8.23
559.877	8.26
560.219	8.26
560.562	8.66
560.904	8.48
561.246	8.5
561.589	8.39
561.931	8.47
562.273	8.34
562.615	8.59
562.957	8.45
563.299	8.33
563.641	8.54
563.983	8.73
564.325	8.61
564.667	8.63
565.008	8.67
565.35	8.5
565.692	8.53
566.033	8.72
566.375	8.97
566.716	8.97
567.058	8.85
567.399	8.84
567.741	8.83
568.082	8.92
568.423	8.97
568.764	8.89
569.105	8.97
569.447	8.92
569.788	9.14
570.129	9.11
570.47	9.1
570.811	9.33
571.151	9.23
571.492	9.34
571.833	9.31
572.174	9.26
572.514	9.25
572.855	9.4
573.195	9.51
573.536	9.53
573.876	9.28
574.217	9.4
574.557	9.47
574.898	9.63
575.238	9.59
575.578	9.4
575.918	9.67
576.258	9.75
576.598	9.69
576.938	9.66
577.278	9.68
577.618	9.75
577.958	9.74
578.298	9.71
578.638	9.8
578.977	9.84
579.317	9.86
579.657	9.97
579.996	10.04
580.336	10.11
580.675	10.1
581.014	10.09
581.354	10.11
581.693	10.25
582.032	10
582.372	10.03
582.711	10.17
583.05	10.17
583.389	10.32
583.728	10.22
584.067	10.37
584.406	10.24
584.745	10.51
585.083	10.67
585.422	10.48
585.761	10.75
586.1	10.96
586.438	10.66
586.777	10.85
587.115	10.85
587.454	10.87
587.792	10.53
588.13	10.84
588.469	10.66
588.807	11
589.145	10.8
589.483	11.07
589.821	10.94
590.159	11.22
590.497	11.46
590.835	11.3
591.173	10.98
591.511	11.48
591.849	11.11
592.187	11.45
592.524	11.65
592.862	11.48
593.2	11.48
593.537	11.54
593.875	11.37
594.212	11.4
594.55	11.68
594.887	11.72
595.224	11.49
595.561	11.72
595.899	11.68
596.236	11.61
596.573	12.04
596.91	11.39
597.247	11.63
597.584	12.07
597.921	11.81
598.258	11.83
598.594	11.94
598.931	11.87
599.268	12.02
599.604	11.93
599.941	11.86
600.277	12.05
600.614	11.95
600.95	12.01
601.287	12.19
601.623	12.27
601.959	12.18
602.296	12.27
602.632	12.17
602.968	12.51
603.304	12.45
603.64	12.4
603.976	12.63
604.312	12.6
604.648	12.61
604.984	12.73
605.319	12.57
605.655	12.72
605.991	12.7
606.326	12.77
606.662	12.99
606.998	12.73
607.333	13.01
607.668	13
608.004	13.15
608.339	13.14
608.674	13.26
609.01	13.02
609.345	12.96
609.68	13.29
610.015	13.34
610.35	13.27
610.685	13.39
611.02	13.33
611.355	13.34
611.689	13.2
612.024	13.55
612.359	13.89
612.694	13.64
613.028	13.63
613.363	13.6
613.697	13.5
614.032	13.67
614.366	13.5
614.7	14.13
615.035	14.26
615.369	13.85
615.703	13.96
616.037	14.06
616.371	13.57
616.705	13.9
617.039	14.25
617.373	14.19
617.707	14.02
618.041	14.13
618.375	14.6
618.709	14.45
619.042	14.36
619.376	14.59
619.71	14.61
620.043	14.66
620.377	14.71
620.71	14.64
621.043	14.58
621.377	14.88
621.71	14.51
622.043	14.8
622.376	14.59
622.709	14.9
623.043	15.14
623.376	14.76
623.709	14.65
624.041	15.1
624.374	15.06
624.707	15.07
625.04	15.41
625.373	14.62
625.705	15.01
626.038	14.99
626.37	15.3
626.703	15.59
627.035	15.52
627.368	15.71
627.7	15.59
628.032	15.42
628.365	15.8
628.697	15.8
629.029	15.51
629.361	15.63
629.693	15.82
630.025	15.36
630.357	15.91
630.689	15.72
631.021	15.57
631.353	16.14
631.684	15.65
632.016	15.78
632.348	15.89
632.679	16.42
633.011	16.43
633.342	16.43
633.674	16.32
634.005	16.62
634.336	16.53
634.668	16.7
634.999	16.19
635.33	17.07
635.661	16.62
635.992	16.54
636.323	17
636.654	16.98
636.985	16.84
637.316	16.68
637.647	16.72
637.977	17.48
638.308	17.26
638.639	16.71
638.969	16.8
639.3	16.81
639.63	16.84
639.961	17.24
640.291	17.2
640.622	17.33
640.952	17.13
641.282	17.61
641.612	17.66
641.943	17.47
642.273	17.27
642.603	17.72
642.933	17.18
643.263	17.54
643.592	17.68
643.922	17.63
644.252	17.66
644.582	18.08
644.911	17.08
645.241	17.7
645.571	17.58
645.9	17.22
646.23	17.58
646.559	18.12
646.888	17.7
647.218	18.13
647.547	18.29
647.876	18.12
648.205	18.29
648.534	17.84
648.863	18.08
649.192	18.95
649.521	18.22
649.85	17.82
650.179	18.9
650.508	18.64
650.837	18.23
651.165	18.49
651.494	18.49
651.822	19.24
652.151	18.48
652.479	18.85
652.808	18.34
653.136	19.08
653.465	18.16
653.793	19.02
654.121	19.11
654.449	19.38
654.777	19.55
655.105	19.34
655.433	18.74
655.761	19.27
656.089	19.53
656.417	19.27
656.745	19.47
657.073	18.89
657.4	19.35
657.728	19.14
658.056	19.4
658.383	19.51
658.711	20.09
659.038	19.88
659.365	19.86
659.693	19.27
660.02	19.93
660.347	20.2
660.674	19.95
661.001	19.94
661.329	19.4
661.656	19.86
661.982	20.37
662.309	19.79
662.636	19.76
662.963	20.2
663.29	20.67
663.616	20.11
663.943	20.27
664.27	19.77
664.596	20.59
664.923	20.53
665.249	20.8
665.576	20.23
665.902	20.6
666.228	20.77
666.554	21.11
666.881	21.13
667.207	21.37
667.533	21.14
667.859	20.79
668.185	21.18
668.511	20.49
668.837	20.3
669.162	20.71
669.488	20.33
669.814	21.35
670.139	21.32
670.465	21.55
670.791	21.24
671.116	21.76
671.442	21.51
671.767	22.04
672.092	21.7
672.418	21.78
672.743	21.62
673.068	20.88
673.393	21.71
673.718	21.77
674.043	21.74
674.368	21.78
674.693	22.55
675.018	21.78
675.343	21.51
675.667	21.87
675.992	21.71
676.317	22.14
676.641	22.08
676.966	21.71
677.29	21.86
677.615	21.85
677.939	22.85
678.264	23.04
678.588	22.34
678.912	22.39
679.236	23.38
679.56	22.36
679.885	23.18
680.209	22.72
680.532	22.96
680.856	22.99
681.18	23.15
681.504	22.95
681.828	22.77
682.152	22.74
682.475	23.23
682.799	22.99
683.122	23.24
683.446	22.95
683.769	23.69
684.093	23.15
684.416	23.25
684.739	23.42
685.062	22.76
685.386	23.72
