Data from 0390_crown_Reflection__3__117.txt Node

Date: Fri Dec 15 17:27:00 CST 2023
User: ToomeyLab
Spectrometer: FLMS14357
Trigger mode: 0
Integration Time (sec): 1.000000E-2
Scans to average: 100
Electric dark correction enabled: true
Nonlinearity correction enabled: false
Boxcar width: 0
XAxis mode: Wavelengths
Number of Pixels in Spectrum: 2048
>>>>>Begin Spectral Data<<<<<
189.047	-2.13
189.435	-2.13
189.823	-2.13
190.211	-17.15
190.599	-178.58
190.987	111.41
191.375	71.33
191.763	76.88
192.151	44.28
192.538	91.15
192.926	-36.39
193.314	100.34
193.702	-66.3
194.089	10.39
194.477	1
194.864	-60.81
195.252	199.69
195.639	190.84
196.027	46.45
196.414	-25.15
196.801	-33.38
197.189	30.51
197.576	199.92
197.963	237.75
198.351	-30.28
198.738	16.71
199.125	24.68
199.512	6.15
199.899	4.56
200.286	18.09
200.673	4.9
201.06	21.93
201.447	5.2
201.833	-22.59
202.22	11.06
202.607	2.31
202.994	-18.99
203.38	25.48
203.767	51.41
204.154	23.64
204.54	66.33
204.927	-82.86
205.313	-60.19
205.699	25.52
206.086	25.66
206.472	47.79
206.858	-6.05
207.245	-20.69
207.631	1.56
208.017	-2.37
208.403	18.01
208.789	14.34
209.175	28.85
209.561	-17.75
209.947	2.49
210.333	-39.39
210.719	19.66
211.105	-2.11
211.491	8.98
211.876	23.02
212.262	-0.36
212.648	1.83
213.034	28.23
213.419	9.07
213.805	-26.71
214.19	5.84
214.576	7.69
214.961	-46.81
215.346	-28.29
215.732	-16.97
216.117	-1.04
216.502	-4.06
216.888	-25.82
217.273	13.69
217.658	6.29
218.043	-3.17
218.428	-37.65
218.813	-28.64
219.198	-0.97
219.583	26
219.968	15.64
220.353	-2.24
220.738	25.91
221.122	17.59
221.507	-6.68
221.892	-7.94
222.276	-17.59
222.661	10.8
223.046	28.41
223.43	18.83
223.815	20.4
224.199	-4.78
224.583	-3.57
224.968	8.51
225.352	15.21
225.736	0.94
226.121	-1.29
226.505	8.3
226.889	10.14
227.273	-1.33
227.657	10.61
228.041	0.05
228.425	6.02
228.809	6.67
229.193	5.04
229.577	7.67
229.961	7.22
230.344	5.94
230.728	6.54
231.112	7.29
231.495	5.97
231.879	6.27
232.263	7.26
232.646	6.74
233.03	6.74
233.413	6.19
233.797	5.91
234.18	5.89
234.563	7.98
234.946	6.28
235.33	7.29
235.713	6.4
236.096	7.06
236.479	8.08
236.862	5.57
237.245	7.33
237.628	4.76
238.011	6.65
238.394	7.82
238.777	6.73
239.16	5.49
239.543	6.59
239.925	7.68
240.308	7.12
240.691	9.39
241.073	7.67
241.456	6.82
241.838	5.93
242.221	5.88
242.603	6.54
242.986	6.47
243.368	6.81
243.75	6.89
244.133	6.3
244.515	6.69
244.897	6.53
245.279	6.66
245.661	6.42
246.043	6.35
246.425	5.35
246.807	7.02
247.189	6.66
247.571	6.3
247.953	7.21
248.335	6.2
248.717	6.41
249.098	6.3
249.48	6.54
249.862	6.32
250.243	6.59
250.625	6.6
251.006	6.39
251.388	5.65
251.769	6.73
252.151	6.95
252.532	5.26
252.913	5.45
253.295	6.24
253.676	5.61
254.057	6.26
254.438	6.42
254.819	5.71
255.2	5.52
255.581	5.53
255.962	4.35
256.343	5.67
256.724	5.56
257.105	5.37
257.486	5.7
257.867	6.5
258.247	6.32
258.628	6.06
259.009	5.84
259.389	6.1
259.77	5.75
260.15	5.16
260.531	4.68
260.911	6.44
261.292	5.95
261.672	5.95
262.052	5.8
262.432	6.04
262.813	6.04
263.193	5.94
263.573	5.51
263.953	5.23
264.333	6.36
264.713	5.41
265.093	5.28
265.473	5.15
265.853	5.18
266.233	5.08
266.612	3.77
266.992	4.1
267.372	6.26
267.752	5.12
268.131	5.39
268.511	6.15
268.89	5.93
269.27	5.5
269.649	4.98
270.029	5.57
270.408	6.45
270.787	5.83
271.167	5.75
271.546	6.19
271.925	4.4
272.304	5.83
272.683	6.37
273.062	5
273.441	5.82
273.82	5.17
274.199	5.84
274.578	5.32
274.957	5.43
275.336	4.98
275.715	4.67
276.093	4.87
276.472	5.04
276.851	5.31
277.229	5.5
277.608	5.21
277.986	5.37
278.365	5.87
278.743	4.63
279.122	5.24
279.5	6.08
279.878	5.89
280.257	5.08
280.635	4.88
281.013	5.04
281.391	5.03
281.769	5.25
282.147	5.86
282.525	5.72
282.903	5.23
283.281	5.19
283.659	5.52
284.037	5.27
284.415	5.23
284.792	5.63
285.17	4.68
285.548	4.78
285.925	5.72
286.303	5.24
286.68	5.23
287.058	5.4
287.435	5.35
287.813	5.32
288.19	5.28
288.567	4.97
288.945	5.23
289.322	4.78
289.699	4.51
290.076	5.09
290.453	4.91
290.83	5.28
291.207	4.49
291.584	5.44
291.961	5.25
292.338	5.16
292.715	5.66
293.092	4.84
293.469	5.03
293.845	5.76
294.222	4.47
294.599	5.38
294.975	5.1
295.352	5.46
295.728	5.09
296.105	5.14
296.481	5.47
296.858	5.35
297.234	5.33
297.61	5.02
297.986	5.08
298.363	5.21
298.739	5.23
299.115	5.09
299.491	4.69
299.867	4.97
300.243	4.98
300.619	5.03
300.995	5.15
301.371	4.68
301.746	5.18
302.122	4.99
302.498	4.96
302.874	4.89
303.249	4.99
303.625	4.77
304	5.46
304.376	4.76
304.751	4.94
305.127	5.72
305.502	3.98
305.878	4.29
306.253	4.56
306.628	5.25
307.003	4.76
307.378	5.52
307.754	5.15
308.129	4.66
308.504	5.39
308.879	4.71
309.254	6.07
309.629	5.55
310.003	5.06
310.378	5.33
310.753	5.06
311.128	4.95
311.502	4.76
311.877	5.26
312.252	4.6
312.626	5.12
313.001	4.86
313.375	5.47
313.75	4.96
314.124	4.93
314.498	4.8
314.873	4.78
315.247	5.05
315.621	4.72
315.995	4.64
316.369	4.71
316.743	4.02
317.117	4.86
317.491	4.66
317.865	5.09
318.239	4.66
318.613	4.82
318.987	4.78
319.361	4.87
319.734	5.34
320.108	4.82
320.482	5.23
320.855	5.21
321.229	4.84
321.602	4.72
321.976	5.04
322.349	4.64
322.723	5.34
323.096	4.93
323.469	4.18
323.843	5.04
324.216	5.49
324.589	4.68
324.962	4.94
325.335	4.91
325.708	4.71
326.081	4.46
326.454	5.07
326.827	4.46
327.2	4.89
327.573	4.69
327.945	5.16
328.318	4.84
328.691	4.14
329.063	4.91
329.436	4.34
329.809	5.68
330.181	4.76
330.553	4.64
330.926	5
331.298	4.46
331.671	4.41
332.043	5.23
332.415	5.12
332.787	4.82
333.159	5.16
333.532	4.89
333.904	4.86
334.276	4.8
334.648	4.67
335.02	5.29
335.391	4.86
335.763	4.86
336.135	5.01
336.507	4.94
336.879	4.62
337.25	4.56
337.622	4.95
337.993	4.86
338.365	5.14
338.736	4.97
339.108	5.2
339.479	4.53
339.851	4.98
340.222	5.2
340.593	5.17
340.964	4.81
341.336	5.78
341.707	4.87
342.078	5.17
342.449	5.44
342.82	5.05
343.191	5.03
343.562	5.42
343.933	4.92
344.303	5.24
344.674	4.9
345.045	5.3
345.416	5.61
345.786	4.52
346.157	5.22
346.527	4.4
346.898	5.23
347.268	4.96
347.639	4.97
348.009	5.14
348.38	4.78
348.75	4.99
349.12	4.61
349.49	5.66
349.861	5.43
350.231	4.67
350.601	4.99
350.971	5.34
351.341	5.15
351.711	4.94
352.081	5.11
352.45	4.98
352.82	5.24
353.19	4.93
353.56	4.9
353.929	5.4
354.299	5.15
354.669	4.82
355.038	5.23
355.408	5.13
355.777	5.15
356.147	4.75
356.516	5.06
356.885	5.23
357.254	5.16
357.624	5.5
357.993	5.35
358.362	4.98
358.731	4.63
359.1	5.28
359.469	5.44
359.838	5.45
360.207	5.28
360.576	4.97
360.945	5.34
361.314	5.57
361.682	5.02
362.051	5.01
362.42	5.36
362.788	5.13
363.157	5.35
363.525	5.74
363.894	5.1
364.262	5.12
364.631	5.09
364.999	5.53
365.367	4.77
365.735	6.04
366.104	5.41
366.472	5.59
366.84	4.88
367.208	5.45
367.576	5.54
367.944	5.46
368.312	5.14
368.68	5.32
369.048	5.53
369.416	5.31
369.783	5.18
370.151	5.67
370.519	5.88
370.886	5.64
371.254	5.28
371.621	5.31
371.989	5.89
372.356	5.06
372.724	5.31
373.091	5.46
373.458	5.4
373.826	5.71
374.193	5.16
374.56	5.61
374.927	5.71
375.294	5.53
375.661	5.67
376.028	4.98
376.395	5.44
376.762	5.28
377.129	5.82
377.496	5.45
377.863	5.48
378.229	4.95
378.596	5.57
378.963	5.52
379.329	5.29
379.696	5.68
380.062	5.43
380.429	5.62
380.795	5.45
381.161	5.44
381.528	5.63
381.894	5.65
382.26	5.39
382.626	5.68
382.993	5.14
383.359	5.49
383.725	5.48
384.091	5.32
384.457	5.94
384.823	5.54
385.188	5.43
385.554	5.6
385.92	5.33
386.286	5.56
386.651	5.69
387.017	5.83
387.383	5.68
387.748	5.29
388.114	5.59
388.479	5.54
388.845	5.99
389.21	5.72
389.575	5.59
389.94	5.71
390.306	5.66
390.671	5.97
391.036	5.26
391.401	4.98
391.766	5.62
392.131	5.71
392.496	5.59
392.861	5.54
393.226	5.62
393.591	5.65
393.956	5.4
394.32	5.61
394.685	5.65
395.05	5.57
395.414	5.81
395.779	5.45
396.143	5.45
396.508	5.56
396.872	5.99
397.236	5.68
397.601	5.61
397.965	5.86
398.329	5.78
398.694	5.85
399.058	5.68
399.422	5.29
399.786	5.74
400.15	5.78
400.514	5.79
400.878	5.57
401.242	5.81
401.605	5.95
401.969	5.82
402.333	5.72
402.697	5.67
403.06	5.77
403.424	5.72
403.787	5.67
404.151	5.72
404.514	5.77
404.878	5.44
405.241	6.04
405.604	5.8
405.968	5.74
406.331	5.84
406.694	5.79
407.057	5.75
407.42	5.78
407.783	5.46
408.146	5.47
408.509	6.08
408.872	5.66
409.235	5.74
409.598	5.96
409.961	5.9
410.323	5.94
410.686	5.66
411.049	5.7
411.411	5.89
411.774	5.72
412.136	5.81
412.499	5.61
412.861	5.78
413.223	5.81
413.586	5.75
413.948	5.94
414.31	5.79
414.672	5.67
415.035	5.79
415.397	6.11
415.759	5.51
416.121	6.2
416.483	5.87
416.845	5.73
417.206	5.88
417.568	5.96
417.93	5.43
418.292	5.73
418.653	5.9
419.015	5.98
419.377	5.84
419.738	5.7
420.1	5.71
420.461	5.85
420.822	5.93
421.184	5.69
421.545	5.84
421.906	5.65
422.267	5.64
422.629	5.78
422.99	5.79
423.351	5.74
423.712	5.8
424.073	5.72
424.434	5.71
424.795	5.78
425.155	5.75
425.516	5.72
425.877	5.65
426.238	5.68
426.598	5.78
426.959	5.8
427.32	5.63
427.68	5.88
428.041	5.87
428.401	5.92
428.761	5.71
429.122	5.97
429.482	5.74
429.842	6.12
430.202	6.12
430.563	6.03
430.923	5.73
431.283	6.05
431.643	5.77
432.003	5.71
432.363	5.97
432.722	5.95
433.082	5.99
433.442	5.96
433.802	5.84
434.161	6.01
434.521	6.11
434.881	6.01
435.24	5.93
435.6	5.84
435.959	5.98
436.319	5.88
436.678	5.89
437.037	5.82
437.396	6
437.756	6.07
438.115	5.94
438.474	6.04
438.833	5.82
439.192	5.89
439.551	6
439.91	5.99
440.269	6.04
440.628	5.77
440.987	5.83
441.345	5.7
441.704	6.02
442.063	5.9
442.421	5.87
442.78	5.9
443.138	5.87
443.497	5.91
443.855	6
444.214	5.97
444.572	6.02
444.93	5.98
445.288	6.1
445.647	6.16
446.005	5.94
446.363	6.08
446.721	6
447.079	5.82
447.437	5.92
447.795	5.99
448.153	5.83
448.51	5.89
448.868	5.85
449.226	5.94
449.584	5.92
449.941	6.05
450.299	6.01
450.656	6.04
451.014	5.98
451.371	5.89
451.729	6.04
452.086	6.22
452.443	5.96
452.801	5.99
453.158	6.06
453.515	5.91
453.872	6.21
454.229	6
454.586	5.91
454.943	5.98
455.3	6.17
455.657	6.06
456.014	6.05
456.371	5.94
456.727	5.99
457.084	6.26
457.441	6.1
457.797	6.01
458.154	6.05
458.51	6.29
458.867	6.18
459.223	6.14
459.58	6.06
459.936	6.04
460.292	6.01
460.648	5.99
461.005	5.91
461.361	5.97
461.717	5.96
462.073	5.85
462.429	5.94
462.785	5.88
463.141	6.03
463.496	6.13
463.852	6.33
464.208	5.97
464.564	6.11
464.919	5.95
465.275	6.09
465.631	6.25
465.986	6.16
466.342	6.15
466.697	5.89
467.052	6.21
467.408	6.14
467.763	6.15
468.118	5.96
468.473	6.12
468.829	6.08
469.184	6.22
469.539	6.09
469.894	5.98
470.249	6.28
470.603	6.15
470.958	6.1
471.313	6.16
471.668	6.36
472.023	6.12
472.377	6.11
472.732	6.19
473.086	6.16
473.441	5.81
473.795	6.38
474.15	6.18
474.504	5.96
474.859	6.16
475.213	6.1
475.567	5.99
475.921	6.1
476.275	6.22
476.63	6.21
476.984	6.39
477.338	6.21
477.692	6.01
478.045	6.18
478.399	6.13
478.753	6.18
479.107	6.16
479.461	6.01
479.814	6.03
480.168	5.97
480.521	6.02
480.875	6.16
481.228	6
481.582	6.1
481.935	6.09
482.289	6.11
482.642	6.14
482.995	6.09
483.348	6.01
483.701	6.12
484.055	6.15
484.408	6.04
484.761	5.91
485.114	5.94
485.466	5.79
485.819	5.75
486.172	5.76
486.525	5.83
486.878	5.81
487.23	5.91
487.583	5.99
487.936	5.93
488.288	5.97
488.641	5.97
488.993	5.9
489.345	5.84
489.698	5.86
490.05	5.82
490.402	5.87
490.754	5.82
491.107	5.94
491.459	6.06
491.811	6.1
492.163	6.04
492.515	6.01
492.866	6.17
493.218	6.02
493.57	5.83
493.922	5.82
494.274	5.93
494.625	6.08
494.977	6.13
495.328	6.17
495.68	6.14
496.031	6.25
496.383	6.19
496.734	6.35
497.086	6.13
497.437	6.29
497.788	6.14
498.139	6.1
498.49	6.24
498.842	5.96
499.193	6.13
499.544	6.07
499.894	6.03
500.245	6.14
500.596	6.15
500.947	6.2
501.298	6.08
501.648	6.26
501.999	6.42
502.35	6.14
502.7	6.24
503.051	6.17
503.401	6.17
503.752	6.27
504.102	6.15
504.452	6.25
504.803	6.06
505.153	6.21
505.503	6.27
505.853	6.13
506.203	6.15
506.553	6.22
506.903	6.27
507.253	6.14
507.603	6.23
507.953	6.21
508.303	6.34
508.652	6.21
509.002	6.27
509.352	6.29
509.701	6.02
510.051	6.17
510.4	6.13
510.75	6.27
511.099	6.09
511.449	6.13
511.798	6.2
512.147	6.3
512.496	6.11
512.846	6.18
513.195	6.1
513.544	6.19
513.893	6.11
514.242	6.05
514.591	6.24
514.939	6.01
515.288	6.25
515.637	6.25
515.986	6.11
516.334	6.18
516.683	6.24
517.032	6.2
517.38	6.22
517.729	6.18
518.077	6.1
518.426	6.21
518.774	6.39
519.122	6.14
519.47	6.19
519.819	5.97
520.167	6.05
520.515	6.01
520.863	6.08
521.211	6.12
521.559	6.23
521.907	6.01
522.255	6.19
522.602	6.2
522.95	6.17
523.298	6.23
523.645	6.3
523.993	6.13
524.341	6.31
524.688	6.27
525.036	6.19
525.383	6.16
525.73	6.35
526.078	6.16
526.425	6.14
526.772	6.42
527.119	6.07
527.466	6.06
527.814	6.07
528.161	6.02
528.508	6.09
528.854	6.07
529.201	6.09
529.548	6.05
529.895	5.97
530.242	5.92
530.588	5.84
530.935	5.85
531.282	5.91
531.628	5.95
531.975	6.03
532.321	6.06
532.667	6.12
533.014	6.18
533.36	6.13
533.706	6.11
534.052	6.11
534.399	6.05
534.745	6.03
535.091	5.98
535.437	5.97
535.783	6.04
536.129	6.11
536.474	6.08
536.82	6.18
537.166	6.17
537.512	6.11
537.857	6.14
538.203	6.16
538.549	6
538.894	6.06
539.239	6.13
539.585	6.18
539.93	6
540.276	6.2
540.621	6.34
540.966	6.38
541.311	6.07
541.656	6.15
542.001	6.03
542.346	6.19
542.691	5.97
543.036	5.95
543.381	5.89
543.726	5.94
544.071	6.08
544.415	6.09
544.76	5.99
545.105	6.11
545.449	6.06
545.794	6.17
546.138	6.17
546.483	6.11
546.827	6.22
547.171	6.14
547.516	6.36
547.86	6.05
548.204	6.11
548.548	6.08
548.892	6.19
549.236	6.06
549.58	6.15
549.924	6.15
550.268	6.37
550.612	6.25
550.956	6.38
551.3	6.23
551.643	6.39
551.987	6.39
552.33	6.27
552.674	6.26
553.017	6.04
553.361	6.17
553.704	6.4
554.048	6.24
554.391	6.19
554.734	6.16
555.077	6.19
555.42	6.16
555.764	6.14
556.107	6.1
556.45	6.09
556.793	6.12
557.135	6.24
557.478	6.41
557.821	6.34
558.164	6.11
558.507	6.14
558.849	6.26
559.192	6.34
559.534	6.2
559.877	6.41
560.219	6.26
560.562	6.36
560.904	6.29
561.246	6.34
561.589	6.3
561.931	6.29
562.273	6.22
562.615	6.23
562.957	6.26
563.299	5.9
563.641	6.21
563.983	6.26
564.325	6.12
564.667	6.17
565.008	6.26
565.35	6.16
565.692	6.21
566.033	6.2
566.375	6.18
566.716	6.17
567.058	6.22
567.399	6.13
567.741	6.09
568.082	6.08
568.423	6.17
568.764	6.03
569.105	6.26
569.447	6.37
569.788	6.33
570.129	6.46
570.47	6.31
570.811	6.27
571.151	6.19
571.492	6.25
571.833	6.18
572.174	6.18
572.514	6.18
572.855	6.16
573.195	6.2
573.536	6.18
573.876	6.07
574.217	6.21
574.557	6.32
574.898	6.32
575.238	6.37
575.578	6.04
575.918	6.24
576.258	6.28
576.598	6.27
576.938	6.04
577.278	6.12
577.618	6.15
577.958	6.07
578.298	6.1
578.638	6.09
578.977	6.08
579.317	6.07
579.657	6.43
579.996	6.21
580.336	6.11
580.675	6
581.014	6.22
581.354	6.27
581.693	6.34
582.032	5.79
582.372	6.17
582.711	6.15
583.05	5.95
583.389	6.05
583.728	5.9
584.067	6.29
584.406	6.37
584.745	5.89
585.083	6.21
585.422	6.36
585.761	6.38
586.1	6.23
586.438	6.13
586.777	6.44
587.115	6.25
587.454	6.26
587.792	6.23
588.13	6.31
588.469	6.1
588.807	6.36
589.145	6.08
589.483	6.43
589.821	6.02
590.159	6.21
590.497	6.65
590.835	6.75
591.173	6.26
591.511	6.5
591.849	6.25
592.187	6.26
592.524	6.24
592.862	6.33
593.2	6.23
593.537	6.27
593.875	6.07
594.212	5.95
594.55	6.14
594.887	6.32
595.224	6.3
595.561	6.18
595.899	6.25
596.236	6.12
596.573	6.26
596.91	6.18
597.247	6.2
597.584	6.43
597.921	6.07
598.258	5.89
598.594	6.05
598.931	6.15
599.268	6.22
599.604	6.09
599.941	6.39
600.277	6.12
600.614	5.97
600.95	5.9
601.287	6.16
601.623	6.19
601.959	5.79
602.296	6.29
602.632	6.19
602.968	6.3
603.304	6.12
603.64	5.83
603.976	6.42
604.312	6.01
604.648	6.26
604.984	6.08
605.319	6.05
605.655	6.11
605.991	6.19
606.326	6.22
606.662	6.09
606.998	5.91
607.333	6.28
607.668	6.24
608.004	6.42
608.339	6.23
608.674	6.24
609.01	6.17
609.345	6.05
609.68	6.39
610.015	6.33
610.35	6.09
610.685	5.99
611.02	6.06
611.355	6.3
611.689	6.19
612.024	6.21
612.359	6.06
612.694	6.14
613.028	5.85
613.363	6.34
613.697	6.24
614.032	6.02
614.366	6.01
614.7	6.2
615.035	6.15
615.369	6.08
615.703	6.48
616.037	6.38
616.371	5.66
616.705	5.81
617.039	6.24
617.373	5.97
617.707	6.21
618.041	5.98
618.375	6.05
618.709	6.48
619.042	6.15
619.376	6.27
619.71	6.22
620.043	6.12
620.377	6.01
620.71	5.98
621.043	6.44
621.377	6.17
621.71	6.1
622.043	5.84
622.376	5.74
622.709	6.28
623.043	6.19
623.376	6.36
623.709	5.95
624.041	6.57
624.374	6.21
624.707	6.03
625.04	6.77
625.373	5.62
625.705	6.28
626.038	6.22
626.37	5.95
626.703	5.87
627.035	6.19
627.368	6.41
627.7	6.25
628.032	6.24
628.365	6.2
628.697	6.1
629.029	5.95
629.361	6.2
629.693	6.5
630.025	6.04
630.357	6.41
630.689	6.62
631.021	5.99
631.353	6.21
631.684	5.99
632.016	6.02
632.348	6.27
632.679	5.98
633.011	6.63
633.342	6.67
633.674	6.25
634.005	6.45
634.336	6.06
634.668	6.6
634.999	6.29
635.33	6.23
635.661	6.23
635.992	6.29
636.323	6.54
636.654	6.33
636.985	5.88
637.316	6.38
637.647	6.04
637.977	6.34
638.308	6.21
638.639	5.76
638.969	5.95
639.3	5.92
639.63	5.74
639.961	5.96
640.291	5.75
640.622	6.52
640.952	6.21
641.282	6.34
641.612	6.31
641.943	6.11
642.273	6.23
642.603	6.8
642.933	5.89
643.263	6.42
643.592	5.97
643.922	5.89
644.252	5.99
644.582	6.41
644.911	5.83
645.241	6.06
645.571	6.34
645.9	5.72
646.23	5.88
646.559	6.51
646.888	5.91
647.218	5.82
647.547	6.39
647.876	6.08
648.205	6.03
648.534	6.23
648.863	6.09
649.192	6.61
649.521	6.05
649.85	5.84
650.179	6.43
650.508	5.89
650.837	5.99
651.165	5.83
651.494	6.32
651.822	6
652.151	5.85
652.479	6.68
652.808	6.07
653.136	6.51
653.465	5.47
653.793	6.02
654.121	6.08
654.449	6.3
654.777	6.18
655.105	6.12
655.433	5.6
655.761	6.29
656.089	6.46
656.417	6.11
656.745	6.23
657.073	6.21
657.4	6.86
657.728	6.05
658.056	5.62
658.383	6.61
658.711	6.28
659.038	6.2
659.365	6.34
659.693	6.15
660.02	5.87
660.347	6.27
660.674	6.46
661.001	6.45
661.329	5.73
661.656	6.36
661.982	6.38
662.309	6.15
662.636	5.88
662.963	6.72
663.29	6.5
663.616	6.74
663.943	5.72
664.27	6.25
664.596	6.76
664.923	6.04
665.249	6.63
665.576	6.18
665.902	6.96
666.228	6.5
666.554	6.25
666.881	6.47
667.207	6.5
667.533	6.54
667.859	6.23
668.185	6.28
668.511	5.79
668.837	6.11
669.162	6.58
669.488	5.78
669.814	6.43
670.139	6.11
670.465	6.51
670.791	6.21
671.116	7.24
671.442	6.33
671.767	6.67
672.092	6.27
672.418	5.85
672.743	6.93
673.068	6.21
673.393	6.39
673.718	6.25
674.043	6.46
674.368	6.11
674.693	7.48
675.018	5.91
675.343	6
675.667	5.99
675.992	6.84
676.317	6.56
676.641	6.14
676.966	6.93
677.29	6.24
677.615	6.29
677.939	6.63
678.264	6.45
678.588	6.39
678.912	6.56
679.236	6.89
679.56	5.92
679.885	6.67
680.209	6.82
680.532	5.69
680.856	7.07
681.18	7.06
681.504	6.48
681.828	6.72
682.152	6.54
682.475	6.17
682.799	6.76
683.122	6.67
683.446	6.41
683.769	6.79
684.093	6.51
684.416	6.72
684.739	6.48
685.062	7.26
685.386	7.05
685.709	5.92
686.032	6.89
686.355	7.14
686.678	5.93
687.001	6.65
687.324	7.36
687.646	5.19
687.969	6.72
688.292	5.91
688.614	5.62
688.937	6.92
689.26	6.43
689.582	6.63
689.904	6.4
690.227	6.7
690.549	6.43
690.871	6.83
691.194	6.25
691.516	6.61
691.838	6.73
692.16	5.8
692.482	6.99
