Data from 0366_crown_Reflection__1__315.txt Node

Date: Fri Oct 20 23:10:55 CDT 2023
User: ToomeyLab
Spectrometer: FLMS14357
Trigger mode: 0
Integration Time (sec): 1.000000E-2
Scans to average: 100
Electric dark correction enabled: true
Nonlinearity correction enabled: false
Boxcar width: 0
XAxis mode: Wavelengths
Number of Pixels in Spectrum: 2048
>>>>>Begin Spectral Data<<<<<
189.047	-133.17
189.435	-133.17
189.823	-133.17
190.211	134.55
190.599	60.1
190.987	168.43
191.375	72.21
191.763	116.17
192.151	-1031.69
192.538	33.36
192.926	-670.5
193.314	73.57
193.702	199.45
194.089	131.13
194.477	928.18
194.864	340.46
195.252	-2144.93
195.639	-16.95
196.027	-4.54
196.414	61.45
196.801	60.94
197.189	91.86
197.576	126.9
197.963	-1064.61
198.351	18.98
198.738	21.04
199.125	-0.71
199.512	38.23
199.899	-18.41
200.286	-22.97
200.673	23.44
201.06	-4.68
201.447	-5.84
201.833	24.09
202.22	62.4
202.607	34.8
202.994	49.76
203.38	-23.97
203.767	-11.71
204.154	19.59
204.54	16.9
204.927	27.06
205.313	-42.21
205.699	39.59
206.086	13.02
206.472	37.19
206.858	37.81
207.245	-3.63
207.631	-4.86
208.017	10.04
208.403	-5.15
208.789	53.82
209.175	-22.6
209.561	13.84
209.947	-4.32
210.333	32.67
210.719	11.92
211.105	34.85
211.491	28.12
211.876	-18.63
212.262	38.32
212.648	41.02
213.034	-13.24
213.419	3.64
213.805	-4.65
214.19	-2.36
214.576	-5.64
214.961	14.33
215.346	26.54
215.732	9.73
216.117	-21.24
216.502	-19.09
216.888	-5.29
217.273	-11.15
217.658	30.19
218.043	-4.35
218.428	-0.36
218.813	9.71
219.198	-2.36
219.583	-50.3
219.968	17.52
220.353	-16.78
220.738	-7.31
221.122	-7.77
221.507	21.6
221.892	4.49
222.276	6.59
222.661	17.34
223.046	2.32
223.43	3.72
223.815	13.12
224.199	32.66
224.583	-7.27
224.968	-0.46
225.352	3.66
225.736	4.78
226.121	1.57
226.505	4.26
226.889	3.47
227.273	3.74
227.657	14.99
228.041	12.15
228.425	10.5
228.809	8.96
229.193	5.66
229.577	10.23
229.961	7.62
230.344	8.6
230.728	7.78
231.112	9.73
231.495	8.31
231.879	8.96
232.263	8.94
232.646	6.7
233.03	8.4
233.413	8.84
233.797	7.58
234.18	7.69
234.563	8.54
234.946	8.64
235.33	10.27
235.713	7.76
236.096	8.6
236.479	9.19
236.862	9.18
237.245	9.18
237.628	8.51
238.011	8.78
238.394	7.36
238.777	9.49
239.16	10.01
239.543	10.7
239.925	8.72
240.308	7.39
240.691	9.04
241.073	8.08
241.456	8.13
241.838	9.51
242.221	8.4
242.603	7.64
242.986	8.19
243.368	8.81
243.75	7.72
244.133	8.16
244.515	7.72
244.897	8.03
245.279	8.44
245.661	8.13
246.043	7.45
246.425	8.13
246.807	7.89
247.189	7.89
247.571	7.1
247.953	8.36
248.335	7.71
248.717	7.46
249.098	7.32
249.48	7.66
249.862	7.91
250.243	8.02
250.625	7.91
251.006	8
251.388	8.16
251.769	8.14
252.151	7.41
252.532	7.89
252.913	7.68
253.295	6.15
253.676	8.21
254.057	7.28
254.438	7.51
254.819	7.77
255.2	7.94
255.581	7.92
255.962	7.43
256.343	7.29
256.724	6.51
257.105	7.18
257.486	7.81
257.867	7.65
258.247	7.31
258.628	6.51
259.009	7.02
259.389	6.86
259.77	6.92
260.15	7.36
260.531	7.09
260.911	7.08
261.292	6.86
261.672	7.22
262.052	7.4
262.432	7.06
262.813	7.09
263.193	7.25
263.573	6.91
263.953	7.33
264.333	6.84
264.713	7.76
265.093	7.03
265.473	7.14
265.853	6.95
266.233	6.48
266.612	7.15
266.992	6.75
267.372	6.9
267.752	6.55
268.131	6.5
268.511	7.17
268.89	7.01
269.27	6.53
269.649	6.1
270.029	6.86
270.408	6.6
270.787	6.93
271.167	6.8
271.546	7
271.925	7.17
272.304	6.92
272.683	6.71
273.062	6.59
273.441	6.5
273.82	6.68
274.199	6.9
274.578	6.81
274.957	6.74
275.336	6.81
275.715	6.89
276.093	6.07
276.472	6.55
276.851	6.62
277.229	6.57
277.608	6.07
277.986	6.01
278.365	6.74
278.743	6.34
279.122	6.35
279.5	6.1
279.878	5.8
280.257	6.54
280.635	6.79
281.013	6.07
281.391	6.79
281.769	6.16
282.147	5.76
282.525	6.48
282.903	6.23
283.281	6.39
283.659	6.81
284.037	6.86
284.415	5.8
284.792	5.73
285.17	6.26
285.548	6.62
285.925	5.55
286.303	5.76
286.68	6.16
287.058	6.59
287.435	6.28
287.813	5.74
288.19	5.8
288.567	5.77
288.945	6.3
289.322	6.01
289.699	5.58
290.076	6.48
290.453	5.84
290.83	5.68
291.207	6.52
291.584	5.92
291.961	5.54
292.338	5.88
292.715	5.89
293.092	5.94
293.469	6.11
293.845	5.94
294.222	5.49
294.599	5.86
294.975	6.23
295.352	5.82
295.728	5.97
296.105	5.67
296.481	5.98
296.858	6.26
297.234	6.13
297.61	5.47
297.986	5.48
298.363	5.83
298.739	5.76
299.115	5.92
299.491	5.75
299.867	5.71
300.243	5.65
300.619	5.74
300.995	5.54
301.371	5.77
301.746	5.55
302.122	5.66
302.498	5.59
302.874	5.83
303.249	5.6
303.625	5.84
304	5.85
304.376	5.19
304.751	5.09
305.127	5.01
305.502	5.8
305.878	5.36
306.253	5.66
306.628	6.02
307.003	5.66
307.378	5.94
307.754	5.72
308.129	5.69
308.504	6.17
308.879	5.9
309.254	6.13
309.629	5.15
310.003	4.59
310.378	6.12
310.753	6.15
311.128	5.68
311.502	5.53
311.877	5.34
312.252	5.37
312.626	5.63
313.001	5.66
313.375	5.5
313.75	5.65
314.124	5.01
314.498	5.62
314.873	5.42
315.247	5.77
315.621	5.63
315.995	5.87
316.369	5.57
316.743	5.7
317.117	5.33
317.491	5.37
317.865	5.8
318.239	5.94
318.613	5.43
318.987	5.21
319.361	4.73
319.734	5.1
320.108	5.56
320.482	5.85
320.855	5.45
321.229	5.37
321.602	5.75
321.976	5.31
322.349	5.99
322.723	5.35
323.096	5.54
323.469	5.58
323.843	5.68
324.216	5.17
324.589	5.63
324.962	6.08
325.335	5.42
325.708	5.07
326.081	5.77
326.454	5.64
326.827	5.67
327.2	5.74
327.573	5.57
327.945	5.5
328.318	5.58
328.691	5.4
329.063	5.87
329.436	5.14
329.809	5.84
330.181	5.45
330.553	5.49
330.926	5.66
331.298	5.31
331.671	4.87
332.043	5.14
332.415	4.99
332.787	5.93
333.159	5.53
333.532	5.65
333.904	5.74
334.276	5.17
334.648	5.71
335.02	5.76
335.391	5.32
335.763	5.37
336.135	5.62
336.507	5.49
336.879	5.47
337.25	5.59
337.622	5.78
337.993	5.69
338.365	5.42
338.736	5.69
339.108	5.89
339.479	5.4
339.851	5.67
340.222	5.67
340.593	5.38
340.964	5.46
341.336	5.88
341.707	5.69
342.078	5.74
342.449	5.36
342.82	5.76
343.191	5.64
343.562	5.77
343.933	5.77
344.303	5.76
344.674	5.93
345.045	6.22
345.416	5.96
345.786	5.71
346.157	6.15
346.527	5.9
346.898	5.81
347.268	6.29
347.639	6.08
348.009	5.48
348.38	5.98
348.75	5.77
349.12	5.83
349.49	5.71
349.861	6.01
350.231	5.6
350.601	6.02
350.971	6.28
351.341	6.02
351.711	6.49
352.081	6.16
352.45	5.94
352.82	6.07
353.19	6.22
353.56	6.32
353.929	5.79
354.299	5.68
354.669	6.12
355.038	6.09
355.408	6.33
355.777	5.84
356.147	5.86
356.516	5.72
356.885	6.17
357.254	5.94
357.624	6.2
357.993	5.86
358.362	6.23
358.731	5.92
359.1	5.78
359.469	5.7
359.838	6.28
360.207	5.94
360.576	6.36
360.945	6.1
361.314	6.1
361.682	6.02
362.051	6
362.42	5.82
362.788	6.26
363.157	6.16
363.525	5.97
363.894	5.92
364.262	6.18
364.631	6.03
364.999	6.08
365.367	6.18
365.735	5.9
366.104	5.9
366.472	6.3
366.84	6.14
367.208	6.15
367.576	6
367.944	6.29
368.312	5.99
368.68	6.29
369.048	6.69
369.416	6.3
369.783	6.32
370.151	6.16
370.519	6.1
370.886	6.24
371.254	6.68
371.621	6.63
371.989	6
372.356	6.69
372.724	6.25
373.091	6.54
373.458	6.03
373.826	6.17
374.193	6.18
374.56	6.35
374.927	6.45
375.294	6.75
375.661	6.65
376.028	6.91
376.395	6.66
376.762	6.55
377.129	6.49
377.496	6.7
377.863	6.62
378.229	6.6
378.596	6.69
378.963	6.41
379.329	6.61
379.696	6.71
380.062	6.61
380.429	6.29
380.795	6.42
381.161	6.5
381.528	6.75
381.894	6.84
382.26	6.62
382.626	7.13
382.993	6.62
383.359	6.5
383.725	6.55
384.091	6.68
384.457	6.58
384.823	6.63
385.188	6.94
385.554	6.54
385.92	6.49
386.286	6.82
386.651	6.34
387.017	6.83
387.383	6.58
387.748	6.55
388.114	6.42
388.479	6.97
388.845	6.85
389.21	6.57
389.575	6.27
389.94	6.4
390.306	6.43
390.671	6.62
391.036	6.63
391.401	7.06
391.766	6.89
392.131	6.84
392.496	6.68
392.861	6.89
393.226	6.84
393.591	6.93
393.956	6.84
394.32	7.02
394.685	6.73
395.05	7.06
395.414	6.91
395.779	6.69
396.143	6.74
396.508	6.8
396.872	6.79
397.236	7.07
397.601	6.83
397.965	6.88
398.329	6.72
398.694	7.06
399.058	6.5
399.422	6.98
399.786	6.69
400.15	6.91
400.514	6.76
400.878	7.15
401.242	7.11
401.605	7.17
401.969	6.8
402.333	6.9
402.697	7.27
403.06	6.79
403.424	7.11
403.787	7.04
404.151	6.93
404.514	7.13
404.878	7.18
405.241	6.65
405.604	6.87
405.968	7.05
406.331	6.95
406.694	7.1
407.057	7.21
407.42	7.34
407.783	7.09
408.146	7
408.509	7.03
408.872	7.26
409.235	6.89
409.598	7.13
409.961	7.16
410.323	7.07
410.686	6.94
411.049	7.23
411.411	7.15
411.774	7.01
412.136	7.16
412.499	7.27
412.861	7.08
413.223	7.15
413.586	7.19
413.948	7.32
414.31	7.19
414.672	7.05
415.035	7.09
415.397	7.23
415.759	7.15
416.121	7.25
416.483	7.31
416.845	7.29
417.206	7.43
417.568	7.37
417.93	7.05
418.292	7.06
418.653	7.14
419.015	7.27
419.377	7.18
419.738	7.21
420.1	7
420.461	7.08
420.822	6.99
421.184	7.06
421.545	7.17
421.906	7.18
422.267	7.25
422.629	7.2
422.99	7.08
423.351	7.17
423.712	7.05
424.073	7.17
424.434	7.13
424.795	7.12
425.155	7.16
425.516	7.12
425.877	7.17
426.238	7.04
426.598	7.1
426.959	7.16
427.32	7.16
427.68	7.17
428.041	7.21
428.401	7.19
428.761	7.19
429.122	7.2
429.482	7.4
429.842	7.28
430.202	7.41
430.563	7.28
430.923	7.51
431.283	7.37
431.643	7.53
432.003	7.61
432.363	7.28
432.722	7.42
433.082	7.32
433.442	7.34
433.802	7.42
434.161	7.36
434.521	7.26
434.881	7.45
435.24	7.43
435.6	7.29
435.959	7.39
436.319	7.29
436.678	7.43
437.037	7.28
437.396	7.46
437.756	7.54
438.115	7.27
438.474	7.31
438.833	7.43
439.192	7.19
439.551	7.38
439.91	7.38
440.269	7.36
440.628	7.42
440.987	7.38
441.345	7.18
441.704	7.44
442.063	7.38
442.421	7.27
442.78	7.29
443.138	7.38
443.497	7.41
443.855	7.4
444.214	7.29
444.572	7.43
444.93	7.43
445.288	7.5
445.647	7.6
446.005	7.24
446.363	7.32
446.721	7.54
447.079	7.42
447.437	7.44
447.795	7.28
448.153	7.4
448.51	7.36
448.868	7.29
449.226	7.32
449.584	7.37
449.941	7.33
450.299	7.35
450.656	7.37
451.014	7.44
451.371	7.4
451.729	7.47
452.086	7.46
452.443	7.6
452.801	7.36
453.158	7.57
453.515	7.63
453.872	7.56
454.229	7.78
454.586	7.58
454.943	7.33
455.3	7.45
455.657	7.62
456.014	7.44
456.371	7.46
456.727	7.55
457.084	7.44
457.441	7.6
457.797	7.42
458.154	7.54
458.51	7.4
458.867	7.52
459.223	7.52
459.58	7.49
459.936	7.44
460.292	7.61
460.648	7.26
461.005	7.49
461.361	7.52
461.717	7.32
462.073	7.48
462.429	7.32
462.785	7.32
463.141	7.46
463.496	7.57
463.852	7.54
464.208	7.69
464.564	7.66
464.919	7.53
465.275	7.65
465.631	7.64
465.986	7.52
466.342	7.68
466.697	7.58
467.052	7.62
467.408	7.76
467.763	7.73
468.118	7.73
468.473	7.68
468.829	7.69
469.184	7.7
469.539	7.48
469.894	7.74
470.249	7.51
470.603	7.53
470.958	7.59
471.313	7.69
471.668	7.49
472.023	7.59
472.377	7.54
472.732	7.49
473.086	7.73
473.441	7.78
473.795	7.65
474.15	7.44
474.504	7.51
474.859	7.44
475.213	7.82
475.567	7.64
475.921	7.73
476.275	7.62
476.63	7.69
476.984	7.75
477.338	7.52
477.692	7.59
478.045	7.42
478.399	7.69
478.753	7.77
479.107	7.6
479.461	7.61
479.814	7.66
480.168	7.72
480.521	7.67
480.875	7.76
481.228	7.66
481.582	7.63
481.935	7.61
482.289	7.66
482.642	7.54
482.995	7.59
483.348	7.67
483.701	7.58
484.055	7.59
484.408	7.44
484.761	7.47
485.114	7.38
485.466	7.25
485.819	7.17
486.172	7.07
486.525	7.12
486.878	7.14
487.23	7.16
487.583	7.26
487.936	7.29
488.288	7.37
488.641	7.34
488.993	7.29
489.345	7.27
489.698	7.19
490.05	7.14
490.402	7.21
490.754	7.23
491.107	7.25
491.459	7.32
491.811	7.39
492.163	7.41
492.515	7.51
492.866	7.51
493.218	7.4
493.57	7.24
493.922	7.27
494.274	7.29
494.625	7.32
494.977	7.33
495.328	7.43
495.68	7.56
496.031	7.44
496.383	7.67
496.734	7.68
497.086	7.66
497.437	7.57
497.788	7.5
498.139	7.71
498.49	7.63
498.842	7.46
499.193	7.51
499.544	7.55
499.894	7.51
500.245	7.51
500.596	7.45
500.947	7.66
501.298	7.45
501.648	7.63
501.999	7.62
502.35	7.51
502.7	7.79
503.051	7.62
503.401	7.52
503.752	7.68
504.102	7.71
504.452	7.53
504.803	7.57
505.153	7.61
505.503	7.59
505.853	7.58
506.203	7.47
506.553	7.66
506.903	7.61
507.253	7.51
507.603	7.48
507.953	7.58
508.303	7.58
508.652	7.75
509.002	7.55
509.352	7.51
509.701	7.49
510.051	7.41
510.4	7.6
510.75	7.45
511.099	7.58
511.449	7.52
511.798	7.57
512.147	7.49
512.496	7.5
512.846	7.47
513.195	7.49
513.544	7.51
513.893	7.41
514.242	7.51
514.591	7.56
514.939	7.48
515.288	7.47
515.637	7.52
515.986	7.51
516.334	7.39
516.683	7.52
517.032	7.37
517.38	7.48
517.729	7.65
518.077	7.66
518.426	7.61
518.774	7.43
519.122	7.5
519.47	7.49
519.819	7.46
520.167	7.35
520.515	7.31
520.863	7.45
521.211	7.39
521.559	7.47
521.907	7.36
522.255	7.51
522.602	7.68
522.95	7.5
523.298	7.51
523.645	7.56
523.993	7.56
524.341	7.55
524.688	7.6
525.036	7.6
525.383	7.51
525.73	7.61
526.078	7.41
526.425	7.54
526.772	7.46
527.119	7.4
527.466	7.35
527.814	7.37
528.161	7.38
528.508	7.3
528.854	7.26
529.201	7.36
529.548	7.36
529.895	7.26
530.242	7.25
530.588	7.13
530.935	7.08
531.282	7.11
531.628	7.16
531.975	7.15
532.321	7.19
532.667	7.22
533.014	7.31
533.36	7.32
533.706	7.31
534.052	7.39
534.399	7.21
534.745	7.14
535.091	7.3
535.437	7.25
535.783	7.17
536.129	7.24
536.474	7.21
536.82	7.3
537.166	7.31
537.512	7.32
537.857	7.4
538.203	7.34
538.549	7.38
538.894	7.26
539.239	7.35
539.585	7.32
539.93	7.34
540.276	7.38
540.621	7.32
540.966	7.38
541.311	7.36
541.656	7.45
542.001	7.48
542.346	7.27
542.691	7.2
543.036	7.24
543.381	7.18
543.726	7.07
544.071	7.13
544.415	7.21
544.76	7.14
545.105	7.24
545.449	7.19
545.794	7.24
546.138	7.31
546.483	7.24
546.827	7.37
547.171	7.26
547.516	7.31
547.86	7.33
548.204	7.27
548.548	7.26
548.892	7.24
549.236	7.3
549.58	7.22
549.924	7.31
550.268	7.34
550.612	7.35
550.956	7.52
551.3	7.33
551.643	7.4
551.987	7.51
552.33	7.43
552.674	7.24
553.017	7.33
553.361	7.45
553.704	7.59
554.048	7.43
554.391	7.38
554.734	7.49
555.077	7.47
555.42	7.3
555.764	7.23
556.107	7.39
556.45	7.33
556.793	7.37
557.135	7.33
557.478	7.27
557.821	7.24
558.164	7.45
558.507	7.48
558.849	7.49
559.192	7.54
559.534	7.57
559.877	7.22
560.219	7.37
560.562	7.33
560.904	7.13
561.246	7.33
561.589	7.26
561.931	7.5
562.273	7.5
562.615	7.63
562.957	7.31
563.299	7.4
563.641	7.41
563.983	7.23
564.325	7.36
564.667	7.45
565.008	7.25
565.35	7.26
565.692	7.22
566.033	7.41
566.375	7.33
566.716	7.41
567.058	7.17
567.399	7.33
567.741	7.25
568.082	7.3
568.423	7.28
568.764	7.1
569.105	7.4
569.447	7.19
569.788	7.25
570.129	7.24
570.47	7.31
570.811	7.36
571.151	7.22
571.492	7.29
571.833	7.41
572.174	7.26
572.514	7.44
572.855	7.25
573.195	7.5
573.536	7.29
573.876	7.31
574.217	7.07
574.557	7.16
574.898	7.16
575.238	7
575.578	7.41
575.918	7.03
576.258	7.26
576.598	7.35
576.938	7.37
577.278	7.33
577.618	7.04
577.958	7.05
578.298	7.08
578.638	7.21
578.977	7.13
579.317	7.16
579.657	7.26
579.996	7.22
580.336	7.4
580.675	7.32
581.014	7.1
581.354	7.34
581.693	7.31
582.032	7.2
582.372	7.26
582.711	7.31
583.05	7.53
583.389	7.17
583.728	7.07
584.067	7.22
584.406	7.12
584.745	7.08
585.083	7.22
585.422	6.8
585.761	7.05
586.1	7.26
586.438	6.88
586.777	7.3
587.115	7.28
587.454	7.12
587.792	7.11
588.13	7.23
588.469	7.32
588.807	6.84
589.145	7.28
589.483	7.06
589.821	7.23
590.159	7.2
590.497	7.26
590.835	7.17
591.173	7.33
591.511	7.37
591.849	6.98
592.187	6.99
592.524	7.06
592.862	6.99
593.2	7.25
593.537	7.02
593.875	7.07
594.212	7.23
594.55	6.99
594.887	7.02
595.224	7.03
595.561	6.97
595.899	6.99
596.236	7.15
596.573	7.09
596.91	7.07
597.247	6.79
597.584	6.82
597.921	7.14
598.258	7
598.594	7.04
598.931	7.11
599.268	6.81
599.604	7.04
599.941	6.97
600.277	6.92
600.614	7.01
600.95	6.91
601.287	6.89
601.623	7.34
601.959	7.03
602.296	7.1
602.632	6.97
602.968	6.98
603.304	7.03
603.64	6.96
603.976	7.02
604.312	7.14
604.648	7.13
604.984	7.23
605.319	7.05
605.655	6.8
605.991	6.87
606.326	6.77
606.662	6.87
606.998	6.64
607.333	6.93
607.668	6.71
608.004	6.86
608.339	6.94
608.674	6.97
609.01	7.01
609.345	6.91
609.68	7.06
610.015	6.83
610.35	7.25
610.685	7.02
611.02	6.82
611.355	6.69
611.689	6.82
612.024	7.1
612.359	6.84
612.694	7.01
613.028	7.08
613.363	6.78
613.697	6.82
614.032	6.86
614.366	7.15
614.7	6.96
615.035	7.14
615.369	6.93
615.703	6.82
616.037	6.96
616.371	7.02
616.705	6.88
617.039	7.02
617.373	6.95
617.707	7.07
618.041	6.99
618.375	7.01
618.709	6.99
619.042	6.88
619.376	7.14
619.71	7.16
620.043	7.14
620.377	6.73
620.71	6.98
621.043	6.88
621.377	6.91
621.71	6.84
622.043	7.04
622.376	7.01
622.709	7.06
623.043	6.75
623.376	6.82
623.709	6.52
624.041	6.83
624.374	6.76
624.707	6.45
625.04	6.94
625.373	7.46
625.705	6.75
626.038	7.09
626.37	6.52
626.703	6.73
627.035	6.59
627.368	6.8
627.7	7.05
628.032	6.67
628.365	6.96
628.697	6.68
629.029	7.06
629.361	6.88
629.693	6.77
630.025	6.77
630.357	6.85
630.689	6.5
631.021	7.11
631.353	6.55
631.684	6.45
632.016	7.09
632.348	6.71
632.679	6.47
633.011	6.76
633.342	6.34
633.674	6.69
634.005	6.73
634.336	7.26
634.668	6.61
634.999	6.49
635.33	6.45
635.661	7.15
635.992	6.96
636.323	7.13
636.654	7.24
636.985	6.66
637.316	6.95
637.647	6.53
637.977	6.57
638.308	6.64
638.639	6.62
638.969	7.01
639.3	6.41
639.63	6.83
639.961	6.79
640.291	6.64
640.622	6.88
640.952	6.91
641.282	6.56
641.612	6.72
641.943	6.96
642.273	6.48
642.603	6.99
642.933	6.52
643.263	7
643.592	6.25
643.922	6.86
644.252	6.41
644.582	6.21
644.911	7.26
645.241	7.17
645.571	7.05
645.9	6.51
646.23	6.83
646.559	6.43
646.888	6.91
647.218	6.4
647.547	6.76
647.876	6.67
648.205	6.95
648.534	6.72
648.863	6.92
649.192	6.56
649.521	6.5
649.85	6.81
650.179	6.41
650.508	6.55
650.837	6.66
651.165	6.95
651.494	6.22
651.822	6.57
652.151	6.5
652.479	6.43
652.808	6.81
653.136	6.58
653.465	6.79
653.793	6.59
654.121	7.02
654.449	6.79
654.777	6.38
655.105	6.66
655.433	6.73
655.761	7.16
656.089	6.83
656.417	6.88
656.745	6.87
657.073	6.75
657.4	7.73
657.728	7.18
658.056	6.54
658.383	6.71
658.711	6.24
659.038	7.05
659.365	6.76
659.693	6.86
660.02	6.34
660.347	6.55
660.674	6.68
661.001	6.7
661.329	6.78
661.656	7.04
661.982	6.63
662.309	6.93
662.636	6.91
662.963	6.74
663.29	6.52
663.616	6.95
663.943	6.57
664.27	6.78
664.596	6.5
664.923	6.49
665.249	6.99
665.576	6.48
665.902	6.38
666.228	6.89
666.554	6.68
666.881	6.03
667.207	6.91
667.533	6.75
667.859	6.91
668.185	6.58
668.511	6.44
668.837	7.24
669.162	7.19
669.488	6.41
669.814	6.66
670.139	6.87
670.465	6.19
670.791	6.98
671.116	6.95
671.442	6.84
671.767	6.97
672.092	6.74
672.418	6.92
672.743	6.98
673.068	6.86
673.393	6.12
673.718	6.9
674.043	6.69
674.368	6.63
674.693	6.7
675.018	7.73
675.343	6.6
675.667	6.36
675.992	6.91
676.317	6.78
676.641	6.83
676.966	7.01
677.29	6.42
677.615	6.94
677.939	6.53
678.264	6.38
678.588	6.35
678.912	7.07
679.236	6.45
679.56	6.23
679.885	6.47
680.209	6.76
680.532	6.27
680.856	6.26
681.18	6.73
681.504	6.59
681.828	6.78
682.152	6.65
682.475	6.18
682.799	6.61
683.122	6.93
683.446	7.04
683.769	6.64
684.093	6.49
684.416	6.88
684.739	6.3
685.062	6.47
685.386	5.73
685.709	6.59
686.032	7.23
686.355	6.71
686.678	6.33
687.001	7.01
687.324	6.03
687.646	6.82
687.969	7.13
688.292	7.32
688.614	6.39
688.937	6.93
689.26	6.05
689.582	6.87
689.904	6.4
690.227	6.55
690.549	7.13
690.871	7.2
691.194	7.01
691.516	6.33
691.838	7.13
692.16	6.33
