Data from 0366_forehead_Reflection__2__321.txt Node

Date: Fri Oct 20 23:12:56 CDT 2023
User: ToomeyLab
Spectrometer: FLMS14357
Trigger mode: 0
Integration Time (sec): 1.000000E-2
Scans to average: 100
Electric dark correction enabled: true
Nonlinearity correction enabled: false
Boxcar width: 0
XAxis mode: Wavelengths
Number of Pixels in Spectrum: 2048
>>>>>Begin Spectral Data<<<<<
189.047	102.83
189.435	102.83
189.823	102.83
190.211	72.58
190.599	-15.45
190.987	100.35
191.375	590.92
191.763	96.36
192.151	-643.31
192.538	-61.34
192.926	597.5
193.314	83.85
193.702	129.48
194.089	128.81
194.477	556.99
194.864	306.81
195.252	-1817.91
195.639	748.8
196.027	70.96
196.414	48.24
196.801	42.89
197.189	84.84
197.576	131.27
197.963	331.78
198.351	58.51
198.738	68.15
199.125	40.53
199.512	33.69
199.899	53.02
200.286	25.6
200.673	29.5
201.06	65.94
201.447	46.77
201.833	62.47
202.22	51.77
202.607	69.43
202.994	58.98
203.38	31.32
203.767	75.08
204.154	50.11
204.54	66.92
204.927	46.3
205.313	8.89
205.699	65.94
206.086	55.31
206.472	62.52
206.858	52.56
207.245	19.79
207.631	101.98
208.017	20.95
208.403	7.58
208.789	76.72
209.175	26.72
209.561	45.24
209.947	61.49
210.333	69.22
210.719	44.43
211.105	59.82
211.491	27.66
211.876	43.42
212.262	21.44
212.648	71.25
213.034	31.61
213.419	28.84
213.805	30.8
214.19	31.11
214.576	46.7
214.961	33.35
215.346	35.03
215.732	37.02
216.117	-10.79
216.502	73.9
216.888	10.65
217.273	20.8
217.658	3.11
218.043	21.79
218.428	10.03
218.813	32.31
219.198	22.01
219.583	-7.98
219.968	-3.01
220.353	49.42
220.738	31.92
221.122	10.8
221.507	30.54
221.892	29.28
222.276	22.16
222.661	24.22
223.046	19.97
223.43	15.99
223.815	13.6
224.199	27.78
224.583	-1.93
224.968	6.21
225.352	6.28
225.736	16.03
226.121	12.62
226.505	13.05
226.889	16.93
227.273	7.16
227.657	16.18
228.041	12.21
228.425	7.85
228.809	7.49
229.193	10.24
229.577	8.1
229.961	8.31
230.344	6.72
230.728	4.95
231.112	5.24
231.495	5.29
231.879	5.99
232.263	7.79
232.646	6.16
233.03	6.01
233.413	5.08
233.797	5.09
234.18	7.78
234.563	10.11
234.946	8.24
235.33	7.18
235.713	6.53
236.096	6.89
236.479	5.61
236.862	5.42
237.245	5.38
237.628	6.32
238.011	7.82
238.394	5.7
238.777	8.38
239.16	5.69
239.543	8.47
239.925	7.13
240.308	6.4
240.691	5.16
241.073	8.6
241.456	6.81
241.838	6.6
242.221	5.98
242.603	6.64
242.986	6.24
243.368	5.95
243.75	5.12
244.133	5.13
244.515	4.75
244.897	5.11
245.279	5.66
245.661	5.57
246.043	4.94
246.425	5.64
246.807	6.31
247.189	5.2
247.571	5.85
247.953	6.48
248.335	5.93
248.717	4.97
249.098	5.01
249.48	5.15
249.862	5.31
250.243	5.72
250.625	5.44
251.006	5.48
251.388	5.45
251.769	5.46
252.151	5.57
252.532	6.47
252.913	5.27
253.295	4.78
253.676	5.52
254.057	5.56
254.438	5.23
254.819	5.7
255.2	5.71
255.581	5.99
255.962	5.96
256.343	6.27
256.724	5.09
257.105	7.46
257.486	6.62
257.867	5.96
258.247	6.55
258.628	5.61
259.009	5.82
259.389	5.46
259.77	5.14
260.15	5.64
260.531	6.3
260.911	5.96
261.292	5.21
261.672	5.47
262.052	5.23
262.432	5.32
262.813	5.14
263.193	5.16
263.573	5.82
263.953	5.96
264.333	5.79
264.713	5.93
265.093	6.13
265.473	6.58
265.853	5.38
266.233	6.25
266.612	5.2
266.992	5.86
267.372	6.14
267.752	5.67
268.131	5.92
268.511	5.77
268.89	5.49
269.27	5.02
269.649	5.08
270.029	5.96
270.408	5.94
270.787	6.21
271.167	5.44
271.546	5.62
271.925	5.61
272.304	5.76
272.683	5.69
273.062	5.56
273.441	5.74
273.82	5.24
274.199	5.41
274.578	5.6
274.957	5.4
275.336	5.56
275.715	5.64
276.093	5.64
276.472	5.8
276.851	5.72
277.229	5.3
277.608	5.52
277.986	5.31
278.365	5.99
278.743	5.43
279.122	5.27
279.5	5.82
279.878	5.64
280.257	5.47
280.635	6.21
281.013	5.88
281.391	6
281.769	5.58
282.147	5.72
282.525	5.63
282.903	5.91
283.281	5.9
283.659	5.74
284.037	5.77
284.415	5.17
284.792	5.16
285.17	5.62
285.548	5.46
285.925	5.26
286.303	5.28
286.68	5.39
287.058	5.78
287.435	5.68
287.813	5.23
288.19	5.31
288.567	5.28
288.945	5.88
289.322	6.1
289.699	5.3
290.076	5.71
290.453	5.68
290.83	5.64
291.207	6.01
291.584	5.43
291.961	5.62
292.338	5.84
292.715	6.01
293.092	5.87
293.469	5.92
293.845	5.64
294.222	5.98
294.599	5.99
294.975	7.45
295.352	6.17
295.728	6.32
296.105	6.37
296.481	6.59
296.858	6.27
297.234	6.77
297.61	5.76
297.986	6.16
298.363	6.94
298.739	6.38
299.115	6.56
299.491	6.54
299.867	6.59
300.243	6.53
300.619	6.48
300.995	6.66
301.371	7.19
301.746	6.92
302.122	7.03
302.498	6.59
302.874	6.96
303.249	7.19
303.625	7.16
304	7.74
304.376	7.07
304.751	6.58
305.127	7.12
305.502	7.51
305.878	7.47
306.253	7.88
306.628	7.39
307.003	7.34
307.378	7.44
307.754	7.87
308.129	8.42
308.504	8.32
308.879	8.07
309.254	8.65
309.629	8.03
310.003	7.7
310.378	8.55
310.753	8.59
311.128	8.66
311.502	8.63
311.877	8.42
312.252	8.77
312.626	8.53
313.001	8.36
313.375	8.74
313.75	8.75
314.124	8.74
314.498	9.07
314.873	8.54
315.247	8.85
315.621	9.14
315.995	9.42
316.369	9.14
316.743	9.77
317.117	9.24
317.491	9.43
317.865	9.67
318.239	9.97
318.613	9.85
318.987	9.69
319.361	9.28
319.734	9.68
320.108	9.26
320.482	10.51
320.855	10.75
321.229	10.22
321.602	10.07
321.976	10.18
322.349	10.36
322.723	10.73
323.096	10.95
323.469	10.47
323.843	10.5
324.216	10.5
324.589	10.87
324.962	10.94
325.335	10.91
325.708	10.49
326.081	10.76
326.454	10.96
326.827	11.11
327.2	11.27
327.573	11.05
327.945	11.22
328.318	10.57
328.691	10.96
329.063	11.62
329.436	10.95
329.809	11.31
330.181	11.83
330.553	11.69
330.926	11.82
331.298	11.47
331.671	11.43
332.043	11.36
332.415	12.07
332.787	12.17
333.159	12.28
333.532	11.89
333.904	11.88
334.276	11.86
334.648	12.23
335.02	12.56
335.391	12.01
335.763	12.13
336.135	12.47
336.507	12.53
336.879	12.45
337.25	12.92
337.622	12.93
337.993	12.46
338.365	12.64
338.736	12.78
339.108	13.42
339.479	12.27
339.851	13.12
340.222	12.55
340.593	12.65
340.964	12.64
341.336	13.47
341.707	13.12
342.078	13.2
342.449	13.2
342.82	13.11
343.191	13.47
343.562	13.48
343.933	13.62
344.303	13.62
344.674	14.05
345.045	14.14
345.416	13.9
345.786	13.73
346.157	13.59
346.527	13.97
346.898	13.98
347.268	14.28
347.639	14.3
348.009	14.03
348.38	14.13
348.75	14.32
349.12	14.4
349.49	14.32
349.861	14.57
350.231	14.53
350.601	14.63
350.971	15.06
351.341	14.72
351.711	14.88
352.081	14.81
352.45	14.64
352.82	15.29
353.19	15.21
353.56	15.15
353.929	14.89
354.299	14.98
354.669	15.56
355.038	15.59
355.408	15.63
355.777	14.95
356.147	15.38
356.516	15.41
356.885	15.85
357.254	15.24
357.624	15.89
357.993	15.56
358.362	15.74
358.731	15.54
359.1	15.39
359.469	15.68
359.838	16.14
360.207	15.67
360.576	16.08
360.945	15.97
361.314	16.42
361.682	16.09
362.051	16.32
362.42	16.35
362.788	16.82
363.157	16.52
363.525	16.15
363.894	16.49
364.262	16.44
364.631	16.71
364.999	16.82
365.367	16.95
365.735	16.92
366.104	16.87
366.472	17.06
366.84	17.32
367.208	17.31
367.576	17.16
367.944	17.6
368.312	17.48
368.68	17.74
369.048	17.62
369.416	17.78
369.783	18.01
370.151	17.97
370.519	18.1
370.886	18.23
371.254	18.11
371.621	18.63
371.989	18.28
372.356	18.35
372.724	18.42
373.091	18.61
373.458	18.19
373.826	18.41
374.193	18.36
374.56	18.6
374.927	18.78
375.294	18.61
375.661	18.89
376.028	19.37
376.395	19.45
376.762	19.27
377.129	19.33
377.496	19.11
377.863	19.8
378.229	19.17
378.596	19.42
378.963	19.34
379.329	19.36
379.696	19.72
380.062	19.28
380.429	19.42
380.795	19.55
381.161	19.61
381.528	20.28
381.894	19.89
382.26	20.08
382.626	20.42
382.993	20.22
383.359	20.02
383.725	20.27
384.091	20.45
384.457	20.47
384.823	20.74
385.188	20.69
385.554	20.46
385.92	20.74
386.286	21.12
386.651	20.92
387.017	21.43
387.383	21.06
387.748	20.57
388.114	20.83
388.479	21.25
388.845	21.5
389.21	21.45
389.575	21.17
389.94	21.06
390.306	21.35
390.671	21.37
391.036	21.66
391.401	21.88
391.766	21.94
392.131	22
392.496	21.8
392.861	21.9
393.226	22
393.591	21.91
393.956	22.28
394.32	22.2
394.685	22.02
395.05	22.69
395.414	22.68
395.779	22.37
396.143	22.56
396.508	22.7
396.872	22.68
397.236	23
397.601	23.09
397.965	22.75
398.329	22.89
398.694	23.62
399.058	23.03
399.422	23.66
399.786	23.27
400.15	23.35
400.514	23.43
400.878	23.64
401.242	23.66
401.605	23.6
401.969	23.58
402.333	23.76
402.697	24
403.06	23.89
403.424	23.94
403.787	24.06
404.151	24.09
404.514	24.59
404.878	24.21
405.241	24.38
405.604	24.43
405.968	24.32
406.331	24.31
406.694	24.44
407.057	24.48
407.42	24.82
407.783	24.71
408.146	24.94
408.509	24.67
408.872	25.01
409.235	25.06
409.598	25.18
409.961	25.14
410.323	25.21
410.686	25.3
411.049	25.39
411.411	25.38
411.774	25.6
412.136	25.67
412.499	25.68
412.861	25.74
413.223	26.03
413.586	25.92
413.948	26.11
414.31	26.38
414.672	26.19
415.035	26.16
415.397	26.6
415.759	26.33
416.121	26.62
416.483	26.59
416.845	26.52
417.206	26.78
417.568	26.75
417.93	26.56
418.292	26.71
418.653	26.97
419.015	26.87
419.377	26.91
419.738	26.74
420.1	26.86
420.461	26.78
420.822	26.9
421.184	26.86
421.545	27.07
421.906	27.1
422.267	27.06
422.629	27.01
422.99	26.98
423.351	26.97
423.712	27.08
424.073	27.31
424.434	27.36
424.795	27.7
425.155	27.66
425.516	27.48
425.877	27.68
426.238	27.64
426.598	27.67
426.959	27.75
427.32	27.88
427.68	28.13
428.041	28.04
428.401	28.26
428.761	28.59
429.122	28.59
429.482	28.69
429.842	28.92
430.202	28.93
430.563	29.32
430.923	29.18
431.283	29.11
431.643	29.41
432.003	29.53
432.363	29.28
432.722	29.58
433.082	29.63
433.442	29.48
433.802	29.9
434.161	29.7
434.521	29.85
434.881	29.73
435.24	29.77
435.6	29.77
435.959	29.8
436.319	29.89
436.678	30.05
437.037	30.06
437.396	30.46
437.756	30.57
438.115	30.46
438.474	30.58
438.833	30.55
439.192	30.63
439.551	30.91
439.91	30.76
440.269	30.9
440.628	30.72
440.987	31.18
441.345	30.78
441.704	31.04
442.063	30.95
442.421	31.14
442.78	30.99
443.138	31.08
443.497	31.22
443.855	31.46
444.214	31.49
444.572	31.54
444.93	31.66
445.288	31.7
445.647	32.02
446.005	31.76
446.363	31.78
446.721	31.98
447.079	32.25
447.437	31.98
447.795	31.95
448.153	31.83
448.51	31.91
448.868	32
449.226	32.14
449.584	31.95
449.941	32.31
450.299	32.43
450.656	32.7
451.014	32.55
451.371	33
451.729	32.92
452.086	33.09
452.443	33.26
452.801	33.24
453.158	33.58
453.515	33.48
453.872	33.33
454.229	33.7
454.586	33.79
454.943	33.35
455.3	33.58
455.657	34.01
456.014	33.81
456.371	33.98
456.727	34.23
457.084	34.11
457.441	34.4
457.797	34.36
458.154	34.27
458.51	34.7
458.867	34.48
459.223	34.58
459.58	34.48
459.936	34.84
460.292	34.8
460.648	34.63
461.005	34.42
461.361	34.54
461.717	34.31
462.073	34.46
462.429	34.44
462.785	34.64
463.141	35.06
463.496	35.04
463.852	35.24
464.208	35.39
464.564	35.7
464.919	35.66
465.275	35.8
465.631	35.83
465.986	35.93
466.342	36.24
466.697	35.96
467.052	36.09
467.408	36.25
467.763	36.2
468.118	36.3
468.473	36.54
468.829	36.56
469.184	36.56
469.539	36.32
469.894	36.66
470.249	36.41
470.603	36.7
470.958	36.67
471.313	36.93
471.668	37.13
472.023	36.92
472.377	37.17
472.732	36.97
473.086	37.44
473.441	37.41
473.795	37.63
474.15	37.25
474.504	37.57
474.859	37.55
475.213	37.57
475.567	37.88
475.921	37.8
476.275	37.76
476.63	37.93
476.984	38.05
477.338	37.99
477.692	38.08
478.045	38.37
478.399	38.2
478.753	38.47
479.107	38.37
479.461	38.36
479.814	38.44
480.168	38.52
480.521	38.42
480.875	38.57
481.228	38.67
481.582	38.76
481.935	38.84
482.289	38.91
482.642	39.06
482.995	38.76
483.348	39.06
483.701	38.91
484.055	39.03
484.408	38.51
484.761	38.64
485.114	38.46
485.466	37.98
485.819	38.02
486.172	37.99
486.525	38.27
486.878	38.37
487.23	38.51
487.583	38.73
487.936	38.9
488.288	39.04
488.641	39.01
488.993	38.94
489.345	38.89
489.698	38.75
490.05	38.72
490.402	39.05
490.754	39.08
491.107	39.22
491.459	39.6
491.811	39.88
492.163	40.08
492.515	40.11
492.866	40.15
493.218	40
493.57	39.48
493.922	39.51
494.274	39.76
494.625	40.13
494.977	40.33
495.328	40.5
495.68	40.69
496.031	41.08
496.383	41.4
496.734	41.51
497.086	41.49
497.437	41.47
497.788	41.7
498.139	41.87
498.49	41.59
498.842	41.54
499.193	41.42
499.544	41.49
499.894	41.74
500.245	41.76
500.596	42.03
500.947	41.91
501.298	42.03
501.648	42.11
501.999	42.53
502.35	42.42
502.7	42.66
503.051	42.72
503.401	42.8
503.752	42.98
504.102	42.83
504.452	43
504.803	43.06
505.153	43.14
505.503	43.29
505.853	43.3
506.203	43.08
506.553	43.42
506.903	43.42
507.253	43.43
507.603	43.54
507.953	43.65
508.303	43.52
508.652	43.71
509.002	43.73
509.352	43.5
509.701	43.74
510.051	43.73
510.4	43.75
510.75	43.54
511.099	43.89
511.449	43.98
511.798	43.9
512.147	44.01
512.496	43.9
512.846	44.12
513.195	44.26
513.544	44.24
513.893	44.19
514.242	44.22
514.591	44.49
514.939	44.3
515.288	44.73
515.637	44.6
515.986	44.71
516.334	44.87
516.683	44.95
517.032	44.88
517.38	45.18
517.729	45.12
518.077	45.16
518.426	45.34
518.774	45.49
519.122	45.33
519.47	45.33
519.819	45.25
520.167	45.06
520.515	44.98
520.863	44.98
521.211	45.17
521.559	45.21
521.907	45.29
522.255	45.54
522.602	45.81
522.95	45.83
523.298	46.06
523.645	46.11
523.993	46.21
524.341	46.37
524.688	46.38
525.036	46.59
525.383	46.55
525.73	46.56
526.078	46.58
526.425	46.51
526.772	46.46
527.119	46.48
527.466	46.39
527.814	46.34
528.161	46.22
528.508	46.24
528.854	46.36
529.201	46.49
529.548	46.4
529.895	46.34
530.242	46.03
530.588	45.86
530.935	46.07
531.282	46.29
531.628	46.22
531.975	46.28
532.321	46.45
532.667	46.71
533.014	47.04
533.36	47.18
533.706	47.28
534.052	47.45
534.399	47.48
534.745	47.23
535.091	47.03
535.437	46.8
535.783	47.03
536.129	47.33
536.474	47.42
536.82	47.71
537.166	47.89
537.512	48.02
537.857	48.16
538.203	48.21
538.549	48.16
538.894	48.13
539.239	48
539.585	48.2
539.93	48.5
540.276	48.8
540.621	49.02
540.966	48.88
541.311	49.13
541.656	49.3
542.001	49.27
542.346	49.18
542.691	48.75
543.036	48.4
543.381	48.24
543.726	48.19
544.071	48.32
544.415	48.58
544.76	48.8
545.105	48.98
545.449	49.04
545.794	49.02
546.138	49.4
546.483	49.62
546.827	49.73
547.171	49.83
547.516	50.1
547.86	49.96
548.204	49.99
548.548	50.12
548.892	50.07
549.236	50.04
549.58	50.02
549.924	50.29
550.268	50.51
550.612	50.83
550.956	50.94
551.3	50.94
551.643	51.11
551.987	51.07
552.33	51.29
552.674	51.09
553.017	51.23
553.361	51.6
553.704	51.71
554.048	51.86
554.391	51.68
554.734	51.5
555.077	51.3
555.42	51.51
555.764	51.57
556.107	51.47
556.45	51.99
556.793	52.04
557.135	52.01
557.478	51.86
557.821	52.2
558.164	52.43
558.507	52.24
558.849	52.45
559.192	52.47
559.534	52.6
559.877	52.51
560.219	52.6
560.562	52.65
560.904	52.82
561.246	53.05
561.589	53.17
561.931	53.03
562.273	53.05
562.615	53.05
562.957	53.03
563.299	53.11
563.641	53.05
563.983	53.06
564.325	53.49
564.667	53.53
565.008	53.57
565.35	53.42
565.692	53.6
566.033	53.71
566.375	53.89
566.716	53.64
567.058	53.69
567.399	53.96
567.741	53.84
568.082	53.63
568.423	53.73
568.764	53.83
569.105	53.83
569.447	53.86
569.788	54.09
570.129	54.05
570.47	54.26
570.811	54.18
571.151	54.14
571.492	54.44
571.833	54.72
572.174	54.56
572.514	54.5
572.855	54.7
573.195	54.85
573.536	54.38
573.876	54.54
574.217	54.33
574.557	54.56
574.898	54.5
575.238	54.67
575.578	55.13
575.918	54.91
576.258	55.04
576.598	55.2
576.938	55.11
577.278	55.16
577.618	55.26
577.958	55.16
578.298	55.57
578.638	55.56
578.977	55.34
579.317	56
579.657	55.73
579.996	55.88
580.336	56.27
580.675	56.39
581.014	56.05
581.354	56.34
581.693	56.46
582.032	56.44
582.372	56.27
582.711	56.67
583.05	56.5
583.389	56.52
583.728	56.36
584.067	56.81
584.406	56.74
584.745	56.86
585.083	57.02
585.422	56.99
585.761	57.22
586.1	57.3
586.438	57.24
586.777	57.44
587.115	57.21
587.454	57.47
587.792	57.26
588.13	57.48
588.469	57.68
588.807	57.32
589.145	57.72
589.483	57.5
589.821	57.89
590.159	57.32
590.497	57.66
590.835	57.62
591.173	57.65
591.511	58.09
591.849	57.98
592.187	57.92
592.524	57.71
592.862	58.04
593.2	57.99
593.537	58.19
593.875	57.73
594.212	58.34
594.55	58.14
594.887	58.01
595.224	58.35
595.561	58.16
595.899	58.08
596.236	58.5
596.573	58.18
596.91	58.56
597.247	58.37
597.584	58.3
597.921	58.44
598.258	58.53
598.594	58.89
598.931	58.45
599.268	58.28
599.604	58.67
599.941	58.5
600.277	58.84
600.614	58.84
600.95	58.67
601.287	59.19
601.623	59.56
601.959	59.43
602.296	59.34
602.632	59.55
602.968	59.48
603.304	59.53
603.64	59.47
603.976	59.37
604.312	59.79
604.648	59.63
604.984	59.81
605.319	59.41
605.655	59.36
605.991	59.42
606.326	59.46
606.662	59.45
606.998	59.61
607.333	59.48
607.668	59.61
608.004	59.55
608.339	60.08
608.674	60.04
609.01	60.23
609.345	60.73
609.68	60.3
610.015	60.24
610.35	60.8
610.685	60.7
611.02	60.51
611.355	60.34
611.689	60.08
612.024	60.55
612.359	60.27
612.694	60.53
613.028	60.59
613.363	60.51
613.697	60.61
614.032	60.82
614.366	61.06
614.7	60.89
615.035	61.14
615.369	61.03
615.703	61.64
616.037	61.58
616.371	61.64
616.705	61.23
617.039	61.46
617.373	62.04
617.707	61.34
618.041	61.79
618.375	61.75
618.709	61.22
619.042	61.53
619.376	62.57
619.71	62.28
620.043	62.08
620.377	61.71
620.71	61.78
621.043	61.91
621.377	61.91
621.71	62.18
622.043	62.4
622.376	62.13
622.709	62.35
623.043	62.67
623.376	62.52
623.709	62.34
624.041	62.51
624.374	62.61
624.707	62.85
625.04	62.68
625.373	62.94
625.705	62.41
626.038	62.74
626.37	63.07
626.703	62.67
627.035	62.87
627.368	62.4
627.7	62.77
628.032	63.2
628.365	63.17
628.697	62.9
629.029	62.93
629.361	62.86
629.693	62.86
630.025	62.73
630.357	63
630.689	63.12
631.021	63.51
631.353	63.01
631.684	63.33
632.016	63.4
632.348	63.72
632.679	63.37
633.011	63.81
633.342	63.82
633.674	63.63
634.005	64.1
634.336	63.54
634.668	64.23
634.999	63.9
635.33	64.04
635.661	64.12
635.992	63.6
636.323	63.76
636.654	64.05
636.985	63.78
637.316	63.95
637.647	64.07
637.977	63.85
638.308	64.85
638.639	64.58
638.969	64.59
639.3	64.54
639.63	64.7
639.961	64.74
640.291	64.24
640.622	64.83
640.952	64.96
641.282	64.13
641.612	65.1
641.943	64.84
642.273	64.77
642.603	65.26
642.933	64.5
643.263	65.38
643.592	65.04
643.922	65.01
644.252	64.78
644.582	65.06
644.911	64.99
645.241	65.13
645.571	65.57
645.9	64.73
646.23	65.69
646.559	65.53
646.888	65.67
647.218	65.58
647.547	65.29
647.876	65.6
648.205	66.16
648.534	65.66
648.863	65.87
649.192	65.39
649.521	66.33
649.85	65.83
650.179	65.55
650.508	66.07
650.837	66.24
651.165	66.01
651.494	66.11
651.822	65.85
652.151	66.09
652.479	65.54
652.808	66.37
653.136	66.09
653.465	66.56
653.793	66.57
654.121	66.14
654.449	65.8
654.777	66.49
655.105	67.12
655.433	66.93
655.761	66.37
656.089	67.29
656.417	66.89
656.745	66.31
657.073	66.73
657.4	67.75
657.728	66.57
658.056	67.28
658.383	66.69
658.711	67.54
659.038	66.15
659.365	67.81
659.693	67.05
660.02	66.67
660.347	67.14
660.674	66.49
661.001	67.34
661.329	67.14
661.656	66.94
661.982	67.06
662.309	66.52
662.636	67.22
662.963	66.38
663.29	67.57
663.616	67.21
663.943	66.84
664.27	66.87
664.596	67
664.923	67.35
665.249	67.56
665.576	67.87
665.902	66.89
666.228	66.89
666.554	67.34
666.881	67.04
667.207	67.62
667.533	67.63
667.859	68.2
668.185	67.52
668.511	67.98
668.837	67.75
669.162	67.84
669.488	67.7
