Data from 0366_crown_Reflection__4__318.txt Node

Date: Fri Oct 20 23:11:23 CDT 2023
User: ToomeyLab
Spectrometer: FLMS14357
Trigger mode: 0
Integration Time (sec): 1.000000E-2
Scans to average: 100
Electric dark correction enabled: true
Nonlinearity correction enabled: false
Boxcar width: 0
XAxis mode: Wavelengths
Number of Pixels in Spectrum: 2048
>>>>>Begin Spectral Data<<<<<
189.047	40.78
189.435	40.78
189.823	40.78
190.211	117.95
190.599	-576.31
190.987	74.63
191.375	314.93
191.763	185.96
192.151	-693.6
192.538	325.66
192.926	-1633
193.314	54.09
193.702	-3.5
194.089	90.24
194.477	949.58
194.864	54.86
195.252	-1049.32
195.639	323.63
196.027	3.62
196.414	14.01
196.801	26.75
197.189	195.54
197.576	17.03
197.963	-62.95
198.351	59.78
198.738	15.63
199.125	51.26
199.512	35.58
199.899	-3.31
200.286	0.68
200.673	18.49
201.06	43.5
201.447	-0.57
201.833	23.28
202.22	48.23
202.607	27.39
202.994	56.84
203.38	29.3
203.767	48.26
204.154	28.1
204.54	37.79
204.927	15.22
205.313	17.56
205.699	40.3
206.086	30.51
206.472	40.23
206.858	65
207.245	-18.13
207.631	40.42
208.017	12.02
208.403	6.6
208.789	16.71
209.175	-40.5
209.561	26.59
209.947	29.2
210.333	33.48
210.719	39.12
211.105	43.13
211.491	39.93
211.876	6.05
212.262	22.49
212.648	51.73
213.034	-16.17
213.419	36.85
213.805	5.78
214.19	5.37
214.576	-10.62
214.961	18.8
215.346	21.31
215.732	23.44
216.117	13.82
216.502	3.38
216.888	10.44
217.273	7.7
217.658	3.58
218.043	3.4
218.428	-9.12
218.813	7.35
219.198	-3.62
219.583	-10.29
219.968	-25.57
220.353	23.57
220.738	21.5
221.122	-4.44
221.507	5.08
221.892	6.97
222.276	11.51
222.661	19.29
223.046	6.57
223.43	5.72
223.815	11.45
224.199	22.42
224.583	8.04
224.968	6.43
225.352	1.91
225.736	4.22
226.121	13.73
226.505	7.95
226.889	16.25
227.273	4.83
227.657	15.49
228.041	8.47
228.425	13.33
228.809	9.38
229.193	6.91
229.577	10.46
229.961	9.32
230.344	8.85
230.728	8.73
231.112	9.33
231.495	8.36
231.879	9.4
232.263	10.18
232.646	7.55
233.03	7.01
233.413	9.6
233.797	8.69
234.18	9.13
234.563	11.54
234.946	9.8
235.33	9.29
235.713	10.73
236.096	9.54
236.479	9.97
236.862	10.01
237.245	7.68
237.628	10.11
238.011	9.21
238.394	9.41
238.777	10.71
239.16	9.27
239.543	10.37
239.925	8.9
240.308	9.35
240.691	7.9
241.073	9.61
241.456	8.95
241.838	9.02
242.221	9.62
242.603	8.9
242.986	8.97
243.368	8.85
243.75	8.05
244.133	8.34
244.515	8.44
244.897	8.23
245.279	8.94
245.661	8.21
246.043	8.46
246.425	8.75
246.807	7.91
247.189	7.76
247.571	7.76
247.953	8.7
248.335	8.44
248.717	7.95
249.098	7.78
249.48	7.87
249.862	8.1
250.243	8.54
250.625	8.21
251.006	8.13
251.388	7.97
251.769	8.23
252.151	7.69
252.532	8.34
252.913	8.23
253.295	7.72
253.676	8.66
254.057	7.74
254.438	7.79
254.819	8.03
255.2	7.77
255.581	7.5
255.962	8.13
256.343	7.69
256.724	8.28
257.105	8.09
257.486	7.58
257.867	8.58
258.247	8.39
258.628	7.18
259.009	8.48
259.389	6.67
259.77	6.93
260.15	8.08
260.531	7.2
260.911	7.7
261.292	7.39
261.672	7.53
262.052	7.51
262.432	7.31
262.813	7.46
263.193	7.71
263.573	7.18
263.953	7.47
264.333	7.11
264.713	7.84
265.093	7.77
265.473	8.01
265.853	7.47
266.233	8.27
266.612	7.72
266.992	7.1
267.372	7.08
267.752	6.88
268.131	7.12
268.511	7.49
268.89	7.03
269.27	6.98
269.649	6.85
270.029	7.32
270.408	7.29
270.787	7.57
271.167	6.8
271.546	7.36
271.925	7.46
272.304	7.42
272.683	7.08
273.062	7.01
273.441	7.16
273.82	6.95
274.199	7.23
274.578	6.78
274.957	6.98
275.336	7.46
275.715	7.05
276.093	7.04
276.472	6.83
276.851	7.2
277.229	6.99
277.608	6.68
277.986	6.16
278.365	7.26
278.743	6.08
279.122	6.6
279.5	7.01
279.878	6.36
280.257	6.26
280.635	6.42
281.013	6.6
281.391	7.53
281.769	6.66
282.147	6.97
282.525	6.11
282.903	6.72
283.281	6.65
283.659	6.3
284.037	6.9
284.415	6.39
284.792	6.31
285.17	6.7
285.548	6.52
285.925	6.3
286.303	6.37
286.68	6.28
287.058	6.75
287.435	6.34
287.813	5.77
288.19	6.23
288.567	6.35
288.945	6.34
289.322	6.52
289.699	6.1
290.076	6.94
290.453	6.45
290.83	6.38
291.207	6.94
291.584	6.08
291.961	6.36
292.338	6.14
292.715	6.32
293.092	6.51
293.469	6.54
293.845	6.12
294.222	6.46
294.599	6.2
294.975	6.99
295.352	6.76
295.728	6.55
296.105	6.25
296.481	6.16
296.858	6.67
297.234	6.1
297.61	5.91
297.986	5.89
298.363	5.91
298.739	5.93
299.115	5.89
299.491	6.08
299.867	6.31
300.243	6.12
300.619	5.97
300.995	5.6
301.371	5.8
301.746	6.14
302.122	6.56
302.498	5.88
302.874	5.98
303.249	5.81
303.625	5.9
304	6.03
304.376	6.01
304.751	5.61
305.127	6
305.502	6.08
305.878	6.12
306.253	5.94
306.628	5.8
307.003	5.67
307.378	5.57
307.754	5.79
308.129	6.2
308.504	6.22
308.879	5.77
309.254	6.26
309.629	5.62
310.003	4.96
310.378	6.04
310.753	5.92
311.128	6.18
311.502	5.84
311.877	5.85
312.252	5.92
312.626	6.25
313.001	5.5
313.375	5.53
313.75	6.19
314.124	5.28
314.498	5.91
314.873	5.47
315.247	5.95
315.621	5.71
315.995	6.25
316.369	5.62
316.743	6.06
317.117	5.98
317.491	5.04
317.865	5.85
318.239	6.07
318.613	6.26
318.987	5.79
319.361	5.06
319.734	5.58
320.108	5.53
320.482	5.8
320.855	5.82
321.229	6.16
321.602	5.35
321.976	5.22
322.349	6.15
322.723	5.39
323.096	5.97
323.469	5.11
323.843	5.33
324.216	5.7
324.589	5.69
324.962	6.2
325.335	5.9
325.708	5.73
326.081	6.11
326.454	5.84
326.827	6.1
327.2	6.03
327.573	6.11
327.945	5.5
328.318	5.16
328.691	5.61
329.063	5.98
329.436	5.42
329.809	5.8
330.181	5.78
330.553	6.07
330.926	5.9
331.298	5.68
331.671	5.05
332.043	5.33
332.415	5.78
332.787	5.99
333.159	5.49
333.532	5.53
333.904	5.81
334.276	5.73
334.648	5.77
335.02	5.69
335.391	5.68
335.763	5.96
336.135	5.65
336.507	5.86
336.879	5.76
337.25	6.21
337.622	6.22
337.993	6.04
338.365	5.49
338.736	5.76
339.108	6.11
339.479	5.96
339.851	6.16
340.222	5.18
340.593	5.56
340.964	5.67
341.336	6.13
341.707	6
342.078	5.93
342.449	5.56
342.82	5.62
343.191	5.52
343.562	5.79
343.933	5.89
344.303	5.97
344.674	5.99
345.045	6.27
345.416	6.22
345.786	5.9
346.157	5.56
346.527	5.84
346.898	5.87
347.268	5.84
347.639	6.22
348.009	5.46
348.38	5.8
348.75	6.2
349.12	5.93
349.49	5.81
349.861	6.24
350.231	5.82
350.601	6.25
350.971	6.07
351.341	5.94
351.711	6.34
352.081	5.82
352.45	6.09
352.82	6.14
353.19	6.11
353.56	6.63
353.929	6.05
354.299	6.05
354.669	6.37
355.038	6.24
355.408	6.44
355.777	5.98
356.147	6.28
356.516	5.79
356.885	6.24
357.254	6.24
357.624	6.03
357.993	5.89
358.362	6.22
358.731	5.83
359.1	6.05
359.469	5.71
359.838	6.06
360.207	6.09
360.576	6.48
360.945	6.04
361.314	6.1
361.682	6.09
362.051	5.99
362.42	6.08
362.788	6.11
363.157	6.24
363.525	5.96
363.894	6.37
364.262	6.13
364.631	6.2
364.999	6.38
365.367	5.96
365.735	6.2
366.104	6.4
366.472	6.33
366.84	6.29
367.208	6.59
367.576	6.25
367.944	6.14
368.312	6.13
368.68	6.57
369.048	6.62
369.416	6.4
369.783	6.75
370.151	6.33
370.519	6.48
370.886	6.54
371.254	6.77
371.621	6.52
371.989	6.39
372.356	6.47
372.724	6.62
373.091	6.52
373.458	6.17
373.826	6.57
374.193	6.3
374.56	6.42
374.927	6.16
375.294	6.81
375.661	6.36
376.028	6.88
376.395	6.75
376.762	6.2
377.129	6.49
377.496	6.73
377.863	6.87
378.229	6.67
378.596	6.73
378.963	6.78
379.329	6.72
379.696	6.85
380.062	6.57
380.429	6.58
380.795	6.57
381.161	6.67
381.528	6.85
381.894	6.71
382.26	7.02
382.626	6.76
382.993	6.6
383.359	6.7
383.725	6.94
384.091	6.8
384.457	6.87
384.823	6.81
385.188	7.14
385.554	6.84
385.92	6.64
386.286	7.08
386.651	6.63
387.017	6.89
387.383	6.76
387.748	6.79
388.114	6.61
388.479	7.15
388.845	7.11
389.21	6.8
389.575	6.45
389.94	6.93
390.306	6.9
390.671	6.76
391.036	6.7
391.401	6.96
391.766	6.79
392.131	6.9
392.496	6.91
392.861	6.96
393.226	6.81
393.591	6.98
393.956	7.06
394.32	7.25
394.685	6.94
395.05	7.14
395.414	7.13
395.779	6.96
396.143	6.95
396.508	6.98
396.872	6.99
397.236	7.04
397.601	6.87
397.965	6.71
398.329	6.88
398.694	7.11
399.058	7.09
399.422	6.83
399.786	7.02
400.15	6.86
400.514	7.04
400.878	6.85
401.242	7.36
401.605	7.15
401.969	6.99
402.333	7.05
402.697	7.25
403.06	7.15
403.424	7.19
403.787	7
404.151	7.26
404.514	7.28
404.878	7.22
405.241	7.16
405.604	7
405.968	7.26
406.331	7.11
406.694	7.18
407.057	7.04
407.42	7.49
407.783	7.36
408.146	7.26
408.509	7.19
408.872	7.45
409.235	7.18
409.598	7.41
409.961	7.46
410.323	7.08
410.686	7.17
411.049	7.29
411.411	7.15
411.774	7.55
412.136	7.44
412.499	7.39
412.861	7.45
413.223	7.44
413.586	7.46
413.948	7.48
414.31	7.56
414.672	7.35
415.035	7.11
415.397	7.4
415.759	7.52
416.121	7.61
416.483	7.49
416.845	7.49
417.206	7.46
417.568	7.48
417.93	7.24
418.292	7.19
418.653	7.38
419.015	7.27
419.377	7.36
419.738	7.35
420.1	7.13
420.461	7.27
420.822	7.36
421.184	7.22
421.545	7.35
421.906	7.4
422.267	7.41
422.629	7.35
422.99	7.18
423.351	7.24
423.712	7.2
424.073	7.31
424.434	7.25
424.795	7.29
425.155	7.44
425.516	7.33
425.877	7.33
426.238	7.22
426.598	7.31
426.959	7.27
427.32	7.41
427.68	7.31
428.041	7.39
428.401	7.33
428.761	7.36
429.122	7.5
429.482	7.44
429.842	7.48
430.202	7.46
430.563	7.47
430.923	7.5
431.283	7.56
431.643	7.52
432.003	7.48
432.363	7.41
432.722	7.6
433.082	7.67
433.442	7.38
433.802	7.67
434.161	7.38
434.521	7.57
434.881	7.6
435.24	7.63
435.6	7.37
435.959	7.37
436.319	7.54
436.678	7.52
437.037	7.47
437.396	7.79
437.756	7.83
438.115	7.47
438.474	7.52
438.833	7.65
439.192	7.49
439.551	7.4
439.91	7.54
440.269	7.74
440.628	7.6
440.987	7.65
441.345	7.47
441.704	7.62
442.063	7.44
442.421	7.46
442.78	7.56
443.138	7.69
443.497	7.63
443.855	7.51
444.214	7.65
444.572	7.54
444.93	7.6
445.288	7.71
445.647	7.86
446.005	7.39
446.363	7.57
446.721	7.56
447.079	7.72
447.437	7.54
447.795	7.49
448.153	7.47
448.51	7.55
448.868	7.34
449.226	7.53
449.584	7.56
449.941	7.57
450.299	7.58
450.656	7.45
451.014	7.57
451.371	7.73
451.729	7.66
452.086	7.68
452.443	7.82
452.801	7.67
453.158	7.72
453.515	7.72
453.872	7.67
454.229	7.82
454.586	7.66
454.943	7.64
455.3	7.6
455.657	7.76
456.014	7.69
456.371	7.74
456.727	7.77
457.084	7.77
457.441	7.84
457.797	7.77
458.154	7.52
458.51	7.74
458.867	7.78
459.223	7.81
459.58	7.79
459.936	7.89
460.292	7.61
460.648	7.65
461.005	7.58
461.361	7.71
461.717	7.47
462.073	7.63
462.429	7.6
462.785	7.65
463.141	7.75
463.496	7.77
463.852	7.78
464.208	7.91
464.564	7.92
464.919	7.76
465.275	7.92
465.631	7.77
465.986	7.82
466.342	7.87
466.697	7.71
467.052	7.67
467.408	7.8
467.763	7.89
468.118	8.08
468.473	7.87
468.829	7.75
469.184	7.85
469.539	7.87
469.894	7.83
470.249	7.69
470.603	7.83
470.958	7.97
471.313	7.88
471.668	7.86
472.023	7.91
472.377	7.84
472.732	7.78
473.086	8.08
473.441	8.01
473.795	8.03
474.15	7.92
474.504	7.77
474.859	7.83
475.213	7.8
475.567	7.95
475.921	7.89
476.275	7.87
476.63	7.96
476.984	7.97
477.338	7.87
477.692	7.77
478.045	7.9
478.399	7.72
478.753	7.92
479.107	8.02
479.461	7.86
479.814	7.91
480.168	7.86
480.521	7.82
480.875	7.78
481.228	7.87
481.582	7.89
481.935	7.78
482.289	7.84
482.642	7.87
482.995	7.84
483.348	7.79
483.701	7.78
484.055	7.82
484.408	7.63
484.761	7.65
485.114	7.57
485.466	7.48
485.819	7.35
486.172	7.27
486.525	7.35
486.878	7.39
487.23	7.46
487.583	7.5
487.936	7.52
488.288	7.58
488.641	7.66
488.993	7.58
489.345	7.52
489.698	7.43
490.05	7.43
490.402	7.42
490.754	7.48
491.107	7.58
491.459	7.62
491.811	7.67
492.163	7.6
492.515	7.76
492.866	7.67
493.218	7.55
493.57	7.47
493.922	7.5
494.274	7.52
494.625	7.59
494.977	7.54
495.328	7.76
495.68	7.71
496.031	7.7
496.383	7.87
496.734	7.85
497.086	7.83
497.437	7.74
497.788	7.81
498.139	7.89
498.49	7.72
498.842	7.7
499.193	7.87
499.544	7.71
499.894	7.82
500.245	7.72
500.596	7.76
500.947	7.78
501.298	7.83
501.648	7.69
501.999	7.89
502.35	7.88
502.7	7.92
503.051	7.92
503.401	8
503.752	7.82
504.102	7.95
504.452	7.85
504.803	7.85
505.153	7.92
505.503	7.85
505.853	7.94
506.203	7.84
506.553	7.76
506.903	7.79
507.253	7.85
507.603	7.82
507.953	7.88
508.303	7.82
508.652	7.86
509.002	7.77
509.352	7.96
509.701	7.9
510.051	7.65
510.4	7.93
510.75	7.85
511.099	7.83
511.449	7.8
511.798	7.78
512.147	7.75
512.496	7.86
512.846	7.79
513.195	7.88
513.544	7.78
513.893	7.74
514.242	7.8
514.591	7.75
514.939	7.64
515.288	7.77
515.637	7.89
515.986	7.9
516.334	7.83
516.683	7.74
517.032	7.66
517.38	7.84
517.729	7.83
518.077	7.82
518.426	7.87
518.774	7.82
519.122	7.8
519.47	7.74
519.819	7.74
520.167	7.67
520.515	7.68
520.863	7.77
521.211	7.65
521.559	7.69
521.907	7.71
522.255	7.66
522.602	7.9
522.95	7.68
523.298	7.75
523.645	7.83
523.993	7.76
524.341	7.82
524.688	7.76
525.036	7.97
525.383	7.68
525.73	7.91
526.078	7.73
526.425	7.85
526.772	7.75
527.119	7.72
527.466	7.63
527.814	7.68
528.161	7.59
528.508	7.59
528.854	7.65
529.201	7.57
529.548	7.63
529.895	7.54
530.242	7.48
530.588	7.28
530.935	7.31
531.282	7.39
531.628	7.38
531.975	7.37
532.321	7.46
532.667	7.5
533.014	7.5
533.36	7.63
533.706	7.67
534.052	7.57
534.399	7.54
534.745	7.4
535.091	7.55
535.437	7.5
535.783	7.5
536.129	7.48
536.474	7.54
536.82	7.57
537.166	7.55
537.512	7.59
537.857	7.59
538.203	7.68
538.549	7.67
538.894	7.52
539.239	7.56
539.585	7.49
539.93	7.61
540.276	7.67
540.621	7.66
540.966	7.65
541.311	7.76
541.656	7.6
542.001	7.76
542.346	7.61
542.691	7.57
543.036	7.56
543.381	7.4
543.726	7.32
544.071	7.36
544.415	7.42
544.76	7.46
545.105	7.58
545.449	7.5
545.794	7.54
546.138	7.53
546.483	7.51
546.827	7.66
547.171	7.69
547.516	7.56
547.86	7.62
548.204	7.51
548.548	7.61
548.892	7.53
549.236	7.59
549.58	7.5
549.924	7.57
550.268	7.62
550.612	7.71
550.956	7.78
551.3	7.65
551.643	7.65
551.987	7.86
552.33	7.69
552.674	7.78
553.017	7.63
553.361	7.78
553.704	7.85
554.048	7.72
554.391	7.61
554.734	7.81
555.077	7.58
555.42	7.48
555.764	7.65
556.107	7.85
556.45	7.63
556.793	7.42
557.135	7.58
557.478	7.56
557.821	7.69
558.164	7.76
558.507	7.63
558.849	7.77
559.192	7.59
559.534	7.82
559.877	7.62
560.219	7.86
560.562	7.71
560.904	7.53
561.246	7.62
561.589	7.69
561.931	7.48
562.273	7.84
562.615	8.05
562.957	7.62
563.299	7.61
563.641	7.84
563.983	7.39
564.325	7.49
564.667	7.58
565.008	7.57
565.35	7.6
565.692	7.5
566.033	7.6
566.375	7.68
566.716	7.48
567.058	7.63
567.399	7.66
567.741	7.74
568.082	7.49
568.423	7.5
568.764	7.41
569.105	7.57
569.447	7.49
569.788	7.61
570.129	7.58
570.47	7.62
570.811	7.73
571.151	7.44
571.492	7.59
571.833	7.74
572.174	7.63
572.514	7.58
572.855	7.53
573.195	7.59
573.536	7.44
573.876	7.5
574.217	7.48
574.557	7.35
574.898	7.33
575.238	7.33
575.578	7.49
575.918	7.23
576.258	7.54
576.598	7.52
576.938	7.6
577.278	7.57
577.618	7.29
577.958	7.42
578.298	7.36
578.638	7.49
578.977	7.43
579.317	7.43
579.657	7.27
579.996	7.42
580.336	7.58
580.675	7.4
581.014	7.58
581.354	7.66
581.693	7.55
582.032	7.27
582.372	7.55
582.711	7.71
583.05	8.01
583.389	7.68
583.728	7.59
584.067	7.39
584.406	7.56
584.745	7.46
585.083	7.41
585.422	7.48
585.761	7.44
586.1	7.69
586.438	7.06
586.777	7.44
587.115	7.48
587.454	7.46
587.792	7.19
588.13	7.57
588.469	7.39
588.807	7
589.145	7.38
589.483	7.23
589.821	7.45
590.159	7.55
590.497	7.33
590.835	7.53
591.173	7.34
591.511	7.43
591.849	7.28
592.187	7.42
592.524	7.24
592.862	7.39
593.2	7.3
593.537	7.48
593.875	7.56
594.212	7.35
594.55	7.43
594.887	7.37
595.224	7.11
595.561	7.21
595.899	7.1
596.236	7.35
596.573	7.2
596.91	7.44
597.247	7.4
597.584	7.13
597.921	7.08
598.258	7.27
598.594	7.48
598.931	7.21
599.268	7.04
599.604	7.05
599.941	7.18
600.277	7.24
600.614	7.31
600.95	7.25
601.287	7.35
601.623	7.41
601.959	7.45
602.296	7.24
602.632	7.38
602.968	7.1
603.304	7.34
603.64	7.31
603.976	7.36
604.312	7.24
604.648	7.37
604.984	7.28
605.319	7.1
605.655	7.01
605.991	7.04
606.326	7.19
606.662	7.04
606.998	6.98
607.333	7.05
607.668	6.89
608.004	7.15
608.339	7.08
608.674	7.18
609.01	7.09
609.345	7.64
609.68	7.5
610.015	7.11
610.35	7.29
610.685	7.18
611.02	7.24
611.355	7.14
611.689	7
612.024	7.14
612.359	7.28
612.694	7.08
613.028	7.26
613.363	7.08
613.697	7.08
614.032	7.11
614.366	7.13
614.7	7.11
615.035	7.24
615.369	7
615.703	7.03
616.037	7.19
616.371	7.24
616.705	7.19
617.039	6.89
617.373	6.99
617.707	7.45
618.041	7.24
618.375	7.13
618.709	6.97
619.042	7.23
619.376	7.22
619.71	7.32
620.043	7.05
620.377	6.87
620.71	7.21
621.043	6.93
621.377	6.88
621.71	7
622.043	7.12
622.376	7.64
622.709	7.09
623.043	7.09
623.376	6.99
623.709	6.67
624.041	6.96
624.374	7.14
624.707	6.94
625.04	6.99
625.373	7.25
625.705	6.94
626.038	7.18
626.37	6.6
626.703	6.88
627.035	7.09
627.368	7.31
627.7	7.04
628.032	7.36
628.365	7.38
628.697	7
629.029	6.92
629.361	6.7
629.693	6.96
630.025	6.88
630.357	6.94
630.689	6.93
631.021	7.08
631.353	6.94
631.684	6.84
632.016	7.08
632.348	6.96
632.679	6.87
633.011	7.06
633.342	6.82
633.674	7.03
634.005	6.82
634.336	7.29
634.668	6.78
634.999	6.78
635.33	6.42
635.661	6.97
635.992	7.04
636.323	7.06
636.654	7.04
636.985	6.79
637.316	7.14
637.647	7
637.977	6.59
638.308	7.11
638.639	7.09
638.969	7.08
639.3	6.66
639.63	7.35
639.961	7.02
640.291	7.24
640.622	6.72
640.952	7.39
641.282	6.99
641.612	6.97
641.943	7.02
642.273	6.95
642.603	7.08
642.933	7.15
643.263	7.31
643.592	6.84
643.922	7.18
644.252	6.53
644.582	6.98
644.911	7.53
645.241	7.16
645.571	7.06
645.9	7.09
646.23	6.71
646.559	6.67
646.888	7.22
647.218	7.2
647.547	6.97
647.876	6.81
648.205	7.3
648.534	6.86
648.863	7.01
649.192	6.9
649.521	6.67
649.85	6.68
650.179	7.37
650.508	6.83
650.837	7
651.165	7.22
651.494	6.6
651.822	6.97
652.151	7.06
652.479	7.06
652.808	6.99
653.136	6.61
653.465	7.13
653.793	7.16
654.121	7
654.449	7.32
654.777	6.69
655.105	6.55
655.433	7.53
655.761	6.87
656.089	6.91
656.417	6.46
656.745	6.79
657.073	6.78
657.4	7.49
657.728	6.91
658.056	6.97
658.383	6.67
658.711	6.61
659.038	7.11
659.365	7.17
659.693	6.71
660.02	6.44
660.347	6.8
660.674	6.91
661.001	6.42
661.329	6.88
661.656	7.35
661.982	6.86
662.309	6.9
662.636	7.27
662.963	7.18
663.29	7.12
663.616	7.16
663.943	6.51
664.27	6.95
664.596	6.89
664.923	6.87
665.249	6.81
665.576	6.69
665.902	6.6
666.228	7.16
666.554	7.13
666.881	6.66
667.207	7.67
667.533	7.04
667.859	6.9
668.185	7.6
668.511	7.6
668.837	6.81
669.162	7.05
669.488	6.66
669.814	6.65
670.139	6.84
670.465	6.64
670.791	7.06
671.116	6.84
671.442	7.14
671.767	6.88
672.092	7.17
672.418	6.96
672.743	7.41
673.068	7.06
673.393	7.07
673.718	6.77
674.043	7.05
674.368	7.19
674.693	7.2
675.018	7.46
675.343	6.62
675.667	7.25
675.992	6.65
676.317	6.8
676.641	7.24
676.966	6.67
677.29	6.33
677.615	6.73
677.939	6.93
678.264	6.97
678.588	6.44
678.912	7
679.236	7.24
679.56	6.67
679.885	7.37
680.209	7.53
680.532	6.61
680.856	6.63
681.18	6.66
681.504	6.93
681.828	7.35
682.152	6.69
682.475	6.86
682.799	6.98
683.122	6.94
683.446	6.71
683.769	6.8
684.093	7.09
684.416	7.15
684.739	6.52
685.062	6.62
685.386	6.7
685.709	6.89
686.032	6.87
686.355	7.17
686.678	6.96
687.001	7.47
687.324	6.87
687.646	6.85
687.969	7.05
688.292	7.93
688.614	7.07
688.937	7.12
689.26	6.79
689.582	6.12
689.904	5.95
690.227	7.26
690.549	6.37
690.871	6.24
691.194	7.49
691.516	6.53
691.838	7.05
692.16	6.2
692.482	6.66
692.804	6.96
693.126	6.83
