Data from 0366_chest_Reflection__1__310.txt Node

Date: Fri Oct 20 23:09:23 CDT 2023
User: ToomeyLab
Spectrometer: FLMS14357
Trigger mode: 0
Integration Time (sec): 1.000000E-2
Scans to average: 100
Electric dark correction enabled: true
Nonlinearity correction enabled: false
Boxcar width: 0
XAxis mode: Wavelengths
Number of Pixels in Spectrum: 2048
>>>>>Begin Spectral Data<<<<<
189.047	118.67
189.435	118.67
189.823	118.67
190.211	311.8
190.599	-114.85
190.987	86.82
191.375	258.27
191.763	117.72
192.151	248.84
192.538	201.99
192.926	108
193.314	4.78
193.702	152.56
194.089	166.67
194.477	1086.44
194.864	156.87
195.252	13.51
195.639	754.79
196.027	49.67
196.414	26.53
196.801	18.66
197.189	96.39
197.576	75.32
197.963	319.28
198.351	49.59
198.738	2.39
199.125	12.64
199.512	19.85
199.899	9.28
200.286	-24.04
200.673	22.36
201.06	22.23
201.447	-36.09
201.833	32.12
202.22	27.94
202.607	26.06
202.994	69.95
203.38	19.98
203.767	64.34
204.154	52.67
204.54	44.64
204.927	44.72
205.313	8.86
205.699	47.09
206.086	4.03
206.472	51.76
206.858	49.6
207.245	18.18
207.631	39.52
208.017	28.71
208.403	6.39
208.789	37.39
209.175	3.27
209.561	12.46
209.947	-10.8
210.333	29.03
210.719	2.72
211.105	12.81
211.491	35.68
211.876	-14.43
212.262	8.03
212.648	22.35
213.034	9.02
213.419	-5.27
213.805	-17.8
214.19	6.57
214.576	-6.23
214.961	29.49
215.346	49.34
215.732	12.03
216.117	-8.21
216.502	18.03
216.888	4.05
217.273	-6.07
217.658	-3.65
218.043	21.86
218.428	10.3
218.813	12.06
219.198	-19.54
219.583	-24.23
219.968	-12.88
220.353	29.83
220.738	9.34
221.122	2.99
221.507	10.24
221.892	0.55
222.276	-2.22
222.661	26.7
223.046	4.9
223.43	1.91
223.815	14.41
224.199	11.8
224.583	-7.26
224.968	6.85
225.352	1.65
225.736	6.56
226.121	3.31
226.505	-1.05
226.889	10.05
227.273	13.11
227.657	7.53
228.041	10.83
228.425	4
228.809	5.49
229.193	3.28
229.577	6.76
229.961	5.86
230.344	4.8
230.728	4.09
231.112	6.08
231.495	4.71
231.879	5.44
232.263	5.53
232.646	2.69
233.03	4.73
233.413	4.26
233.797	3.61
234.18	5.39
234.563	6.03
234.946	5.46
235.33	5.83
235.713	4.25
236.096	5.99
236.479	5.54
236.862	6.29
237.245	4.22
237.628	4.76
238.011	4.42
238.394	5.36
238.777	5.61
239.16	4.87
239.543	6.16
239.925	6.82
240.308	4.29
240.691	5.78
241.073	5.58
241.456	5.64
241.838	5.2
242.221	6.47
242.603	5.84
242.986	6.19
243.368	4.84
243.75	5.22
244.133	4.96
244.515	4.73
244.897	5.09
245.279	5.41
245.661	4.93
246.043	4.68
246.425	4.74
246.807	4.78
247.189	4.73
247.571	4.21
247.953	4.92
248.335	5.54
248.717	4.62
249.098	4.79
249.48	4.67
249.862	4.97
250.243	5.14
250.625	4.79
251.006	5.27
251.388	5.15
251.769	5.02
252.151	4.9
252.532	5.36
252.913	4.97
253.295	3.55
253.676	4.62
254.057	4.01
254.438	4.78
254.819	4.53
255.2	4.97
255.581	4.98
255.962	4.14
256.343	5.16
256.724	4.11
257.105	4.52
257.486	4.17
257.867	4.56
258.247	4.93
258.628	4.16
259.009	4.38
259.389	4.7
259.77	4.41
260.15	4.71
260.531	5.2
260.911	4.72
261.292	4.47
261.672	4.77
262.052	4.62
262.432	4.54
262.813	4.44
263.193	4.46
263.573	4.39
263.953	4.19
264.333	4.99
264.713	4.45
265.093	5.58
265.473	4.9
265.853	4.35
266.233	4.94
266.612	4.58
266.992	4.56
267.372	4.17
267.752	4.64
268.131	4.69
268.511	5.17
268.89	4.31
269.27	4.41
269.649	3.71
270.029	4.32
270.408	4.55
270.787	4.86
271.167	4.39
271.546	3.97
271.925	4.55
272.304	4.62
272.683	4.62
273.062	4.39
273.441	4.77
273.82	4.47
274.199	4.47
274.578	4.87
274.957	4.38
275.336	4.48
275.715	4.47
276.093	4.56
276.472	4.53
276.851	5.24
277.229	4.23
277.608	4.06
277.986	4.04
278.365	5.06
278.743	4.07
279.122	4.3
279.5	4.36
279.878	3.65
280.257	4.47
280.635	4.8
281.013	4.88
281.391	4.92
281.769	4
282.147	4.7
282.525	4.32
282.903	4.36
283.281	4.7
283.659	3.98
284.037	4.39
284.415	3.66
284.792	4.13
285.17	4.27
285.548	3.94
285.925	4.12
286.303	4.32
286.68	3.95
287.058	4.67
287.435	4.43
287.813	4.09
288.19	4.26
288.567	4.06
288.945	4.43
289.322	4.63
289.699	4.35
290.076	4.77
290.453	4.4
290.83	3.94
291.207	4.41
291.584	3.81
291.961	4.33
292.338	4.19
292.715	4.11
293.092	4.15
293.469	4.48
293.845	4.13
294.222	4.08
294.599	4.26
294.975	4.96
295.352	4.04
295.728	4.25
296.105	3.86
296.481	4.07
296.858	4.38
297.234	4.26
297.61	4.03
297.986	4.36
298.363	4.44
298.739	4.41
299.115	4.28
299.491	4.39
299.867	4.41
300.243	4.41
300.619	4.1
300.995	3.95
301.371	4.42
301.746	4.46
302.122	4.09
302.498	4.08
302.874	4.23
303.249	4.14
303.625	4.29
304	4.47
304.376	4.28
304.751	4.1
305.127	3.89
305.502	4.49
305.878	4.45
306.253	4.42
306.628	4.05
307.003	4.55
307.378	4.17
307.754	4.17
308.129	4.48
308.504	4.08
308.879	4.11
309.254	4.93
309.629	3.94
310.003	3.81
310.378	4.19
310.753	4.49
311.128	4.65
311.502	4.32
311.877	4.4
312.252	4.16
312.626	4.76
313.001	4.59
313.375	4.36
313.75	4.31
314.124	4.08
314.498	4.43
314.873	4.34
315.247	4.79
315.621	4.16
315.995	4.35
316.369	4.6
316.743	4.4
317.117	4.78
317.491	3.45
317.865	4.63
318.239	4.89
318.613	4.73
318.987	4.53
319.361	3.89
319.734	4.52
320.108	3.88
320.482	4.89
320.855	4.62
321.229	4.99
321.602	4.24
321.976	4.22
322.349	4.81
322.723	4.38
323.096	4.82
323.469	4.37
323.843	4.3
324.216	4.56
324.589	5.06
324.962	4.53
325.335	4.4
325.708	4.3
326.081	4.97
326.454	4.79
326.827	4.79
327.2	4.62
327.573	4.84
327.945	4.45
328.318	4.32
328.691	4.22
329.063	4.69
329.436	4.58
329.809	4.43
330.181	5.35
330.553	4.78
330.926	4.46
331.298	4.14
331.671	4.22
332.043	4.49
332.415	4.33
332.787	4.77
333.159	4.66
333.532	4.63
333.904	4.07
334.276	4.1
334.648	3.98
335.02	4.77
335.391	4.43
335.763	4.64
336.135	4.2
336.507	4.28
336.879	4.18
337.25	4.85
337.622	4.49
337.993	5.01
338.365	4.36
338.736	4.56
339.108	4.48
339.479	4.27
339.851	4.21
340.222	4.16
340.593	3.64
340.964	4.35
341.336	4.71
341.707	4.52
342.078	4.84
342.449	4.57
342.82	4.56
343.191	4.62
343.562	4.87
343.933	4.61
344.303	4.68
344.674	4.7
345.045	5.07
345.416	4.98
345.786	4.52
346.157	4.37
346.527	4.37
346.898	4.64
347.268	4.62
347.639	4.71
348.009	4.4
348.38	4.41
348.75	4.65
349.12	4.59
349.49	4.15
349.861	4.36
350.231	4.36
350.601	4.47
350.971	4.88
351.341	4.9
351.711	5.32
352.081	4.87
352.45	4.36
352.82	4.81
353.19	4.81
353.56	5.01
353.929	4.64
354.299	4.73
354.669	4.3
355.038	4.71
355.408	4.94
355.777	4.15
356.147	4.2
356.516	4.36
356.885	4.6
357.254	4.47
357.624	4.88
357.993	4.25
358.362	4.49
358.731	4.66
359.1	4.32
359.469	4.45
359.838	4.46
360.207	4.62
360.576	4.95
360.945	4.39
361.314	4.36
361.682	4.57
362.051	4.57
362.42	4.41
362.788	4.64
363.157	4.36
363.525	4.61
363.894	4.6
364.262	4.36
364.631	4.73
364.999	4.41
365.367	4.78
365.735	4.55
366.104	4.61
366.472	4.32
366.84	4.81
367.208	4.38
367.576	4.47
367.944	4.85
368.312	4.85
368.68	4.85
369.048	4.97
369.416	4.74
369.783	4.88
370.151	4.76
370.519	4.76
370.886	4.99
371.254	4.9
371.621	4.91
371.989	4.54
372.356	4.91
372.724	5.05
373.091	4.54
373.458	4.66
373.826	4.66
374.193	4.63
374.56	4.85
374.927	4.8
375.294	4.93
375.661	4.94
376.028	4.92
376.395	4.93
376.762	4.54
377.129	4.71
377.496	4.52
377.863	5
378.229	5
378.596	4.9
378.963	4.73
379.329	4.86
379.696	4.76
380.062	4.76
380.429	4.51
380.795	4.43
381.161	4.74
381.528	4.99
381.894	4.69
382.26	4.76
382.626	5.04
382.993	4.65
383.359	4.55
383.725	4.77
384.091	4.87
384.457	4.85
384.823	4.54
385.188	4.84
385.554	4.6
385.92	4.58
386.286	4.71
386.651	4.51
387.017	4.98
387.383	4.41
387.748	4.52
388.114	4.62
388.479	5
388.845	5.01
389.21	4.75
389.575	4.55
389.94	4.53
390.306	4.57
390.671	4.63
391.036	4.71
391.401	4.99
391.766	4.8
392.131	4.93
392.496	4.79
392.861	4.96
393.226	4.62
393.591	4.78
393.956	4.91
394.32	4.87
394.685	4.81
395.05	5.01
395.414	5.14
395.779	4.5
396.143	4.74
396.508	4.87
396.872	4.83
397.236	4.74
397.601	4.64
397.965	4.59
398.329	4.8
398.694	4.53
399.058	4.49
399.422	4.72
399.786	4.76
400.15	4.86
400.514	4.83
400.878	4.95
401.242	4.96
401.605	4.94
401.969	4.92
402.333	4.83
402.697	4.78
403.06	4.93
403.424	4.85
403.787	4.63
404.151	4.94
404.514	5.22
404.878	4.76
405.241	4.95
405.604	4.91
405.968	4.81
406.331	4.85
406.694	4.71
407.057	4.6
407.42	5
407.783	4.88
408.146	4.68
408.509	4.61
408.872	4.84
409.235	4.8
409.598	4.89
409.961	5.13
410.323	4.8
410.686	4.69
411.049	4.77
411.411	4.75
411.774	4.87
412.136	4.78
412.499	4.8
412.861	5.03
413.223	4.97
413.586	4.72
413.948	5.08
414.31	5.08
414.672	4.9
415.035	4.86
415.397	4.88
415.759	4.75
416.121	4.96
416.483	5.2
416.845	5.03
417.206	5.15
417.568	5.21
417.93	5.12
418.292	4.75
418.653	4.84
419.015	4.72
419.377	4.69
419.738	4.72
420.1	4.72
420.461	4.74
420.822	4.79
421.184	4.87
421.545	4.84
421.906	4.87
422.267	4.77
422.629	4.76
422.99	4.73
423.351	4.83
423.712	4.71
424.073	4.78
424.434	4.76
424.795	4.78
425.155	4.91
425.516	4.75
425.877	4.83
426.238	4.71
426.598	4.81
426.959	4.73
427.32	4.79
427.68	4.78
428.041	4.82
428.401	4.88
428.761	4.93
429.122	4.81
429.482	4.75
429.842	4.95
430.202	4.84
430.563	4.91
430.923	4.97
431.283	4.8
431.643	5.07
432.003	5.07
432.363	4.88
432.722	5.04
433.082	4.96
433.442	4.87
433.802	5.1
434.161	4.91
434.521	5.11
434.881	5.08
435.24	4.93
435.6	4.82
435.959	4.87
436.319	4.9
436.678	4.95
437.037	4.89
437.396	4.98
437.756	5.02
438.115	4.78
438.474	4.94
438.833	4.9
439.192	4.91
439.551	4.89
439.91	5.06
440.269	4.86
440.628	5.04
440.987	4.96
441.345	4.98
441.704	4.87
442.063	4.94
442.421	4.86
442.78	4.83
443.138	5.05
443.497	4.97
443.855	4.9
444.214	4.92
444.572	4.94
444.93	5.1
445.288	5.11
445.647	5.11
446.005	4.78
446.363	5.02
446.721	4.88
447.079	4.98
447.437	4.92
447.795	4.94
448.153	4.97
448.51	4.91
448.868	4.85
449.226	4.9
449.584	5
449.941	4.92
450.299	5.03
450.656	4.9
451.014	4.93
451.371	5.08
451.729	4.96
452.086	5.02
452.443	5.12
452.801	4.91
453.158	5.08
453.515	5.03
453.872	5.02
454.229	5.11
454.586	4.89
454.943	5.02
455.3	5
455.657	5.13
456.014	4.84
456.371	5.09
456.727	5.18
457.084	5.01
457.441	5.13
457.797	5.15
458.154	5
458.51	5.05
458.867	5.09
459.223	4.99
459.58	5.05
459.936	5.11
460.292	4.91
460.648	4.94
461.005	4.75
461.361	5.01
461.717	4.83
462.073	4.99
462.429	4.94
462.785	5
463.141	5.11
463.496	5.02
463.852	5.09
464.208	5.08
464.564	5.2
464.919	5.02
465.275	5.15
465.631	5.17
465.986	5.25
466.342	5.21
466.697	5.18
467.052	4.97
467.408	5.09
467.763	5.15
468.118	5.29
468.473	5
468.829	5.17
469.184	5.17
469.539	5.05
469.894	5.09
470.249	5.08
470.603	4.96
470.958	5.11
471.313	5.17
471.668	5.16
472.023	5.21
472.377	5.24
472.732	5.12
473.086	5.18
473.441	5.33
473.795	5.26
474.15	5.09
474.504	5.09
474.859	5.23
475.213	5.3
475.567	5.18
475.921	5.25
476.275	4.94
476.63	5.45
476.984	5.1
477.338	5.08
477.692	5.23
478.045	5.05
478.399	5.17
478.753	5.26
479.107	5.2
479.461	5.29
479.814	5.21
480.168	5.31
480.521	5.15
480.875	5.19
481.228	5.31
481.582	5.29
481.935	5.09
482.289	5.29
482.642	5.24
482.995	5.09
483.348	5.2
483.701	5.12
484.055	5.13
484.408	5.1
484.761	5.02
485.114	4.99
485.466	4.97
485.819	4.86
486.172	4.82
486.525	4.82
486.878	4.86
487.23	4.93
487.583	4.97
487.936	4.97
488.288	5.09
488.641	5.13
488.993	4.98
489.345	4.96
489.698	4.98
490.05	4.97
490.402	4.93
490.754	4.97
491.107	4.99
491.459	5.11
491.811	5.05
492.163	5.13
492.515	5.12
492.866	5.14
493.218	5.04
493.57	4.99
493.922	5.01
494.274	4.98
494.625	5.03
494.977	5.1
495.328	5.18
495.68	5.23
496.031	5.19
496.383	5.4
496.734	5.26
497.086	5.34
497.437	5.26
497.788	5.17
498.139	5.46
498.49	5.26
498.842	5.2
499.193	5.33
499.544	5.29
499.894	5.31
500.245	5.22
500.596	5.32
500.947	5.28
501.298	5.25
501.648	5.28
501.999	5.4
502.35	5.26
502.7	5.49
503.051	5.41
503.401	5.34
503.752	5.33
504.102	5.37
504.452	5.35
504.803	5.31
505.153	5.47
505.503	5.39
505.853	5.51
506.203	5.33
506.553	5.34
506.903	5.37
507.253	5.52
507.603	5.36
507.953	5.42
508.303	5.3
508.652	5.52
509.002	5.41
509.352	5.46
509.701	5.35
510.051	5.31
510.4	5.34
510.75	5.39
511.099	5.42
511.449	5.4
511.798	5.48
512.147	5.45
512.496	5.43
512.846	5.45
513.195	5.43
513.544	5.51
513.893	5.29
514.242	5.35
514.591	5.45
514.939	5.51
515.288	5.49
515.637	5.45
515.986	5.46
516.334	5.48
516.683	5.51
517.032	5.42
517.38	5.44
517.729	5.59
518.077	5.36
518.426	5.49
518.774	5.44
519.122	5.53
519.47	5.47
519.819	5.36
520.167	5.31
520.515	5.34
520.863	5.42
521.211	5.48
521.559	5.43
521.907	5.4
522.255	5.54
522.602	5.62
522.95	5.43
523.298	5.51
523.645	5.51
523.993	5.51
524.341	5.61
524.688	5.59
525.036	5.57
525.383	5.64
525.73	5.68
526.078	5.62
526.425	5.52
526.772	5.59
527.119	5.58
527.466	5.42
527.814	5.63
528.161	5.5
528.508	5.52
528.854	5.56
529.201	5.59
529.548	5.57
529.895	5.57
530.242	5.41
530.588	5.36
530.935	5.36
531.282	5.44
531.628	5.48
531.975	5.41
532.321	5.49
532.667	5.56
533.014	5.64
533.36	5.67
533.706	5.68
534.052	5.64
534.399	5.6
534.745	5.55
535.091	5.52
535.437	5.55
535.783	5.54
536.129	5.62
536.474	5.61
536.82	5.81
537.166	5.66
537.512	5.79
537.857	5.82
538.203	5.71
538.549	5.78
538.894	5.76
539.239	5.69
539.585	5.72
539.93	5.83
540.276	5.88
540.621	5.83
540.966	5.78
541.311	5.92
541.656	6
542.001	6.06
542.346	5.95
542.691	5.83
543.036	5.78
543.381	5.76
543.726	5.67
544.071	5.77
544.415	5.78
544.76	5.79
545.105	5.86
545.449	5.89
545.794	5.94
546.138	5.88
546.483	6.02
546.827	6.04
547.171	6.01
547.516	5.97
547.86	6.07
548.204	5.93
548.548	6
548.892	6
549.236	6.06
549.58	5.93
549.924	6.06
550.268	6.08
550.612	6.2
550.956	6.29
551.3	6.13
551.643	6.14
551.987	6.32
552.33	6.36
552.674	6.42
553.017	6.31
553.361	6.31
553.704	6.32
554.048	6.33
554.391	6.37
554.734	6.4
555.077	6.25
555.42	6.36
555.764	6.16
556.107	6.68
556.45	6.47
556.793	6.24
557.135	6.38
557.478	6.52
557.821	6.43
558.164	6.65
558.507	6.53
558.849	6.63
559.192	6.44
559.534	6.73
559.877	6.5
560.219	6.57
560.562	6.29
560.904	6.41
561.246	6.69
561.589	6.67
561.931	6.5
562.273	6.52
562.615	6.81
562.957	6.78
563.299	6.63
563.641	6.75
563.983	6.59
564.325	6.51
564.667	6.78
565.008	6.85
565.35	6.8
565.692	6.74
566.033	6.78
566.375	6.73
566.716	6.93
567.058	6.92
567.399	6.83
567.741	6.75
568.082	6.84
568.423	6.87
568.764	6.78
569.105	6.97
569.447	6.93
569.788	6.95
570.129	6.76
570.47	7
570.811	7.11
571.151	7.01
571.492	7.12
571.833	7.39
572.174	7.12
572.514	7.03
572.855	7.21
573.195	7.15
573.536	6.94
573.876	7.12
574.217	7.03
574.557	7.07
574.898	7.12
575.238	7.01
575.578	7.27
575.918	7.25
576.258	7.28
576.598	7.26
576.938	7.21
577.278	7.31
577.618	7.1
577.958	7.38
578.298	7.24
578.638	7.27
578.977	7.33
579.317	7.39
579.657	7.14
579.996	7.5
580.336	7.42
580.675	7.57
581.014	7.56
581.354	7.52
581.693	7.53
582.032	7.67
582.372	7.51
582.711	7.76
583.05	7.56
583.389	7.72
583.728	7.74
584.067	7.78
584.406	7.67
584.745	7.72
585.083	7.71
585.422	7.78
585.761	7.61
586.1	7.73
586.438	7.49
586.777	7.96
587.115	7.83
587.454	7.88
587.792	7.8
588.13	7.73
588.469	7.86
588.807	7.73
589.145	8.16
589.483	7.92
589.821	7.88
590.159	7.93
590.497	8.06
590.835	8.09
591.173	8.04
591.511	8.17
591.849	8.12
592.187	7.89
592.524	7.98
592.862	8.3
593.2	8.14
593.537	8.19
593.875	8.1
594.212	8.35
594.55	8.47
594.887	8.27
595.224	8.26
595.561	8.2
595.899	8.17
596.236	8.45
596.573	8.23
596.91	8.29
597.247	8.35
597.584	8.32
597.921	8.38
598.258	8.51
598.594	8.46
598.931	8.35
599.268	8.35
599.604	8.39
599.941	8.33
600.277	8.46
600.614	8.63
600.95	8.42
601.287	8.52
601.623	8.83
601.959	8.71
602.296	8.67
602.632	9.05
602.968	8.82
603.304	8.91
603.64	8.8
603.976	8.81
604.312	9.21
604.648	8.8
604.984	9.13
605.319	8.81
605.655	8.86
605.991	8.94
606.326	8.81
606.662	8.75
606.998	8.71
607.333	8.84
607.668	8.74
608.004	9.11
608.339	9.21
608.674	9.17
609.01	8.92
609.345	9.49
609.68	9.27
610.015	9.2
610.35	9.47
610.685	9.37
611.02	8.99
611.355	9.11
611.689	9.23
612.024	9.46
612.359	9.33
612.694	9.19
613.028	9.53
613.363	9.39
613.697	9.28
614.032	9.54
614.366	9.76
614.7	9.56
615.035	9.56
615.369	9.71
615.703	9.14
616.037	9.73
616.371	10
616.705	9.61
617.039	9.66
617.373	9.58
617.707	10.14
618.041	9.72
618.375	10.19
618.709	9.47
619.042	9.8
619.376	10.31
619.71	10.2
620.043	10.04
620.377	9.95
620.71	10.02
621.043	9.88
621.377	10.04
621.71	9.94
622.043	10.17
622.376	10.12
622.709	10.36
623.043	10.08
623.376	10.27
623.709	10.1
624.041	10.23
624.374	10.32
624.707	10.18
625.04	10.48
625.373	10.74
625.705	10.41
626.038	10.68
626.37	10.47
626.703	10.63
627.035	10.27
627.368	10.46
627.7	10.79
628.032	10.42
628.365	10.64
628.697	10.61
629.029	10.54
629.361	10.71
629.693	10.47
630.025	10.81
630.357	10.55
630.689	10.64
631.021	11.07
631.353	10.72
631.684	10.89
632.016	11.01
632.348	10.62
632.679	10.75
633.011	10.9
633.342	10.77
633.674	11.52
634.005	11.02
634.336	10.98
634.668	10.98
634.999	10.7
635.33	10.58
635.661	11.22
635.992	11.26
636.323	11.44
636.654	10.98
636.985	11.04
637.316	11.15
637.647	11.1
637.977	11.01
638.308	11.63
638.639	11.26
638.969	11.37
639.3	11.03
639.63	11.6
639.961	11.55
640.291	11.34
640.622	11.26
640.952	11.54
641.282	11.62
641.612	11.43
641.943	11.51
642.273	11.65
642.603	12.01
642.933	12.07
643.263	11.97
643.592	11.7
643.922	12.21
644.252	11.68
644.582	11.83
644.911	12.29
645.241	12.35
645.571	12.46
645.9	12.04
646.23	12.05
646.559	11.7
646.888	12.04
647.218	12.41
647.547	12.06
647.876	12.03
648.205	12.51
648.534	11.87
648.863	12.57
649.192	11.44
649.521	12.33
649.85	12.66
650.179	12.15
650.508	12.74
650.837	12.66
651.165	12.47
651.494	12.04
651.822	12.44
652.151	12.89
652.479	12.12
652.808	12.24
653.136	12.25
653.465	12.3
653.793	12.5
654.121	12.62
654.449	12.44
654.777	12.39
655.105	12.69
655.433	12.94
655.761	12.62
656.089	12.81
656.417	13.07
656.745	12.59
657.073	12.77
657.4	13.82
657.728	13.33
658.056	13.1
658.383	12.74
658.711	13.04
659.038	13.18
659.365	13.28
659.693	13.23
660.02	12.74
660.347	13.03
660.674	12.96
661.001	12.84
661.329	13.16
661.656	13.3
661.982	13.47
662.309	13.45
662.636	13.57
662.963	13.51
663.29	13.78
663.616	13.76
663.943	13.41
664.27	13.49
664.596	13.25
664.923	13.46
665.249	13.58
665.576	13.58
665.902	13.87
666.228	13.46
666.554	14.35
666.881	13.25
667.207	13.62
667.533	13.76
667.859	13.76
668.185	14.24
668.511	14.04
668.837	14.33
669.162	13.52
669.488	13.94
669.814	13.56
670.139	13.89
670.465	13.95
670.791	14.69
671.116	14.1
671.442	14.21
671.767	14.14
672.092	14.35
672.418	14.01
672.743	14.13
673.068	14.23
673.393	14.51
673.718	13.94
674.043	14.13
674.368	14.82
674.693	15.11
675.018	15.12
675.343	13.87
675.667	14.45
675.992	15.08
676.317	15.02
676.641	14.61
676.966	14.74
677.29	14.57
677.615	14.15
677.939	14.35
678.264	14.52
678.588	13.99
678.912	14.59
679.236	15.21
679.56	14.42
679.885	15.52
680.209	15.19
680.532	14.49
680.856	14.64
681.18	15.52
681.504	15.12
681.828	15.46
682.152	14.81
682.475	14.7
682.799	15.21
683.122	15.16
683.446	15.02
683.769	15.15
684.093	15.48
684.416	15.22
684.739	14.86
685.062	14.45
685.386	15.54
685.709	14.7
686.032	14.6
686.355	15.95
686.678	14.75
687.001	15.46
687.324	15.66
687.646	15.24
687.969	15.96
