Data from 0366_crown_Reflection__2__316.txt Node

Date: Fri Oct 20 23:11:05 CDT 2023
User: ToomeyLab
Spectrometer: FLMS14357
Trigger mode: 0
Integration Time (sec): 1.000000E-2
Scans to average: 100
Electric dark correction enabled: true
Nonlinearity correction enabled: false
Boxcar width: 0
XAxis mode: Wavelengths
Number of Pixels in Spectrum: 2048
>>>>>Begin Spectral Data<<<<<
189.047	1.33
189.435	1.33
189.823	1.33
190.211	39.67
190.599	-97.38
190.987	42.9
191.375	382.01
191.763	109.79
192.151	20.93
192.538	31.13
192.926	-116
193.314	121.71
193.702	133.45
194.089	82.17
194.477	649.15
194.864	-25.12
195.252	-1554.05
195.639	283.56
196.027	-3.34
196.414	40.95
196.801	79.06
197.189	46.29
197.576	127.25
197.963	-538.55
198.351	59.07
198.738	17.57
199.125	28.24
199.512	3.05
199.899	17.45
200.286	-20.42
200.673	9.46
201.06	41.71
201.447	-3.4
201.833	35.25
202.22	51.62
202.607	19.68
202.994	19.44
203.38	0.17
203.767	57.59
204.154	33.68
204.54	61.82
204.927	24.04
205.313	2.06
205.699	25.91
206.086	18.75
206.472	42.71
206.858	72.45
207.245	-5.53
207.631	52.84
208.017	11.66
208.403	4.3
208.789	19.34
209.175	-5.02
209.561	27.87
209.947	39.08
210.333	-14.27
210.719	-2.95
211.105	12.51
211.491	22.37
211.876	5.63
212.262	19.45
212.648	14.88
213.034	21.16
213.419	8.04
213.805	-2.57
214.19	1.19
214.576	13.33
214.961	11.08
215.346	28.87
215.732	33.74
216.117	-26.59
216.502	50.25
216.888	12.38
217.273	-13.96
217.658	16.43
218.043	5.59
218.428	8.69
218.813	15.03
219.198	-9.46
219.583	-17.57
219.968	-12.38
220.353	28.55
220.738	23.13
221.122	13.41
221.507	14.03
221.892	7.35
222.276	2.12
222.661	15.94
223.046	-3.74
223.43	6.63
223.815	8.79
224.199	14.24
224.583	1.51
224.968	-9.78
225.352	-1.07
225.736	3.87
226.121	10.54
226.505	3.26
226.889	7.65
227.273	4.96
227.657	8.27
228.041	8.78
228.425	4.88
228.809	6.4
229.193	5.51
229.577	6.97
229.961	4.54
230.344	5.23
230.728	5.49
231.112	6.74
231.495	5.68
231.879	5.25
232.263	5.95
232.646	4.77
233.03	4.86
233.413	6.52
233.797	5.15
234.18	4.76
234.563	9.12
234.946	4.96
235.33	6.49
235.713	5.8
236.096	6.11
236.479	7.18
236.862	5.11
237.245	3.86
237.628	5.85
238.011	6.23
238.394	4.71
238.777	6.71
239.16	7.21
239.543	6.83
239.925	4.84
240.308	5.19
240.691	5.46
241.073	7.08
241.456	6.24
241.838	4.35
242.221	6.24
242.603	5.75
242.986	5.15
243.368	6.01
243.75	5.54
244.133	5.03
244.515	4.99
244.897	5.3
245.279	5.69
245.661	5.43
246.043	5.17
246.425	5.34
246.807	5.44
247.189	5.3
247.571	4.1
247.953	5.37
248.335	5.74
248.717	5.23
249.098	5.14
249.48	5.21
249.862	5.17
250.243	5.72
250.625	5.24
251.006	5.45
251.388	5.27
251.769	6.25
252.151	4.63
252.532	5.55
252.913	5.32
253.295	3.94
253.676	5.3
254.057	5.53
254.438	5.37
254.819	5.26
255.2	5.2
255.581	4.46
255.962	5.44
256.343	5.89
256.724	4.1
257.105	6.05
257.486	5.31
257.867	5.46
258.247	5.93
258.628	5
259.009	5.05
259.389	4.61
259.77	4.64
260.15	5.23
260.531	5.26
260.911	4.98
261.292	4.59
261.672	4.95
262.052	4.89
262.432	4.8
262.813	4.89
263.193	5.06
263.573	4.3
263.953	4.22
264.333	4.69
264.713	5.5
265.093	5.13
265.473	5.39
265.853	4.6
266.233	4.61
266.612	5.93
266.992	5.12
267.372	4.53
267.752	4.44
268.131	4.26
268.511	4.47
268.89	5.14
269.27	4.31
269.649	4.6
270.029	5.31
270.408	4.71
270.787	4.88
271.167	3.83
271.546	5.47
271.925	5.61
272.304	4.84
272.683	4.89
273.062	4.55
273.441	4.65
273.82	4.65
274.199	4.89
274.578	4.53
274.957	4.88
275.336	5.02
275.715	5.06
276.093	4.42
276.472	4.5
276.851	5.04
277.229	4.73
277.608	3.86
277.986	4.3
278.365	4.66
278.743	5.15
279.122	4.22
279.5	4.42
279.878	4.16
280.257	4.8
280.635	4.73
281.013	4.77
281.391	5.02
281.769	4.29
282.147	4.36
282.525	4.25
282.903	4.64
283.281	4.52
283.659	4.4
284.037	4.4
284.415	3.81
284.792	4.3
285.17	3.91
285.548	4.24
285.925	3.98
286.303	4.08
286.68	3.89
287.058	4.77
287.435	4.7
287.813	3.71
288.19	4.44
288.567	4.5
288.945	4.46
289.322	4.8
289.699	4.26
290.076	5.01
290.453	4.54
290.83	4.42
291.207	4.77
291.584	3.96
291.961	4.28
292.338	4.39
292.715	4.37
293.092	4.26
293.469	4.7
293.845	4.07
294.222	4.18
294.599	3.99
294.975	4.92
295.352	4.22
295.728	4.02
296.105	4.06
296.481	4.31
296.858	4.34
297.234	4.46
297.61	3.57
297.986	4.14
298.363	4.53
298.739	4.35
299.115	4.17
299.491	4.47
299.867	4.45
300.243	4.26
300.619	4.26
300.995	4.25
301.371	4.15
301.746	4.22
302.122	4.23
302.498	4.17
302.874	4.63
303.249	4.22
303.625	4.1
304	4.2
304.376	4.16
304.751	3.92
305.127	4.18
305.502	4.69
305.878	3.98
306.253	3.86
306.628	4.37
307.003	4
307.378	4.16
307.754	4.18
308.129	4.88
308.504	4.82
308.879	4.23
309.254	4.33
309.629	3.68
310.003	3.63
310.378	4.62
310.753	4.3
311.128	4.39
311.502	4.09
311.877	4.12
312.252	3.96
312.626	4.21
313.001	4.22
313.375	4.11
313.75	4.21
314.124	4.1
314.498	4.22
314.873	3.55
315.247	4.07
315.621	4.03
315.995	4.23
316.369	3.88
316.743	4.24
317.117	4.12
317.491	3.24
317.865	4.51
318.239	4.53
318.613	4.02
318.987	3.95
319.361	3.34
319.734	3.74
320.108	3.45
320.482	4.07
320.855	4.42
321.229	4.73
321.602	4.06
321.976	3.66
322.349	4.44
322.723	3.91
323.096	4.2
323.469	3.97
323.843	4.27
324.216	4.23
324.589	4.07
324.962	4.69
325.335	3.99
325.708	4.03
326.081	4.06
326.454	4.21
326.827	4.37
327.2	4.55
327.573	4.26
327.945	3.71
328.318	3.8
328.691	4.21
329.063	4.42
329.436	4.3
329.809	4.08
330.181	4.38
330.553	4.23
330.926	4.21
331.298	3.85
331.671	4.3
332.043	3.95
332.415	4.1
332.787	4.55
333.159	3.98
333.532	4.14
333.904	4.3
334.276	3.81
334.648	4.23
335.02	4.45
335.391	3.95
335.763	4.65
336.135	4.23
336.507	4.78
336.879	3.87
337.25	4.21
337.622	4.48
337.993	4.77
338.365	4.29
338.736	4.13
339.108	4.87
339.479	3.96
339.851	4.2
340.222	4.28
340.593	3.68
340.964	3.64
341.336	4.81
341.707	3.7
342.078	4.35
342.449	3.99
342.82	4.47
343.191	3.97
343.562	4.36
343.933	3.79
344.303	4.02
344.674	5.08
345.045	4.4
345.416	4.73
345.786	4.31
346.157	4.23
346.527	4.39
346.898	4.53
347.268	4.62
347.639	4.53
348.009	4.29
348.38	4.42
348.75	4.49
349.12	4.47
349.49	4.63
349.861	4.45
350.231	4.06
350.601	4.19
350.971	4.94
351.341	4.45
351.711	5.18
352.081	4.45
352.45	4.17
352.82	4.67
353.19	4.82
353.56	4.5
353.929	4.55
354.299	4.57
354.669	4.19
355.038	4.66
355.408	4.55
355.777	4.74
356.147	4.48
356.516	4.14
356.885	4.6
357.254	4.38
357.624	4.82
357.993	4.16
358.362	4.63
358.731	4.37
359.1	4.19
359.469	4.15
359.838	4.18
360.207	4.24
360.576	4.56
360.945	4.09
361.314	4.71
361.682	4.5
362.051	4.55
362.42	4.32
362.788	4.67
363.157	4.6
363.525	4.27
363.894	4.5
364.262	4.53
364.631	4.69
364.999	4.53
365.367	4.65
365.735	4.41
366.104	4.39
366.472	4.65
366.84	4.68
367.208	4.68
367.576	4.61
367.944	4.65
368.312	4.64
368.68	4.66
369.048	4.47
369.416	4.77
369.783	4.68
370.151	4.99
370.519	4.48
370.886	4.75
371.254	5.01
371.621	4.88
371.989	4.47
372.356	4.62
372.724	4.87
373.091	4.42
373.458	4.45
373.826	4.68
374.193	4.77
374.56	4.6
374.927	4.49
375.294	4.63
375.661	4.78
376.028	4.93
376.395	4.94
376.762	4.56
377.129	4.59
377.496	4.84
377.863	4.81
378.229	5.01
378.596	4.84
378.963	4.68
379.329	5.19
379.696	4.67
380.062	4.77
380.429	4.63
380.795	4.74
381.161	4.81
381.528	5.2
381.894	4.92
382.26	4.84
382.626	5.02
382.993	4.92
383.359	5.03
383.725	5.01
384.091	4.84
384.457	4.76
384.823	4.77
385.188	4.94
385.554	5.05
385.92	4.79
386.286	5.2
386.651	4.9
387.017	5.08
387.383	4.91
387.748	4.64
388.114	4.58
388.479	5.02
388.845	5.04
389.21	5.08
389.575	4.74
389.94	4.68
390.306	4.75
390.671	4.86
391.036	5.06
391.401	5.15
391.766	5.03
392.131	5.01
392.496	4.88
392.861	5.13
393.226	5.08
393.591	4.94
393.956	5
394.32	5.07
394.685	4.84
395.05	5.33
395.414	5.16
395.779	4.91
396.143	4.86
396.508	5
396.872	5.02
397.236	4.96
397.601	4.87
397.965	5.07
398.329	4.99
398.694	5.1
399.058	4.8
399.422	5.04
399.786	5.07
400.15	5.13
400.514	5.18
400.878	5.17
401.242	5.18
401.605	5.15
401.969	4.91
402.333	4.95
402.697	5.06
403.06	4.86
403.424	5.01
403.787	5.27
404.151	5.27
404.514	5.1
404.878	5.19
405.241	5.08
405.604	4.85
405.968	5.13
406.331	5.13
406.694	5.11
407.057	5.1
407.42	5.52
407.783	5.02
408.146	5.18
408.509	5.05
408.872	5.32
409.235	5.09
409.598	5.39
409.961	5.23
410.323	5.19
410.686	5.06
411.049	5.26
411.411	4.93
411.774	5.05
412.136	5
412.499	5.1
412.861	5.21
413.223	5.25
413.586	5.2
413.948	5.34
414.31	5.5
414.672	5.28
415.035	5.3
415.397	5.42
415.759	5.28
416.121	5.21
416.483	5.49
416.845	5.32
417.206	5.3
417.568	5.31
417.93	5.27
418.292	4.84
418.653	5.41
419.015	5.08
419.377	5.24
419.738	5.09
420.1	5.07
420.461	5.17
420.822	5.13
421.184	5
421.545	5.17
421.906	5.12
422.267	5.14
422.629	5.1
422.99	4.99
423.351	5.2
423.712	5.12
424.073	5.16
424.434	5.12
424.795	5.14
425.155	5.28
425.516	5.1
425.877	5.17
426.238	5.07
426.598	5.17
426.959	5.06
427.32	5.17
427.68	5.24
428.041	5.22
428.401	5.33
428.761	5.13
429.122	5.27
429.482	5.34
429.842	5.33
430.202	5.34
430.563	5.24
430.923	5.43
431.283	5.35
431.643	5.38
432.003	5.4
432.363	5.29
432.722	5.35
433.082	5.49
433.442	5.35
433.802	5.44
434.161	5.27
434.521	5.45
434.881	5.51
435.24	5.39
435.6	5.26
435.959	5.27
436.319	5.42
436.678	5.44
437.037	5.21
437.396	5.41
437.756	5.35
438.115	5.33
438.474	5.31
438.833	5.6
439.192	5.3
439.551	5.37
439.91	5.33
440.269	5.53
440.628	5.36
440.987	5.4
441.345	5.19
441.704	5.26
442.063	5.28
442.421	5.21
442.78	5.38
443.138	5.44
443.497	5.29
443.855	5.38
444.214	5.47
444.572	5.37
444.93	5.41
445.288	5.39
445.647	5.67
446.005	5.25
446.363	5.38
446.721	5.33
447.079	5.46
447.437	5.35
447.795	5.22
448.153	5.26
448.51	5.29
448.868	5.25
449.226	5.28
449.584	5.36
449.941	5.24
450.299	5.34
450.656	5.36
451.014	5.33
451.371	5.58
451.729	5.3
452.086	5.28
452.443	5.36
452.801	5.43
453.158	5.63
453.515	5.52
453.872	5.48
454.229	5.65
454.586	5.48
454.943	5.42
455.3	5.38
455.657	5.5
456.014	5.41
456.371	5.41
456.727	5.59
457.084	5.44
457.441	5.41
457.797	5.52
458.154	5.23
458.51	5.48
458.867	5.47
459.223	5.53
459.58	5.35
459.936	5.48
460.292	5.39
460.648	5.32
461.005	5.45
461.361	5.39
461.717	5.17
462.073	5.41
462.429	5.35
462.785	5.39
463.141	5.46
463.496	5.39
463.852	5.69
464.208	5.51
464.564	5.69
464.919	5.44
465.275	5.7
465.631	5.64
465.986	5.63
466.342	5.62
466.697	5.61
467.052	5.52
467.408	5.58
467.763	5.41
468.118	5.85
468.473	5.57
468.829	5.44
469.184	5.48
469.539	5.56
469.894	5.45
470.249	5.46
470.603	5.5
470.958	5.61
471.313	5.63
471.668	5.69
472.023	5.81
472.377	5.71
472.732	5.53
473.086	5.64
473.441	5.65
473.795	5.8
474.15	5.39
474.504	5.48
474.859	5.55
475.213	5.64
475.567	5.68
475.921	5.68
476.275	5.64
476.63	5.74
476.984	5.73
477.338	5.59
477.692	5.47
478.045	5.58
478.399	5.48
478.753	5.59
479.107	5.67
479.461	5.57
479.814	5.76
480.168	5.63
480.521	5.63
480.875	5.56
481.228	5.63
481.582	5.74
481.935	5.54
482.289	5.55
482.642	5.57
482.995	5.52
483.348	5.57
483.701	5.54
484.055	5.49
484.408	5.42
484.761	5.45
485.114	5.25
485.466	5.24
485.819	5.17
486.172	5.11
486.525	5.18
486.878	5.26
487.23	5.33
487.583	5.34
487.936	5.36
488.288	5.41
488.641	5.44
488.993	5.35
489.345	5.35
489.698	5.24
490.05	5.28
490.402	5.29
490.754	5.31
491.107	5.29
491.459	5.49
491.811	5.49
492.163	5.45
492.515	5.45
492.866	5.54
493.218	5.38
493.57	5.27
493.922	5.24
494.274	5.36
494.625	5.37
494.977	5.37
495.328	5.48
495.68	5.55
496.031	5.53
496.383	5.66
496.734	5.64
497.086	5.66
497.437	5.58
497.788	5.51
498.139	5.69
498.49	5.54
498.842	5.51
499.193	5.66
499.544	5.53
499.894	5.62
500.245	5.55
500.596	5.56
500.947	5.54
501.298	5.63
501.648	5.6
501.999	5.7
502.35	5.5
502.7	5.82
503.051	5.71
503.401	5.62
503.752	5.72
504.102	5.63
504.452	5.68
504.803	5.57
505.153	5.65
505.503	5.7
505.853	5.8
506.203	5.58
506.553	5.54
506.903	5.64
507.253	5.66
507.603	5.59
507.953	5.76
508.303	5.63
508.652	5.73
509.002	5.65
509.352	5.74
509.701	5.64
510.051	5.65
510.4	5.64
510.75	5.55
511.099	5.57
511.449	5.65
511.798	5.62
512.147	5.62
512.496	5.58
512.846	5.58
513.195	5.6
513.544	5.65
513.893	5.54
514.242	5.62
514.591	5.55
514.939	5.43
515.288	5.59
515.637	5.64
515.986	5.68
516.334	5.59
516.683	5.64
517.032	5.59
517.38	5.56
517.729	5.77
518.077	5.6
518.426	5.76
518.774	5.53
519.122	5.58
519.47	5.52
519.819	5.56
520.167	5.53
520.515	5.49
520.863	5.57
521.211	5.55
521.559	5.65
521.907	5.52
522.255	5.58
522.602	5.67
522.95	5.55
523.298	5.58
523.645	5.76
523.993	5.62
524.341	5.62
524.688	5.69
525.036	5.77
525.383	5.52
525.73	5.7
526.078	5.75
526.425	5.61
526.772	5.5
527.119	5.68
527.466	5.64
527.814	5.61
528.161	5.54
528.508	5.46
528.854	5.54
529.201	5.49
529.548	5.55
529.895	5.44
530.242	5.38
530.588	5.28
530.935	5.28
531.282	5.34
531.628	5.38
531.975	5.38
532.321	5.44
532.667	5.47
533.014	5.62
533.36	5.59
533.706	5.56
534.052	5.5
534.399	5.53
534.745	5.41
535.091	5.42
535.437	5.45
535.783	5.47
536.129	5.49
536.474	5.54
536.82	5.56
537.166	5.46
537.512	5.61
537.857	5.56
538.203	5.56
538.549	5.58
538.894	5.42
539.239	5.47
539.585	5.56
539.93	5.63
540.276	5.61
540.621	5.67
540.966	5.73
541.311	5.75
541.656	5.65
542.001	5.69
542.346	5.57
542.691	5.5
543.036	5.46
543.381	5.35
543.726	5.34
544.071	5.43
544.415	5.41
544.76	5.52
545.105	5.51
545.449	5.46
545.794	5.48
546.138	5.58
546.483	5.47
546.827	5.55
547.171	5.65
547.516	5.6
547.86	5.71
548.204	5.55
548.548	5.64
548.892	5.65
549.236	5.55
549.58	5.44
549.924	5.59
550.268	5.57
550.612	5.63
550.956	5.85
551.3	5.62
551.643	5.67
551.987	5.8
552.33	5.7
552.674	5.67
553.017	5.61
553.361	5.68
553.704	5.98
554.048	5.65
554.391	5.65
554.734	5.74
555.077	5.71
555.42	5.57
555.764	5.58
556.107	5.84
556.45	5.74
556.793	5.67
557.135	5.66
557.478	5.62
557.821	5.84
558.164	5.77
558.507	5.92
558.849	5.92
559.192	5.79
559.534	5.94
559.877	5.54
560.219	5.72
560.562	5.83
560.904	5.59
561.246	5.7
561.589	5.52
561.931	5.94
562.273	6.01
562.615	5.85
562.957	5.86
563.299	5.66
563.641	5.66
563.983	5.65
564.325	5.84
564.667	5.87
565.008	5.75
565.35	5.7
565.692	5.84
566.033	5.95
566.375	5.83
566.716	5.92
567.058	5.76
567.399	5.84
567.741	5.56
568.082	5.68
568.423	5.79
568.764	5.54
569.105	5.69
569.447	5.68
569.788	5.73
570.129	5.64
570.47	5.76
570.811	5.78
571.151	5.55
571.492	5.75
571.833	5.84
572.174	5.84
572.514	5.89
572.855	5.74
573.195	5.74
573.536	5.65
573.876	5.86
574.217	5.57
574.557	5.55
574.898	5.56
575.238	5.6
575.578	5.72
575.918	5.53
576.258	5.69
576.598	5.67
576.938	5.82
577.278	5.75
577.618	5.49
577.958	5.68
578.298	5.73
578.638	5.79
578.977	5.79
579.317	5.84
579.657	5.66
579.996	5.79
580.336	5.67
580.675	5.65
581.014	5.72
581.354	5.87
581.693	5.95
582.032	5.68
582.372	5.86
582.711	5.8
583.05	5.93
583.389	5.82
583.728	5.67
584.067	5.8
584.406	5.76
584.745	5.73
585.083	5.85
585.422	5.76
585.761	5.87
586.1	5.92
586.438	5.43
586.777	5.76
587.115	5.96
587.454	5.7
587.792	5.64
588.13	5.84
588.469	6.01
588.807	5.67
589.145	5.55
589.483	5.78
589.821	5.76
590.159	5.98
590.497	5.91
590.835	5.75
591.173	5.75
591.511	6.01
591.849	5.58
592.187	5.91
592.524	5.37
592.862	5.68
593.2	5.61
593.537	5.73
593.875	5.64
594.212	6.05
594.55	5.83
594.887	5.64
595.224	5.73
595.561	5.67
595.899	5.73
596.236	5.87
596.573	5.81
596.91	5.71
597.247	5.62
597.584	5.32
597.921	5.7
598.258	5.62
598.594	5.85
598.931	5.36
599.268	5.49
599.604	5.6
599.941	5.54
600.277	5.57
600.614	5.86
600.95	5.86
601.287	5.43
601.623	5.9
601.959	5.84
602.296	5.64
602.632	5.69
602.968	5.59
603.304	5.76
603.64	5.47
603.976	5.66
604.312	5.93
604.648	5.84
604.984	5.66
605.319	5.64
605.655	5.68
605.991	5.69
606.326	5.63
606.662	5.43
606.998	5.44
607.333	5.61
607.668	5.54
608.004	5.67
608.339	5.72
608.674	6.01
609.01	5.75
609.345	6.09
609.68	5.9
610.015	5.56
610.35	5.84
610.685	5.75
611.02	5.51
611.355	5.62
611.689	5.72
612.024	5.88
612.359	5.81
612.694	5.65
613.028	5.67
613.363	5.71
613.697	5.72
614.032	5.81
614.366	5.91
614.7	5.53
615.035	5.83
615.369	5.67
615.703	5.42
616.037	6
616.371	5.71
616.705	5.68
617.039	5.79
617.373	5.71
617.707	5.75
618.041	5.96
618.375	5.49
618.709	5.65
619.042	5.63
619.376	6.08
619.71	6.1
620.043	6.04
620.377	5.51
620.71	5.68
621.043	5.9
621.377	5.85
621.71	5.64
622.043	5.42
622.376	5.95
622.709	5.73
623.043	5.81
623.376	5.61
623.709	5.55
624.041	5.73
624.374	5.49
624.707	5.76
625.04	5.58
625.373	6.12
625.705	5.84
626.038	5.98
626.37	5.67
626.703	5.62
627.035	5.45
627.368	5.83
627.7	5.84
628.032	5.86
628.365	5.94
628.697	5.6
629.029	5.82
629.361	5.8
629.693	5.58
630.025	5.77
630.357	5.71
630.689	6.14
631.021	5.78
631.353	5.88
631.684	5.87
632.016	6.05
632.348	5.75
632.679	5.54
633.011	5.92
633.342	5.39
633.674	5.69
634.005	6.06
634.336	6.04
634.668	5.74
634.999	5.68
635.33	5.57
635.661	6.09
635.992	6.18
636.323	6.08
636.654	5.92
636.985	5.6
637.316	5.7
637.647	5.64
637.977	5.56
638.308	5.73
638.639	5.77
638.969	5.88
639.3	5.26
639.63	5.91
639.961	5.51
640.291	5.8
640.622	6.07
640.952	5.8
641.282	5.7
641.612	5.8
641.943	6.01
642.273	5.81
642.603	6.22
642.933	5.97
643.263	6.16
643.592	5.7
643.922	5.94
644.252	5.63
644.582	5.79
644.911	5.8
645.241	5.9
645.571	6.32
645.9	5.61
646.23	6.01
646.559	5.67
646.888	6.06
647.218	5.97
647.547	6.06
647.876	5.89
648.205	5.85
648.534	5.98
648.863	5.91
649.192	5.66
649.521	5.42
649.85	5.76
650.179	5.91
650.508	5.43
650.837	5.79
651.165	5.69
651.494	5.3
651.822	5.92
652.151	5.84
652.479	5.81
652.808	5.69
653.136	5.62
653.465	6.25
653.793	5.87
654.121	5.95
654.449	6.11
654.777	5.43
655.105	5.89
655.433	6.06
655.761	6.37
656.089	6.05
656.417	6.13
656.745	5.76
657.073	5.96
657.4	6.5
657.728	5.9
658.056	5.65
658.383	6.03
658.711	5.24
659.038	5.99
659.365	6.06
659.693	5.68
660.02	6.08
660.347	5.83
660.674	5.5
661.001	5.43
661.329	6.22
661.656	5.89
661.982	5.75
662.309	5.88
662.636	6.05
662.963	5.9
663.29	5.5
663.616	5.94
663.943	5.59
664.27	6.24
664.596	5.77
664.923	5.89
665.249	6.01
665.576	5.32
665.902	5.46
666.228	6.07
666.554	5.84
666.881	5.69
667.207	6.34
667.533	5.76
667.859	6.47
668.185	5.84
668.511	6.54
668.837	6
669.162	6.11
669.488	5.7
669.814	5.48
670.139	6.2
670.465	5.99
670.791	6.23
671.116	5.88
671.442	5.57
671.767	6.21
672.092	6.27
672.418	6.01
672.743	5.74
673.068	6.23
673.393	6.38
673.718	5.79
674.043	6.41
674.368	6.27
674.693	6.54
675.018	6.8
675.343	5.7
675.667	6.02
675.992	5.7
676.317	6.41
676.641	5.97
676.966	6.18
677.29	5.99
677.615	6.57
677.939	6.07
678.264	6.01
678.588	5.01
678.912	6.34
679.236	6.1
679.56	6.26
679.885	6.32
680.209	6.1
680.532	5.93
680.856	6.1
681.18	6.04
681.504	6.23
681.828	6.32
682.152	6.08
682.475	5.44
682.799	5.99
683.122	6.05
683.446	5.79
683.769	6.05
684.093	6.59
684.416	5.72
684.739	5.8
685.062	5.86
685.386	5.56
685.709	6.26
686.032	5.43
686.355	6.5
686.678	6.25
687.001	6.72
687.324	6.33
687.646	6.28
687.969	6.33
688.292	6.25
688.614	5.89
688.937	6.4
689.26	6.14
689.582	5.68
689.904	5.23
690.227	6.6
690.549	6.18
690.871	6.4
691.194	6.46
691.516	6.03
691.838	6.63
692.16	5.63
692.482	6.28
692.804	6.46
