Data from 0366_crown_Reflection__0__314.txt Node

Date: Fri Oct 20 23:10:46 CDT 2023
User: ToomeyLab
Spectrometer: FLMS14357
Trigger mode: 0
Integration Time (sec): 1.000000E-2
Scans to average: 100
Electric dark correction enabled: true
Nonlinearity correction enabled: false
Boxcar width: 0
XAxis mode: Wavelengths
Number of Pixels in Spectrum: 2048
>>>>>Begin Spectral Data<<<<<
189.047	68.94
189.435	68.94
189.823	68.94
190.211	56.76
190.599	-253.77
190.987	145.11
191.375	-71.13
191.763	153.64
192.151	-25.29
192.538	227.24
192.926	132.5
193.314	56.6
193.702	209.94
194.089	96.06
194.477	513.35
194.864	8.12
195.252	-1440.2
195.639	340.92
196.027	34.05
196.414	41.38
196.801	120.01
197.189	4.63
197.576	66.55
197.963	-422.74
198.351	33.53
198.738	27.74
199.125	38.02
199.512	-12.62
199.899	44.05
200.286	-14.83
200.673	26.27
201.06	19.73
201.447	30.41
201.833	21.17
202.22	37.75
202.607	46.09
202.994	56.32
203.38	9.01
203.767	6.69
204.154	37.21
204.54	36.72
204.927	13.34
205.313	23.18
205.699	42.55
206.086	6.83
206.472	39.48
206.858	53.89
207.245	-9.85
207.631	20.23
208.017	8.91
208.403	3.95
208.789	47.89
209.175	-32.26
209.561	15.46
209.947	-11.72
210.333	-7.87
210.719	13.74
211.105	4.61
211.491	0.6
211.876	-14.43
212.262	-4.16
212.648	-0.62
213.034	7.06
213.419	7.2
213.805	-11.34
214.19	-16.19
214.576	-3.75
214.961	14.69
215.346	24.87
215.732	14.62
216.117	-46.44
216.502	7.41
216.888	2.01
217.273	-9.96
217.658	-5.21
218.043	15.91
218.428	42.2
218.813	-5.12
219.198	-7.82
219.583	-32.04
219.968	-12.28
220.353	31.48
220.738	-9.2
221.122	4.47
221.507	23.12
221.892	-6.24
222.276	12.29
222.661	8.71
223.046	4.25
223.43	14.33
223.815	13.03
224.199	14.15
224.583	-1.85
224.968	2.98
225.352	2.62
225.736	10.67
226.121	11.31
226.505	-3.23
226.889	6.31
227.273	0.1
227.657	5.68
228.041	6.93
228.425	4.95
228.809	4.47
229.193	2.38
229.577	5.18
229.961	3.28
230.344	4.28
230.728	4.03
231.112	4.02
231.495	4.28
231.879	3.64
232.263	5.22
232.646	3.46
233.03	2.73
233.413	3.17
233.797	3.68
234.18	5.18
234.563	8.05
234.946	5.85
235.33	5.27
235.713	3.89
236.096	6.04
236.479	4.48
236.862	5.03
237.245	3
237.628	4.15
238.011	4.01
238.394	5.05
238.777	5.77
239.16	3.9
239.543	6.73
239.925	5.71
240.308	3.43
240.691	3.96
241.073	6.18
241.456	4.23
241.838	3.97
242.221	4.69
242.603	3.85
242.986	4.36
243.368	4.17
243.75	3.62
244.133	3.67
244.515	4.09
244.897	4
245.279	4.3
245.661	4.15
246.043	4.07
246.425	3.26
246.807	4.02
247.189	4.2
247.571	3.56
247.953	3.9
248.335	4.26
248.717	3.62
249.098	3.75
249.48	3.57
249.862	3.77
250.243	4.07
250.625	4.01
251.006	4
251.388	4.19
251.769	4.1
252.151	4.57
252.532	3.76
252.913	3.3
253.295	3.38
253.676	4.05
254.057	3.28
254.438	3.78
254.819	4.02
255.2	3.4
255.581	3.32
255.962	3.24
256.343	4.12
256.724	2.54
257.105	4.02
257.486	2.92
257.867	3.95
258.247	3.15
258.628	3.63
259.009	3.46
259.389	2.75
259.77	3.54
260.15	3.5
260.531	3.98
260.911	3.49
261.292	3.37
261.672	3.66
262.052	3.72
262.432	3.54
262.813	3.58
263.193	3.92
263.573	4.02
263.953	3.21
264.333	3.3
264.713	3.23
265.093	3.43
265.473	3.96
265.853	2.92
266.233	3.83
266.612	3.15
266.992	3.87
267.372	3.02
267.752	2.85
268.131	3.67
268.511	3.72
268.89	3.65
269.27	3.3
269.649	3.17
270.029	3.49
270.408	3.54
270.787	3.58
271.167	3.11
271.546	3.81
271.925	3.95
272.304	4.12
272.683	3.4
273.062	3.76
273.441	2.93
273.82	3.65
274.199	3.43
274.578	3.81
274.957	3.59
275.336	3.8
275.715	3.56
276.093	3.53
276.472	3.37
276.851	3.43
277.229	3.79
277.608	3.13
277.986	3.01
278.365	4.09
278.743	3.17
279.122	2.74
279.5	3.38
279.878	3.25
280.257	3.31
280.635	3.35
281.013	3.94
281.391	3.27
281.769	3.16
282.147	3.41
282.525	3.19
282.903	3.17
283.281	3.56
283.659	2.99
284.037	3.24
284.415	2.65
284.792	3.05
285.17	3.25
285.548	2.91
285.925	2.67
286.303	2.83
286.68	3.18
287.058	3.28
287.435	3.28
287.813	2.66
288.19	2.98
288.567	3.05
288.945	3.47
289.322	3.3
289.699	2.75
290.076	3.76
290.453	3.42
290.83	2.94
291.207	3.84
291.584	3.06
291.961	3.57
292.338	3.33
292.715	3.2
293.092	3.14
293.469	3.23
293.845	2.87
294.222	3
294.599	3.47
294.975	3.98
295.352	3.12
295.728	3.2
296.105	3.02
296.481	3.46
296.858	2.93
297.234	3.37
297.61	2.55
297.986	2.94
298.363	3.17
298.739	3.01
299.115	2.94
299.491	3.24
299.867	3.23
300.243	3.28
300.619	3.16
300.995	3.02
301.371	3.15
301.746	2.93
302.122	3.48
302.498	2.95
302.874	3.23
303.249	3.06
303.625	3.17
304	3.49
304.376	2.7
304.751	2.63
305.127	3.02
305.502	3.44
305.878	3.22
306.253	3.18
306.628	2.93
307.003	3.12
307.378	3.16
307.754	2.8
308.129	3.68
308.504	3.28
308.879	3.52
309.254	3.54
309.629	2.86
310.003	2.63
310.378	3.28
310.753	3.42
311.128	3.13
311.502	3.38
311.877	2.7
312.252	3.04
312.626	3.24
313.001	3.2
313.375	2.8
313.75	3.23
314.124	2.56
314.498	3.29
314.873	2.5
315.247	2.87
315.621	2.94
315.995	3.02
316.369	3.04
316.743	3.22
317.117	3.57
317.491	2.4
317.865	3.26
318.239	3.11
318.613	3.22
318.987	2.67
319.361	2.52
319.734	2.56
320.108	2.24
320.482	3.32
320.855	3.37
321.229	3.95
321.602	3.5
321.976	2.58
322.349	3.67
322.723	2.85
323.096	3.3
323.469	2.85
323.843	3.34
324.216	2.8
324.589	3.01
324.962	3.1
325.335	3.22
325.708	2.98
326.081	3.36
326.454	3.45
326.827	3.24
327.2	3.34
327.573	3.16
327.945	3.43
328.318	3.12
328.691	3.16
329.063	3.57
329.436	2.67
329.809	3.48
330.181	3.35
330.553	3.49
330.926	3.11
331.298	3.05
331.671	2.9
332.043	2.89
332.415	2.52
332.787	2.98
333.159	2.76
333.532	3.12
333.904	3.67
334.276	2.91
334.648	3.27
335.02	3.36
335.391	2.82
335.763	3.39
336.135	3.34
336.507	2.75
336.879	3.27
337.25	3.32
337.622	3.57
337.993	3.27
338.365	3.39
338.736	2.86
339.108	3.08
339.479	2.94
339.851	3.51
340.222	2.76
340.593	2.71
340.964	3.1
341.336	3.45
341.707	2.87
342.078	3.11
342.449	3.05
342.82	2.64
343.191	3.07
343.562	3.23
343.933	3.18
344.303	3.18
344.674	3.08
345.045	3.73
345.416	3.23
345.786	3.04
346.157	3.47
346.527	3.25
346.898	2.87
347.268	3.25
347.639	3.55
348.009	2.76
348.38	3.61
348.75	2.97
349.12	3.22
349.49	3.18
349.861	3.36
350.231	3.33
350.601	3.47
350.971	3.61
351.341	3.27
351.711	4.07
352.081	3.31
352.45	3.36
352.82	3.49
353.19	3.31
353.56	3.56
353.929	3.1
354.299	3.13
354.669	3.01
355.038	3.67
355.408	3.23
355.777	3.42
356.147	3.19
356.516	3.16
356.885	3.75
357.254	3.61
357.624	3.23
357.993	3.04
358.362	3.13
358.731	2.92
359.1	3.09
359.469	3.3
359.838	3.43
360.207	3.56
360.576	3.63
360.945	2.95
361.314	3.12
361.682	3.11
362.051	3.24
362.42	2.99
362.788	3.42
363.157	3.3
363.525	3.17
363.894	3.08
364.262	3.16
364.631	3.34
364.999	3.12
365.367	3.42
365.735	3.31
366.104	3.32
366.472	3.32
366.84	3.55
367.208	3.56
367.576	3.31
367.944	3.63
368.312	3.18
368.68	3.73
369.048	3.47
369.416	3.55
369.783	3.6
370.151	3.47
370.519	3.13
370.886	3.42
371.254	3.37
371.621	3.25
371.989	3.25
372.356	3.67
372.724	3.79
373.091	3.42
373.458	3.12
373.826	3.56
374.193	3.3
374.56	3.32
374.927	3.19
375.294	3.37
375.661	3.63
376.028	3.55
376.395	3.55
376.762	3.39
377.129	3.51
377.496	3.72
377.863	4.11
378.229	3.77
378.596	3.53
378.963	3.6
379.329	3.59
379.696	3.67
380.062	3.65
380.429	3.34
380.795	3.27
381.161	3.81
381.528	3.76
381.894	3.47
382.26	3.83
382.626	3.71
382.993	3.67
383.359	3.85
383.725	3.55
384.091	3.5
384.457	3.7
384.823	3.67
385.188	3.93
385.554	3.78
385.92	3.46
386.286	3.95
386.651	3.31
387.017	3.54
387.383	3.53
387.748	3.74
388.114	3.37
388.479	3.51
388.845	3.64
389.21	3.64
389.575	3.47
389.94	3.43
390.306	3.5
390.671	3.39
391.036	3.67
391.401	3.56
391.766	3.52
392.131	3.58
392.496	3.78
392.861	3.64
393.226	3.6
393.591	3.64
393.956	3.67
394.32	3.72
394.685	3.71
395.05	3.59
395.414	4.03
395.779	3.3
396.143	3.51
396.508	3.65
396.872	3.64
397.236	3.49
397.601	3.7
397.965	3.3
398.329	3.35
398.694	3.45
399.058	3.31
399.422	3.58
399.786	3.48
400.15	3.53
400.514	3.57
400.878	3.67
401.242	3.62
401.605	3.82
401.969	3.7
402.333	3.49
402.697	3.72
403.06	3.36
403.424	3.69
403.787	3.64
404.151	3.61
404.514	3.82
404.878	3.81
405.241	3.77
405.604	3.51
405.968	3.83
406.331	3.68
406.694	3.76
407.057	3.61
407.42	3.98
407.783	3.68
408.146	3.73
408.509	3.75
408.872	3.91
409.235	3.7
409.598	3.81
409.961	3.8
410.323	3.78
410.686	3.54
411.049	3.99
411.411	3.57
411.774	3.82
412.136	3.68
412.499	3.75
412.861	3.8
413.223	3.77
413.586	3.9
413.948	3.86
414.31	4.16
414.672	3.78
415.035	3.53
415.397	3.93
415.759	3.76
416.121	3.7
416.483	3.78
416.845	3.69
417.206	3.72
417.568	3.8
417.93	3.74
418.292	3.54
418.653	3.89
419.015	3.8
419.377	3.63
419.738	3.72
420.1	3.47
420.461	3.67
420.822	3.72
421.184	3.65
421.545	3.69
421.906	3.76
422.267	3.61
422.629	3.77
422.99	3.5
423.351	3.69
423.712	3.54
424.073	3.69
424.434	3.6
424.795	3.73
425.155	3.76
425.516	3.53
425.877	3.75
426.238	3.57
426.598	3.62
426.959	3.54
427.32	3.56
427.68	3.69
428.041	3.65
428.401	3.7
428.761	3.78
429.122	3.66
429.482	3.75
429.842	3.83
430.202	3.79
430.563	3.78
430.923	3.84
431.283	3.75
431.643	3.99
432.003	4.05
432.363	3.88
432.722	3.83
433.082	3.72
433.442	3.68
433.802	4
434.161	3.65
434.521	3.8
434.881	3.83
435.24	3.74
435.6	3.85
435.959	3.7
436.319	3.73
436.678	3.84
437.037	3.68
437.396	3.9
437.756	3.87
438.115	3.7
438.474	3.77
438.833	3.85
439.192	3.55
439.551	3.66
439.91	3.8
440.269	3.89
440.628	3.86
440.987	3.85
441.345	3.74
441.704	3.77
442.063	3.72
442.421	3.64
442.78	3.75
443.138	3.78
443.497	3.8
443.855	3.73
444.214	3.79
444.572	3.8
444.93	3.94
445.288	3.78
445.647	4.08
446.005	3.62
446.363	3.7
446.721	3.83
447.079	3.93
447.437	3.69
447.795	3.77
448.153	3.73
448.51	3.81
448.868	3.69
449.226	3.78
449.584	3.66
449.941	3.78
450.299	3.73
450.656	3.73
451.014	3.82
451.371	3.89
451.729	3.7
452.086	3.86
452.443	3.88
452.801	3.75
453.158	3.95
453.515	3.73
453.872	3.86
454.229	4.1
454.586	3.82
454.943	3.82
455.3	3.7
455.657	3.81
456.014	3.84
456.371	3.85
456.727	4
457.084	3.93
457.441	3.9
457.797	3.89
458.154	3.96
458.51	3.8
458.867	3.96
459.223	3.82
459.58	3.83
459.936	3.85
460.292	3.82
460.648	3.68
461.005	3.64
461.361	3.78
461.717	3.69
462.073	3.77
462.429	3.76
462.785	3.75
463.141	3.95
463.496	3.86
463.852	3.94
464.208	3.91
464.564	4.01
464.919	3.91
465.275	4.04
465.631	4.08
465.986	3.92
466.342	3.88
466.697	3.74
467.052	3.83
467.408	3.91
467.763	4
468.118	4.07
468.473	4.01
468.829	3.9
469.184	3.85
469.539	4.05
469.894	3.81
470.249	3.76
470.603	3.71
470.958	3.99
471.313	4
471.668	3.99
472.023	4.05
472.377	4.04
472.732	3.89
473.086	4.03
473.441	3.92
473.795	4.04
474.15	3.86
474.504	3.81
474.859	3.96
475.213	4.04
475.567	4.05
475.921	3.98
476.275	3.79
476.63	4.13
476.984	3.89
477.338	3.9
477.692	3.92
478.045	3.78
478.399	4.01
478.753	4.03
479.107	3.96
479.461	4
479.814	3.88
480.168	3.95
480.521	3.96
480.875	3.83
481.228	4.04
481.582	3.95
481.935	3.83
482.289	3.87
482.642	3.84
482.995	3.94
483.348	3.96
483.701	3.84
484.055	3.87
484.408	3.79
484.761	3.75
485.114	3.67
485.466	3.66
485.819	3.6
486.172	3.5
486.525	3.58
486.878	3.67
487.23	3.69
487.583	3.72
487.936	3.83
488.288	3.76
488.641	3.81
488.993	3.7
489.345	3.66
489.698	3.62
490.05	3.63
490.402	3.62
490.754	3.68
491.107	3.71
491.459	3.78
491.811	3.8
492.163	3.75
492.515	3.89
492.866	3.87
493.218	3.65
493.57	3.71
493.922	3.66
494.274	3.7
494.625	3.77
494.977	3.81
495.328	3.88
495.68	3.86
496.031	3.83
496.383	3.88
496.734	3.96
497.086	3.86
497.437	4.05
497.788	3.81
498.139	4.09
498.49	3.9
498.842	3.79
499.193	3.82
499.544	3.84
499.894	3.85
500.245	3.82
500.596	3.94
500.947	3.93
501.298	3.81
501.648	3.94
501.999	3.83
502.35	4
502.7	4.04
503.051	3.91
503.401	3.88
503.752	4.03
504.102	4.01
504.452	3.88
504.803	3.86
505.153	4.01
505.503	3.94
505.853	4.05
506.203	3.89
506.553	3.85
506.903	3.93
507.253	3.85
507.603	3.97
507.953	3.91
508.303	3.91
508.652	4.04
509.002	3.9
509.352	4.14
509.701	3.93
510.051	3.9
510.4	3.95
510.75	3.79
511.099	3.85
511.449	3.94
511.798	3.96
512.147	3.93
512.496	3.9
512.846	3.85
513.195	3.95
513.544	3.85
513.893	3.78
514.242	3.91
514.591	3.86
514.939	3.83
515.288	3.85
515.637	3.87
515.986	4.01
516.334	3.84
516.683	3.94
517.032	3.76
517.38	3.77
517.729	3.93
518.077	3.84
518.426	3.98
518.774	3.81
519.122	4
519.47	3.86
519.819	3.82
520.167	3.93
520.515	3.75
520.863	3.88
521.211	3.82
521.559	3.89
521.907	3.88
522.255	3.88
522.602	4
522.95	3.87
523.298	3.87
523.645	3.92
523.993	3.9
524.341	3.91
524.688	3.99
525.036	4.02
525.383	3.76
525.73	4.02
526.078	3.95
526.425	3.99
526.772	3.84
527.119	3.85
527.466	3.89
527.814	3.9
528.161	3.79
528.508	3.79
528.854	3.78
529.201	3.79
529.548	3.86
529.895	3.72
530.242	3.7
530.588	3.59
530.935	3.61
531.282	3.66
531.628	3.73
531.975	3.72
532.321	3.74
532.667	3.76
533.014	3.86
533.36	3.84
533.706	3.94
534.052	3.92
534.399	3.79
534.745	3.65
535.091	3.77
535.437	3.72
535.783	3.7
536.129	3.8
536.474	3.87
536.82	3.87
537.166	3.88
537.512	3.86
537.857	3.93
538.203	3.88
538.549	3.9
538.894	3.73
539.239	3.76
539.585	3.76
539.93	3.93
540.276	3.9
540.621	3.96
540.966	3.86
541.311	4.05
541.656	4.04
542.001	3.91
542.346	3.99
542.691	3.84
543.036	3.78
543.381	3.69
543.726	3.67
544.071	3.7
544.415	3.81
544.76	3.76
545.105	3.81
545.449	3.79
545.794	3.91
546.138	3.7
546.483	3.83
546.827	3.79
547.171	4.02
547.516	3.81
547.86	3.87
548.204	3.84
548.548	3.89
548.892	3.81
549.236	3.86
549.58	3.86
549.924	3.8
550.268	3.89
550.612	3.95
550.956	4.18
551.3	3.95
551.643	3.98
551.987	4.03
552.33	3.98
552.674	3.86
553.017	3.96
553.361	4.03
553.704	4.13
554.048	4
554.391	4.04
554.734	4
555.077	3.91
555.42	3.85
555.764	3.91
556.107	4.09
556.45	3.94
556.793	3.86
557.135	3.91
557.478	3.9
557.821	3.95
558.164	4.03
558.507	4.1
558.849	4.23
559.192	4.14
559.534	4.17
559.877	3.87
560.219	4.03
560.562	4.01
560.904	3.94
561.246	3.99
561.589	3.84
561.931	4.09
562.273	4.15
562.615	4.06
562.957	3.99
563.299	3.94
563.641	3.99
563.983	3.97
564.325	3.88
564.667	4.1
565.008	3.92
565.35	3.97
565.692	3.93
566.033	4.16
566.375	4.08
566.716	4.01
567.058	3.91
567.399	4.16
567.741	3.9
568.082	4
568.423	3.96
568.764	3.92
569.105	4.08
569.447	3.81
569.788	4.04
570.129	4.08
570.47	4.04
570.811	4.2
571.151	3.94
571.492	4.01
571.833	4.27
572.174	4.05
572.514	4.01
572.855	3.96
573.195	4.01
573.536	3.88
573.876	4.01
574.217	3.93
574.557	3.92
574.898	3.77
575.238	3.89
575.578	3.91
575.918	3.86
576.258	4.06
576.598	4.09
576.938	4.06
577.278	4.06
577.618	3.83
577.958	3.97
578.298	3.9
578.638	3.83
578.977	4.02
579.317	3.99
579.657	3.99
579.996	4.1
580.336	4.15
580.675	3.87
581.014	4.1
581.354	3.88
581.693	3.97
582.032	3.99
582.372	4.2
582.711	4.17
583.05	4.2
583.389	3.95
583.728	3.88
584.067	4.09
584.406	3.99
584.745	4.2
585.083	3.83
585.422	4
585.761	3.97
586.1	4.06
586.438	3.9
586.777	4.06
587.115	4.21
587.454	4.1
587.792	4.03
588.13	4.21
588.469	3.95
588.807	3.57
589.145	4.16
589.483	3.99
589.821	3.87
590.159	4.13
590.497	4.07
590.835	4.19
591.173	4.09
591.511	4.26
591.849	3.84
592.187	3.92
592.524	3.81
592.862	3.91
593.2	4.02
593.537	3.87
593.875	3.84
594.212	4.15
594.55	4.13
594.887	4.28
595.224	4
595.561	3.83
595.899	4.15
596.236	3.97
596.573	4.24
596.91	4.32
597.247	4.16
597.584	3.88
597.921	4.25
598.258	4.22
598.594	4.21
598.931	3.91
599.268	4
599.604	3.89
599.941	4.04
600.277	4.05
600.614	4.08
600.95	3.92
601.287	4.09
601.623	3.94
601.959	4.06
602.296	3.95
602.632	4.01
602.968	3.73
603.304	4.14
603.64	4.01
603.976	4.02
604.312	4.12
604.648	4.31
604.984	4.19
605.319	3.91
605.655	3.83
605.991	3.93
606.326	3.94
606.662	3.94
606.998	3.76
607.333	3.93
607.668	3.94
608.004	4.03
608.339	3.67
608.674	4.14
609.01	3.97
609.345	4.33
609.68	4.05
610.015	3.88
610.35	4.27
610.685	4.08
611.02	4.02
611.355	4.09
611.689	3.84
612.024	3.98
612.359	3.87
612.694	3.87
613.028	4.1
613.363	3.82
613.697	4.03
614.032	4.11
614.366	3.99
614.7	4.14
615.035	3.96
615.369	4.11
615.703	3.91
616.037	4.26
616.371	4.02
616.705	4.39
617.039	4.19
617.373	3.96
617.707	4.18
618.041	4.06
618.375	3.96
618.709	4.35
619.042	3.93
619.376	4.35
619.71	4.26
620.043	4.27
620.377	3.74
620.71	4.3
621.043	4.05
621.377	4.01
621.71	4.2
622.043	3.88
622.376	4.33
622.709	4.29
623.043	3.82
623.376	4.04
623.709	3.89
624.041	3.73
624.374	4.3
624.707	3.86
625.04	4.28
625.373	4.57
625.705	3.79
626.038	4.34
626.37	4.11
626.703	3.95
627.035	4.01
627.368	3.97
627.7	4.1
628.032	4.22
628.365	4.13
628.697	4.4
629.029	4.02
629.361	4.05
629.693	3.94
630.025	3.88
630.357	4.01
630.689	3.86
631.021	4.5
631.353	3.99
631.684	4.1
632.016	4.46
632.348	4.16
632.679	4.08
633.011	4.35
633.342	3.83
633.674	4.03
634.005	4.21
634.336	4.48
634.668	4.05
634.999	4.03
635.33	3.75
635.661	4.47
635.992	4.43
636.323	4.37
636.654	4.37
636.985	4.07
637.316	4.07
637.647	4.15
637.977	3.84
638.308	4.4
638.639	4.35
638.969	4.15
639.3	3.92
639.63	4.24
639.961	3.87
640.291	4.1
640.622	4.08
640.952	4.14
641.282	4.19
641.612	4.28
641.943	4.32
642.273	3.9
642.603	4.16
642.933	4.02
643.263	4.68
643.592	3.65
643.922	4.69
644.252	3.84
644.582	4.25
644.911	4.23
645.241	3.97
645.571	4.88
645.9	4.05
646.23	3.93
646.559	3.96
646.888	4.21
647.218	4.03
647.547	4.09
647.876	4.27
648.205	4.21
648.534	4.11
648.863	3.93
649.192	4.11
649.521	3.93
649.85	4.02
650.179	4.23
650.508	3.82
650.837	4.32
651.165	4.49
651.494	3.77
651.822	4.14
652.151	4.21
652.479	4.18
652.808	4.56
653.136	4
653.465	4.51
653.793	4.22
654.121	4.19
654.449	4.29
654.777	4.32
655.105	3.76
655.433	4.58
655.761	4.35
656.089	4.55
656.417	4.61
656.745	4.15
657.073	4.32
657.4	5.04
657.728	4.43
658.056	4.09
658.383	3.97
658.711	3.71
659.038	4.47
659.365	4.05
659.693	4.03
660.02	4.33
660.347	4.11
660.674	4.03
661.001	3.98
661.329	4.02
661.656	4.27
661.982	4.22
662.309	4.26
662.636	4.42
662.963	4.21
663.29	4.5
663.616	4.72
663.943	3.94
664.27	4.11
664.596	4.14
664.923	4
665.249	4.05
665.576	3.99
665.902	4.54
666.228	4.14
666.554	4.31
666.881	3.99
667.207	4.32
667.533	4.27
667.859	4.16
668.185	4.36
668.511	5.04
668.837	4.26
669.162	4.89
669.488	4.19
669.814	3.82
670.139	4.54
670.465	4.15
670.791	4.78
671.116	4.08
671.442	4.12
671.767	4.24
672.092	4.22
672.418	4.12
672.743	3.77
673.068	4.69
673.393	4.31
673.718	4.36
674.043	4.38
674.368	4.15
674.693	4.36
675.018	4.69
675.343	4.6
675.667	4.32
675.992	4.53
676.317	4.65
676.641	4.4
676.966	4.74
677.29	3.94
677.615	4.49
677.939	3.72
678.264	4.58
678.588	3.36
678.912	4.71
679.236	4.26
679.56	4.56
679.885	4.64
680.209	4.48
680.532	4
680.856	4.15
681.18	4.2
681.504	4.22
681.828	4.76
682.152	4.3
682.475	4.3
682.799	3.93
683.122	4.68
683.446	4.37
683.769	4.36
684.093	4.98
684.416	3.79
684.739	3.67
685.062	3.6
685.386	3.78
685.709	4.65
686.032	3.95
686.355	4.95
686.678	4.58
687.001	4.56
687.324	3.74
687.646	4.32
687.969	5.2
688.292	5.05
688.614	4.25
688.937	3.98
689.26	4.12
689.582	4
689.904	4.01
690.227	4.97
690.549	4.85
690.871	4.54
691.194	4.38
691.516	4.22
691.838	5.65
692.16	3.89
692.482	4.54
692.804	4.37
693.126	3.71
693.448	5.01
