Data from 0366_forehead_Reflection__1__320.txt Node

Date: Fri Oct 20 23:12:46 CDT 2023
User: ToomeyLab
Spectrometer: FLMS14357
Trigger mode: 0
Integration Time (sec): 1.000000E-2
Scans to average: 100
Electric dark correction enabled: true
Nonlinearity correction enabled: false
Boxcar width: 0
XAxis mode: Wavelengths
Number of Pixels in Spectrum: 2048
>>>>>Begin Spectral Data<<<<<
189.047	356.78
189.435	356.78
189.823	356.78
190.211	250.08
190.599	-325.22
190.987	114.6
191.375	-72.84
191.763	103.21
192.151	-621.51
192.538	-154.47
192.926	1019
193.314	77.1
193.702	286.26
194.089	102.9
194.477	710.59
194.864	182.35
195.252	-446.62
195.639	155.14
196.027	52.39
196.414	53.63
196.801	97.31
197.189	104.76
197.576	-70.12
197.963	-644.88
198.351	34.58
198.738	21.06
199.125	47.05
199.512	77.33
199.899	25.33
200.286	38.66
200.673	28.97
201.06	73.9
201.447	47.82
201.833	30.28
202.22	78.21
202.607	90.92
202.994	49.01
203.38	15.1
203.767	69.02
204.154	71.63
204.54	78.47
204.927	35.38
205.313	46.55
205.699	58.88
206.086	58.29
206.472	54.58
206.858	57.49
207.245	38.79
207.631	40.61
208.017	38.98
208.403	8.55
208.789	39.78
209.175	60.3
209.561	29.45
209.947	18.24
210.333	68.04
210.719	34.73
211.105	31.43
211.491	57.51
211.876	50.67
212.262	51.56
212.648	29.3
213.034	12.26
213.419	60.67
213.805	16.01
214.19	12.56
214.576	27.11
214.961	26.45
215.346	44.3
215.732	25.08
216.117	-8.04
216.502	33.28
216.888	21.38
217.273	5.26
217.658	45.81
218.043	16.85
218.428	36.11
218.813	34.9
219.198	23.14
219.583	-47.71
219.968	20.23
220.353	43.11
220.738	15.47
221.122	5.36
221.507	59.32
221.892	24.96
222.276	16.86
222.661	27.35
223.046	9.86
223.43	18.08
223.815	21.79
224.199	28.06
224.583	10.49
224.968	5.47
225.352	16.72
225.736	10.66
226.121	8.3
226.505	6.92
226.889	1.91
227.273	15.7
227.657	15.73
228.041	13.46
228.425	8.56
228.809	8.2
229.193	8.93
229.577	9.64
229.961	6.88
230.344	6.84
230.728	6.18
231.112	7.79
231.495	6.35
231.879	6.72
232.263	9.22
232.646	7.24
233.03	7.46
233.413	5.85
233.797	7.11
234.18	8.7
234.563	9.89
234.946	11.03
235.33	10.6
235.713	8.27
236.096	8.22
236.479	7.2
236.862	8.18
237.245	5.65
237.628	6.12
238.011	8.15
238.394	7.3
238.777	7.73
239.16	6.08
239.543	9.28
239.925	8.3
240.308	6.76
240.691	6.91
241.073	8.22
241.456	6.98
241.838	7.3
242.221	7.69
242.603	6.93
242.986	6.42
243.368	7.2
243.75	6.94
244.133	6.53
244.515	6.16
244.897	6.64
245.279	6.44
245.661	6.47
246.043	6.78
246.425	6
246.807	7.27
247.189	6.08
247.571	5.33
247.953	6.51
248.335	6.73
248.717	6.19
249.098	6.2
249.48	6.18
249.862	6.55
250.243	6.71
250.625	6.44
251.006	6.71
251.388	6.93
251.769	6.54
252.151	6.98
252.532	7.13
252.913	6.44
253.295	5.78
253.676	6.76
254.057	6.64
254.438	6.8
254.819	6.67
255.2	7.2
255.581	6.4
255.962	6.07
256.343	8.09
256.724	5.61
257.105	6.49
257.486	7.76
257.867	6.99
258.247	7.48
258.628	6.64
259.009	6.62
259.389	6.54
259.77	6.08
260.15	6.87
260.531	6.89
260.911	7.01
261.292	6.42
261.672	6.5
262.052	6.16
262.432	6.35
262.813	6.21
263.193	6.14
263.573	6.53
263.953	6.82
264.333	6.99
264.713	6.7
265.093	7
265.473	6.97
265.853	5.7
266.233	7.35
266.612	6.9
266.992	6.85
267.372	6.6
267.752	7.12
268.131	6.69
268.511	6.54
268.89	6.31
269.27	6.71
269.649	6.03
270.029	6.52
270.408	6.48
270.787	6.39
271.167	6.54
271.546	7.34
271.925	6.88
272.304	6.5
272.683	6.56
273.062	6.33
273.441	6.48
273.82	6.46
274.199	6.42
274.578	6.69
274.957	6.63
275.336	6.52
275.715	6.94
276.093	6.54
276.472	6.51
276.851	6.39
277.229	6.49
277.608	5.91
277.986	6.25
278.365	6.66
278.743	6.52
279.122	6.02
279.5	6.29
279.878	6.27
280.257	6.57
280.635	6.81
281.013	6.58
281.391	6.74
281.769	6.25
282.147	6.11
282.525	6.56
282.903	6.48
283.281	6.46
283.659	6.72
284.037	6.89
284.415	6.1
284.792	6.48
285.17	6.71
285.548	6.78
285.925	6.32
286.303	6.15
286.68	6.02
287.058	6.93
287.435	6.68
287.813	6.28
288.19	6.28
288.567	6.41
288.945	7.24
289.322	6.93
289.699	6.72
290.076	6.95
290.453	7.32
290.83	6.58
291.207	7.57
291.584	6.69
291.961	6.93
292.338	6.78
292.715	7.14
293.092	7.29
293.469	7.51
293.845	6.87
294.222	7.41
294.599	6.64
294.975	8.46
295.352	7.52
295.728	7.71
296.105	7.5
296.481	7.57
296.858	7.57
297.234	7.63
297.61	7.56
297.986	7.58
298.363	7.93
298.739	7.8
299.115	7.67
299.491	7.98
299.867	7.98
300.243	7.95
300.619	8.48
300.995	8.29
301.371	8.54
301.746	8.62
302.122	8.86
302.498	8.24
302.874	8.98
303.249	8.65
303.625	8.87
304	8.88
304.376	8.54
304.751	8.6
305.127	9.01
305.502	9.65
305.878	9.22
306.253	9.27
306.628	9.29
307.003	9.66
307.378	9.24
307.754	9.41
308.129	9.92
308.504	9.93
308.879	9.92
309.254	10.21
309.629	9.87
310.003	9.66
310.378	10.48
310.753	9.86
311.128	10.44
311.502	10.14
311.877	10.4
312.252	10.5
312.626	10.37
313.001	10.67
313.375	10.65
313.75	10.27
314.124	10.36
314.498	11.02
314.873	11.02
315.247	10.81
315.621	11.42
315.995	11.24
316.369	10.72
316.743	11.57
317.117	11.54
317.491	10.95
317.865	11.65
318.239	12.31
318.613	11.84
318.987	12.22
319.361	11.02
319.734	12.12
320.108	11.67
320.482	12.22
320.855	12.56
321.229	12.92
321.602	12.24
321.976	12.44
322.349	12.96
322.723	12.87
323.096	13.62
323.469	13.18
323.843	12.62
324.216	13.38
324.589	13.09
324.962	13.04
325.335	12.83
325.708	13.25
326.081	13.95
326.454	13.93
326.827	13.73
327.2	13.37
327.573	13.93
327.945	13.95
328.318	13.59
328.691	13.79
329.063	14.01
329.436	13.9
329.809	14.19
330.181	14.43
330.553	14.41
330.926	13.99
331.298	14.17
331.671	14.34
332.043	14.28
332.415	14.84
332.787	14.9
333.159	14.59
333.532	15.29
333.904	14.76
334.276	14.5
334.648	14.81
335.02	15.71
335.391	15.27
335.763	15.97
336.135	15.45
336.507	15.73
336.879	15.56
337.25	15.84
337.622	15.6
337.993	15.86
338.365	15.86
338.736	15.7
339.108	16.08
339.479	15.86
339.851	16.19
340.222	16.16
340.593	16.27
340.964	16.36
341.336	16.63
341.707	16.37
342.078	16.57
342.449	16.32
342.82	16.16
343.191	16.65
343.562	16.65
343.933	16.94
344.303	17.04
344.674	17.39
345.045	17.61
345.416	17.48
345.786	16.79
346.157	17.34
346.527	17.07
346.898	17.28
347.268	17.75
347.639	17.54
348.009	17.32
348.38	17.86
348.75	18.02
349.12	18.08
349.49	18.27
349.861	18.15
350.231	17.53
350.601	18.47
350.971	18.63
351.341	18.38
351.711	18.63
352.081	18.32
352.45	18.55
352.82	18.78
353.19	18.97
353.56	19.03
353.929	18.39
354.299	19.12
354.669	18.89
355.038	19.23
355.408	19.37
355.777	18.94
356.147	18.97
356.516	19.28
356.885	18.83
357.254	19.7
357.624	19.73
357.993	19.3
358.362	19.46
358.731	19.26
359.1	19.26
359.469	19.7
359.838	20.09
360.207	19.8
360.576	20.33
360.945	19.93
361.314	20.08
361.682	20.07
362.051	20.19
362.42	20.19
362.788	20.49
363.157	20.63
363.525	20.43
363.894	20.53
364.262	20.58
364.631	21
364.999	20.67
365.367	21.17
365.735	20.58
366.104	21.06
366.472	20.97
366.84	21.35
367.208	21.33
367.576	21.54
367.944	21.38
368.312	21.07
368.68	21.91
369.048	21.69
369.416	21.79
369.783	22.07
370.151	21.92
370.519	21.97
370.886	22.31
371.254	22.16
371.621	22.32
371.989	21.86
372.356	22.26
372.724	23.26
373.091	22.67
373.458	22.47
373.826	22.63
374.193	22.65
374.56	22.86
374.927	22.59
375.294	23.05
375.661	23.4
376.028	23.31
376.395	23.59
376.762	23.26
377.129	23.4
377.496	23.59
377.863	23.9
378.229	23.78
378.596	23.9
378.963	23.93
379.329	23.99
379.696	23.83
380.062	23.77
380.429	24.1
380.795	24.37
381.161	24.38
381.528	24.63
381.894	24.51
382.26	24.6
382.626	24.64
382.993	24.59
383.359	24.64
383.725	24.31
384.091	24.87
384.457	25.4
384.823	24.91
385.188	24.95
385.554	25.11
385.92	25.27
386.286	25.49
386.651	25.4
387.017	25.78
387.383	25.64
387.748	25.46
388.114	26.13
388.479	26
388.845	25.85
389.21	26.03
389.575	25.92
389.94	25.94
390.306	26.07
390.671	26.29
391.036	26.32
391.401	26.68
391.766	26.7
392.131	26.6
392.496	26.77
392.861	26.71
393.226	26.82
393.591	26.71
393.956	27.08
394.32	26.99
394.685	27.04
395.05	27.57
395.414	27.55
395.779	27.55
396.143	27.11
396.508	27.2
396.872	27.37
397.236	27.56
397.601	27.61
397.965	27.65
398.329	27.88
398.694	28.31
399.058	27.91
399.422	28.07
399.786	28.12
400.15	28.22
400.514	28.16
400.878	28.49
401.242	28.64
401.605	28.32
401.969	28.67
402.333	28.69
402.697	29.09
403.06	28.84
403.424	29.06
403.787	29.1
404.151	29.41
404.514	29.41
404.878	29.17
405.241	29.22
405.604	29.38
405.968	29.72
406.331	29.58
406.694	29.71
407.057	29.7
407.42	29.95
407.783	29.95
408.146	29.91
408.509	30.17
408.872	30.36
409.235	30.42
409.598	30.46
409.961	30.58
410.323	30.55
410.686	30.54
411.049	30.65
411.411	30.67
411.774	30.82
412.136	30.91
412.499	31.03
412.861	30.93
413.223	31.23
413.586	31.28
413.948	31.25
414.31	31.55
414.672	31.1
415.035	31.5
415.397	31.59
415.759	31.6
416.121	31.74
416.483	31.82
416.845	31.82
417.206	31.85
417.568	31.99
417.93	31.83
418.292	31.78
418.653	31.85
419.015	31.93
419.377	31.96
419.738	32.08
420.1	32.11
420.461	32.01
420.822	32.2
421.184	32.08
421.545	32.21
421.906	32.28
422.267	32.36
422.629	32.26
422.99	32.33
423.351	32.26
423.712	32.4
424.073	32.54
424.434	32.6
424.795	32.87
425.155	32.72
425.516	32.85
425.877	32.99
426.238	32.65
426.598	33.01
426.959	32.99
427.32	33.2
427.68	33.33
428.041	33.34
428.401	33.65
428.761	33.78
429.122	33.73
429.482	33.88
429.842	34.29
430.202	34.39
430.563	34.76
430.923	34.58
431.283	34.67
431.643	34.49
432.003	34.66
432.363	34.78
432.722	34.79
433.082	34.86
433.442	34.64
433.802	35.23
434.161	35.01
434.521	35.28
434.881	35.12
435.24	35.15
435.6	35.2
435.959	35.26
436.319	35.23
436.678	35.35
437.037	35.22
437.396	35.75
437.756	35.83
438.115	35.69
438.474	35.69
438.833	35.99
439.192	35.89
439.551	36.16
439.91	36.04
440.269	36.2
440.628	36.34
440.987	36.35
441.345	36.28
441.704	36.2
442.063	36.27
442.421	36.36
442.78	36.37
443.138	36.3
443.497	36.5
443.855	36.62
444.214	36.82
444.572	36.89
444.93	37.09
445.288	37.11
445.647	37.37
446.005	37.07
446.363	37.24
446.721	37.15
447.079	37.44
447.437	37.36
447.795	37.11
448.153	37.16
448.51	37.11
448.868	37.17
449.226	37.29
449.584	37.45
449.941	37.58
450.299	37.76
450.656	37.89
451.014	37.99
451.371	38.35
451.729	38.15
452.086	38.34
452.443	38.58
452.801	38.48
453.158	38.52
453.515	38.58
453.872	38.88
454.229	39.13
454.586	39.08
454.943	38.77
455.3	38.79
455.657	39.17
456.014	39.23
456.371	39.21
456.727	39.32
457.084	39.22
457.441	39.51
457.797	39.55
458.154	39.77
458.51	39.6
458.867	39.86
459.223	39.65
459.58	39.89
459.936	40.14
460.292	40.05
460.648	39.89
461.005	39.71
461.361	39.97
461.717	39.6
462.073	39.63
462.429	39.57
462.785	39.86
463.141	39.95
463.496	40.12
463.852	40.64
464.208	40.53
464.564	40.86
464.919	41.1
465.275	40.91
465.631	41.18
465.986	41.01
466.342	41.39
466.697	41.2
467.052	41.58
467.408	41.4
467.763	41.58
468.118	41.51
468.473	41.69
468.829	41.46
469.184	41.66
469.539	41.48
469.894	41.75
470.249	41.55
470.603	41.75
470.958	42.11
471.313	42.2
471.668	42.2
472.023	42.07
472.377	42.32
472.732	42.12
473.086	42.45
473.441	42.54
473.795	42.79
474.15	42.44
474.504	42.57
474.859	42.92
475.213	42.88
475.567	42.77
475.921	42.96
476.275	42.73
476.63	43.04
476.984	43.29
477.338	43.1
477.692	43.25
478.045	43.31
478.399	43.27
478.753	43.31
479.107	43.34
479.461	43.68
479.814	43.62
480.168	43.55
480.521	43.55
480.875	43.57
481.228	43.74
481.582	43.96
481.935	43.99
482.289	43.98
482.642	44.06
482.995	44
483.348	43.93
483.701	43.9
484.055	44.03
484.408	43.55
484.761	43.78
485.114	43.46
485.466	43.14
485.819	43.29
486.172	43.25
486.525	43.35
486.878	43.34
487.23	43.3
487.583	43.52
487.936	43.74
488.288	43.9
488.641	43.94
488.993	43.87
489.345	43.83
489.698	43.72
490.05	43.84
490.402	43.94
490.754	43.86
491.107	44.07
491.459	44.39
491.811	44.73
492.163	44.8
492.515	44.97
492.866	45.05
493.218	44.92
493.57	44.6
493.922	44.61
494.274	44.7
494.625	44.67
494.977	45.11
495.328	45.33
495.68	45.76
496.031	45.93
496.383	46.29
496.734	46.17
497.086	46.37
497.437	46.51
497.788	46.28
498.139	46.55
498.49	46.45
498.842	46.41
499.193	46.49
499.544	46.39
499.894	46.54
500.245	46.57
500.596	46.81
500.947	46.71
501.298	46.74
501.648	47
501.999	47.18
502.35	47.33
502.7	47.43
503.051	47.41
503.401	47.62
503.752	47.41
504.102	47.61
504.452	47.78
504.803	47.72
505.153	47.88
505.503	47.65
505.853	47.84
506.203	47.84
506.553	47.84
506.903	47.96
507.253	48.03
507.603	48.03
507.953	48.05
508.303	48.21
508.652	48.32
509.002	48.26
509.352	48.36
509.701	48.59
510.051	48.25
510.4	48.44
510.75	48.33
511.099	48.5
511.449	48.55
511.798	48.29
512.147	48.62
512.496	48.54
512.846	48.59
513.195	48.78
513.544	48.98
513.893	48.77
514.242	48.75
514.591	48.92
514.939	48.96
515.288	49.13
515.637	49.24
515.986	49.29
516.334	49.45
516.683	49.42
517.032	49.35
517.38	49.49
517.729	49.65
518.077	49.76
518.426	49.83
518.774	49.86
519.122	49.81
519.47	49.82
519.819	49.62
520.167	49.56
520.515	49.54
520.863	49.51
521.211	49.52
521.559	49.45
521.907	49.47
522.255	50.04
522.602	50.26
522.95	50.24
523.298	50.29
523.645	50.23
523.993	50.47
524.341	50.45
524.688	50.76
525.036	50.85
525.383	50.59
525.73	50.96
526.078	50.77
526.425	50.88
526.772	50.88
527.119	50.87
527.466	50.7
527.814	50.54
528.161	50.5
528.508	50.38
528.854	50.56
529.201	50.56
529.548	50.83
529.895	50.62
530.242	50.41
530.588	50.32
530.935	50.55
531.282	50.55
531.628	50.39
531.975	50.37
532.321	50.41
532.667	50.83
533.014	51.07
533.36	51.28
533.706	51.5
534.052	51.66
534.399	51.37
534.745	51.3
535.091	51.18
535.437	51.19
535.783	51.29
536.129	51.27
536.474	51.43
536.82	51.79
537.166	51.8
537.512	52.03
537.857	52.43
538.203	52.31
538.549	52.07
538.894	52.03
539.239	52.01
539.585	52.05
539.93	52.45
540.276	52.73
540.621	52.75
540.966	53.05
541.311	53.05
541.656	53.24
542.001	53.26
542.346	53.17
542.691	53.02
543.036	52.76
543.381	52.42
543.726	52.28
544.071	52.29
544.415	52.37
544.76	52.54
545.105	52.69
545.449	52.79
545.794	53.02
546.138	53.17
546.483	53.43
546.827	53.43
547.171	53.73
547.516	53.76
547.86	53.76
548.204	53.98
548.548	53.86
548.892	53.77
549.236	53.82
549.58	53.8
549.924	54.11
550.268	54.33
550.612	54.56
550.956	54.35
551.3	54.69
551.643	54.91
551.987	54.84
552.33	55.01
552.674	54.98
553.017	55.09
553.361	55.04
553.704	55.22
554.048	55.13
554.391	55.15
554.734	55.32
555.077	55.31
555.42	55.05
555.764	55.07
556.107	55.34
556.45	55.55
556.793	55.59
557.135	55.64
557.478	55.7
557.821	55.82
558.164	55.83
558.507	55.79
558.849	55.85
559.192	56.13
559.534	56.21
559.877	56
560.219	55.97
560.562	55.97
560.904	56.19
561.246	56.14
561.589	56.23
561.931	56.25
562.273	56.47
562.615	56.72
562.957	56.63
563.299	56.7
563.641	56.77
563.983	56.54
564.325	56.67
564.667	56.75
565.008	56.81
565.35	56.8
565.692	57.14
566.033	57.21
566.375	57.17
566.716	56.86
567.058	57.27
567.399	57.13
567.741	57.05
568.082	56.86
568.423	57.1
568.764	57.08
569.105	57.03
569.447	57.12
569.788	57.18
570.129	57.28
570.47	57.44
570.811	57.33
571.151	57.7
571.492	57.84
571.833	57.54
572.174	57.48
572.514	57.38
572.855	57.99
573.195	57.86
573.536	57.32
573.876	57.84
574.217	57.37
574.557	57.77
574.898	57.49
575.238	57.7
575.578	57.82
575.918	58
576.258	57.91
576.598	58.4
576.938	58.21
577.278	58.25
577.618	58.16
577.958	58.11
578.298	58.42
578.638	58.44
578.977	58.26
579.317	58.42
579.657	58.36
579.996	58.89
580.336	59.22
580.675	59.03
581.014	59.34
581.354	59.42
581.693	59.2
582.032	59.26
582.372	59.4
582.711	59.22
583.05	59.57
583.389	59.77
583.728	58.98
584.067	59.31
584.406	59.51
584.745	59.42
585.083	59.96
585.422	59.72
585.761	59.88
586.1	59.56
586.438	59.85
586.777	60.03
587.115	60.07
587.454	60.13
587.792	59.77
588.13	60.47
588.469	60.14
588.807	59.98
589.145	60.34
589.483	60.38
589.821	60.4
590.159	60.23
590.497	60.47
590.835	60.42
591.173	60.35
591.511	60.96
591.849	60.51
592.187	60.32
592.524	60.69
592.862	60.73
593.2	60.54
593.537	60.87
593.875	60.72
594.212	60.87
594.55	60.78
594.887	60.72
595.224	60.93
595.561	60.71
595.899	60.94
596.236	60.67
596.573	60.82
596.91	61.28
597.247	61.11
597.584	61.31
597.921	61.26
598.258	61.31
598.594	61.44
598.931	61
599.268	61
599.604	61.35
599.941	60.87
600.277	61.31
600.614	61.56
600.95	61.24
601.287	61.85
601.623	62.1
601.959	62.22
602.296	61.81
602.632	61.98
602.968	61.95
603.304	62.07
603.64	61.99
603.976	62.07
604.312	62.48
604.648	62.4
604.984	62.28
605.319	62.14
605.655	62.1
605.991	62.1
606.326	62.22
606.662	61.99
606.998	61.82
607.333	62.01
607.668	61.79
608.004	62.39
608.339	62.44
608.674	62.31
609.01	62.43
609.345	63.14
609.68	63.18
610.015	62.73
610.35	62.75
610.685	63.1
611.02	62.76
611.355	63.03
611.689	62.75
612.024	63.24
612.359	62.83
612.694	62.93
613.028	63.13
613.363	62.99
613.697	63.13
614.032	63.21
614.366	63.4
614.7	63.14
615.035	63.66
615.369	63.42
615.703	63.42
616.037	63.74
616.371	64.2
616.705	63.33
617.039	63.49
617.373	63.81
617.707	63.17
618.041	63.81
618.375	64.12
618.709	63.75
619.042	63.7
619.376	64.33
619.71	63.9
620.043	64.1
620.377	64.24
620.71	64.05
621.043	63.92
621.377	64.02
621.71	64.83
622.043	64.25
622.376	64.66
622.709	64.41
623.043	64.24
623.376	64.41
623.709	64.3
624.041	64.82
624.374	64.79
624.707	65.38
625.04	64.95
625.373	64.55
625.705	64.56
626.038	64.81
626.37	64.55
626.703	64.73
627.035	64.51
627.368	64.5
627.7	65.54
628.032	65.51
628.365	65.45
628.697	65.15
629.029	65.2
629.361	64.69
629.693	65
630.025	64.98
630.357	65.06
630.689	65.11
631.021	65.51
631.353	65.48
631.684	65.19
632.016	65.49
632.348	65.75
632.679	65.89
633.011	66.16
633.342	65.65
633.674	66.07
634.005	65.9
634.336	65.75
634.668	66.09
634.999	66.13
635.33	65.67
635.661	66.2
635.992	65.7
636.323	65.95
636.654	65.86
636.985	65.91
637.316	65.37
637.647	66.24
637.977	66.01
638.308	66.3
638.639	66.01
638.969	66.7
639.3	66.26
639.63	66.63
639.961	66.37
640.291	66.65
640.622	66.13
640.952	66.81
641.282	65.84
641.612	66.65
641.943	66.33
642.273	66.52
642.603	66.52
642.933	66.82
643.263	67.18
643.592	66.86
643.922	66.52
644.252	67.22
644.582	66.96
644.911	67.41
645.241	67.32
645.571	66.41
645.9	66.89
646.23	67.81
646.559	67.41
646.888	67.32
647.218	67.32
647.547	66.92
647.876	67.33
648.205	67.39
648.534	67.3
648.863	67.39
649.192	67.54
649.521	68.07
649.85	67.43
650.179	67.8
650.508	67.37
650.837	68.03
651.165	67.58
651.494	67.76
651.822	67.66
652.151	67.89
652.479	66.74
652.808	68.25
653.136	67.73
653.465	68.18
653.793	68.01
654.121	67.59
654.449	67.98
654.777	67.86
655.105	68.68
655.433	68.61
655.761	68.08
656.089	68.73
656.417	68.42
656.745	68.29
657.073	68.59
657.4	68.68
657.728	68.69
658.056	68.72
658.383	69.1
658.711	69.27
659.038	68.72
659.365	68.9
659.693	68.23
660.02	68.36
660.347	69.02
660.674	68.54
661.001	68.66
661.329	68.64
661.656	68.57
661.982	68.63
662.309	68.65
662.636	68.82
662.963	68.48
663.29	69.41
663.616	68.99
663.943	69.05
664.27	68.72
664.596	68.79
664.923	68.96
665.249	69.2
665.576	68.14
665.902	68.5
666.228	68.74
666.554	68.76
666.881	69.07
667.207	68.89
667.533	68.81
667.859	69.49
668.185	69.45
668.511	69.75
668.837	68.8
