Data from 0366_chest_Reflection__3__312.txt Node

Date: Fri Oct 20 23:09:46 CDT 2023
User: ToomeyLab
Spectrometer: FLMS14357
Trigger mode: 0
Integration Time (sec): 1.000000E-2
Scans to average: 100
Electric dark correction enabled: true
Nonlinearity correction enabled: false
Boxcar width: 0
XAxis mode: Wavelengths
Number of Pixels in Spectrum: 2048
>>>>>Begin Spectral Data<<<<<
189.047	-183.11
189.435	-183.11
189.823	-183.11
190.211	60.98
190.599	-207.86
190.987	91.36
191.375	338.13
191.763	82.52
192.151	-418.6
192.538	295.36
192.926	-1024
193.314	128.8
193.702	-64.85
194.089	49.91
194.477	342.37
194.864	54.98
195.252	-2583.78
195.639	-172.6
196.027	89.53
196.414	49.5
196.801	17.3
197.189	62.93
197.576	216.97
197.963	-98.8
198.351	37.74
198.738	4.55
199.125	18.72
199.512	16.05
199.899	34.5
200.286	-6.83
200.673	16.46
201.06	26.08
201.447	-21.85
201.833	30.51
202.22	-0.51
202.607	52.02
202.994	73.74
203.38	20.26
203.767	4.11
204.154	11.95
204.54	34.89
204.927	13.01
205.313	-42.24
205.699	54.82
206.086	6.34
206.472	31.35
206.858	26.96
207.245	-3.08
207.631	40.2
208.017	31.51
208.403	12.23
208.789	47.58
209.175	0.48
209.561	6.87
209.947	8.39
210.333	-9.51
210.719	-0.44
211.105	37.16
211.491	6.41
211.876	5.4
212.262	29.54
212.648	28.68
213.034	-4.79
213.419	8.2
213.805	-4.3
214.19	-4.86
214.576	-24.91
214.961	-4.25
215.346	45.63
215.732	9.87
216.117	-6.03
216.502	40.93
216.888	-13.33
217.273	-0.18
217.658	-39.04
218.043	9.76
218.428	-2.94
218.813	9.76
219.198	15.24
219.583	-25.34
219.968	-23.67
220.353	31.37
220.738	-0.33
221.122	-17.3
221.507	-6.58
221.892	-18.66
222.276	11.16
222.661	18.83
223.046	19.23
223.43	-5.64
223.815	4.67
224.199	19.76
224.583	-3.62
224.968	-11.6
225.352	12.08
225.736	-4.25
226.121	5
226.505	-1.99
226.889	7.05
227.273	7.21
227.657	8.84
228.041	5.67
228.425	2.56
228.809	4.42
229.193	6.63
229.577	6.38
229.961	2.54
230.344	2.52
230.728	3.68
231.112	4.12
231.495	2.97
231.879	3.35
232.263	5.27
232.646	1.97
233.03	4.06
233.413	3.67
233.797	2.4
234.18	2.23
234.563	2.88
234.946	4.27
235.33	3.14
235.713	4.99
236.096	4.15
236.479	3.97
236.862	3.87
237.245	2.83
237.628	1.65
238.011	3.79
238.394	2.77
238.777	4.57
239.16	5.82
239.543	5.51
239.925	6.11
240.308	3.6
240.691	2.57
241.073	3.79
241.456	3.77
241.838	2.5
242.221	3.97
242.603	4.04
242.986	3.32
243.368	4.21
243.75	3.84
244.133	3.29
244.515	2.94
244.897	3.4
245.279	3.42
245.661	2.86
246.043	2.8
246.425	3.79
246.807	3.88
247.189	2.9
247.571	2.92
247.953	3.55
248.335	3.57
248.717	3.19
249.098	3.07
249.48	3.08
249.862	3.41
250.243	3.37
250.625	3.47
251.006	3.52
251.388	2.76
251.769	3.93
252.151	2.73
252.532	3.46
252.913	2.12
253.295	1.93
253.676	2.75
254.057	2.91
254.438	3.3
254.819	3.3
255.2	3.39
255.581	3.17
255.962	3.68
256.343	3.87
256.724	2
257.105	2.6
257.486	3.7
257.867	2.89
258.247	3.01
258.628	2.29
259.009	1.89
259.389	3.08
259.77	2.49
260.15	3.15
260.531	3.02
260.911	3.34
261.292	3.05
261.672	3.26
262.052	3.18
262.432	3.19
262.813	3.04
263.193	2.85
263.573	3.1
263.953	2.8
264.333	3.38
264.713	2.98
265.093	3.22
265.473	3.76
265.853	3.3
266.233	4.14
266.612	2.8
266.992	3.09
267.372	2.66
267.752	2.72
268.131	3.28
268.511	3.28
268.89	3.02
269.27	2.79
269.649	2.35
270.029	3.25
270.408	3.26
270.787	3.05
271.167	2.72
271.546	3.09
271.925	3.71
272.304	3.93
272.683	3.3
273.062	3.09
273.441	3.27
273.82	3.33
274.199	3.3
274.578	3.09
274.957	3.26
275.336	3.06
275.715	3.44
276.093	2.7
276.472	3.14
276.851	3.31
277.229	2.91
277.608	2.8
277.986	2.89
278.365	3.15
278.743	2.48
279.122	3.15
279.5	2.61
279.878	2.65
280.257	3.22
280.635	3.16
281.013	3.08
281.391	2.88
281.769	2.79
282.147	2.73
282.525	3.13
282.903	2.65
283.281	3.49
283.659	3.19
284.037	3.34
284.415	2.68
284.792	2.59
285.17	2.98
285.548	2.63
285.925	3.28
286.303	2.56
286.68	2.78
287.058	3.55
287.435	2.95
287.813	2.41
288.19	2.9
288.567	2.75
288.945	3.49
289.322	3.58
289.699	2.83
290.076	3.28
290.453	3.32
290.83	2.77
291.207	3.32
291.584	2.78
291.961	2.96
292.338	3.38
292.715	3.34
293.092	2.85
293.469	3.23
293.845	2.74
294.222	3.26
294.599	2.71
294.975	3.91
295.352	3.06
295.728	3.36
296.105	2.6
296.481	3.09
296.858	2.85
297.234	3.43
297.61	2.67
297.986	3.03
298.363	3.42
298.739	3.3
299.115	3.03
299.491	3.36
299.867	3.22
300.243	3.05
300.619	3.18
300.995	3.13
301.371	2.78
301.746	3.45
302.122	3.57
302.498	3.03
302.874	3.06
303.249	3.24
303.625	3.05
304	3.66
304.376	3.22
304.751	2.64
305.127	3.33
305.502	3.68
305.878	3.82
306.253	3.09
306.628	3.07
307.003	3.34
307.378	3.38
307.754	3.04
308.129	3.38
308.504	3.46
308.879	3.59
309.254	3.46
309.629	2.89
310.003	2.83
310.378	3.83
310.753	3.56
311.128	3.49
311.502	3.36
311.877	3.49
312.252	3.17
312.626	3.54
313.001	3.22
313.375	3.2
313.75	3.27
314.124	3.31
314.498	3.09
314.873	3.26
315.247	3.42
315.621	3.62
315.995	3.56
316.369	2.89
316.743	3.47
317.117	3.56
317.491	2.91
317.865	3.73
318.239	3.5
318.613	3.49
318.987	3.4
319.361	2.75
319.734	3.59
320.108	2.99
320.482	3.59
320.855	3.58
321.229	3.76
321.602	3.13
321.976	4.03
322.349	4.01
322.723	3.81
323.096	3.42
323.469	3.49
323.843	3.72
324.216	3.59
324.589	3.42
324.962	3.85
325.335	3.23
325.708	3.4
326.081	3.85
326.454	3.85
326.827	3.7
327.2	3.68
327.573	3.74
327.945	3.53
328.318	3.36
328.691	3.29
329.063	4.02
329.436	3
329.809	3.6
330.181	4.04
330.553	3.99
330.926	3.58
331.298	3.06
331.671	3.35
332.043	3.37
332.415	3.29
332.787	3.71
333.159	3.31
333.532	4
333.904	3.51
334.276	3.11
334.648	3.83
335.02	3.69
335.391	3.59
335.763	3.94
336.135	3.31
336.507	3.35
336.879	3.75
337.25	3.49
337.622	3.97
337.993	4.28
338.365	3.3
338.736	3.48
339.108	3.6
339.479	3.73
339.851	3.76
340.222	3.45
340.593	2.79
340.964	3.55
341.336	4.13
341.707	3.43
342.078	3.44
342.449	3.35
342.82	3.56
343.191	3.45
343.562	3.75
343.933	3.58
344.303	3.57
344.674	3.39
345.045	3.74
345.416	3.83
345.786	3.38
346.157	3.5
346.527	3.48
346.898	3.95
347.268	3.55
347.639	4.07
348.009	3.55
348.38	3.44
348.75	3.71
349.12	3.73
349.49	3.99
349.861	3.64
350.231	3.52
350.601	3.81
350.971	3.4
351.341	3.82
351.711	4.41
352.081	3.72
352.45	3.43
352.82	3.79
353.19	4.35
353.56	3.82
353.929	3.8
354.299	3.52
354.669	3.79
355.038	3.98
355.408	3.89
355.777	3.57
356.147	3.61
356.516	3.61
356.885	3.73
357.254	3.66
357.624	3.82
357.993	3.44
358.362	3.62
358.731	3.4
359.1	3.43
359.469	3.64
359.838	3.73
360.207	3.65
360.576	3.65
360.945	3.48
361.314	3.51
361.682	3.68
362.051	3.8
362.42	3.57
362.788	3.61
363.157	3.7
363.525	3.51
363.894	3.84
364.262	3.57
364.631	3.81
364.999	3.71
365.367	3.63
365.735	3.64
366.104	3.49
366.472	3.55
366.84	3.88
367.208	3.69
367.576	3.42
367.944	3.63
368.312	3.67
368.68	3.98
369.048	3.63
369.416	3.77
369.783	4.01
370.151	3.48
370.519	3.74
370.886	3.99
371.254	3.89
371.621	3.72
371.989	3.43
372.356	3.71
372.724	4.13
373.091	3.84
373.458	3.45
373.826	3.54
374.193	3.56
374.56	3.48
374.927	3.87
375.294	3.83
375.661	4.02
376.028	4.18
376.395	3.98
376.762	3.78
377.129	3.96
377.496	3.86
377.863	3.98
378.229	4.05
378.596	3.78
378.963	3.8
379.329	3.83
379.696	4.06
380.062	3.75
380.429	3.55
380.795	3.72
381.161	3.64
381.528	4.06
381.894	3.65
382.26	3.77
382.626	4.07
382.993	3.78
383.359	3.84
383.725	4.1
384.091	4.01
384.457	3.82
384.823	3.81
385.188	3.95
385.554	3.99
385.92	3.96
386.286	3.86
386.651	3.73
387.017	3.97
387.383	3.98
387.748	3.8
388.114	3.69
388.479	3.77
388.845	4.11
389.21	3.71
389.575	3.46
389.94	3.73
390.306	3.69
390.671	3.93
391.036	3.96
391.401	4.14
391.766	4.13
392.131	3.61
392.496	3.94
392.861	4.07
393.226	3.99
393.591	3.81
393.956	3.69
394.32	4.08
394.685	3.82
395.05	4.01
395.414	4.09
395.779	3.78
396.143	3.87
396.508	3.79
396.872	4
397.236	3.99
397.601	3.87
397.965	3.68
398.329	3.58
398.694	3.78
399.058	3.73
399.422	3.92
399.786	3.91
400.15	3.73
400.514	3.76
400.878	3.83
401.242	4.17
401.605	3.85
401.969	3.69
402.333	3.96
402.697	4.16
403.06	3.97
403.424	3.87
403.787	3.83
404.151	3.89
404.514	4.2
404.878	4.12
405.241	4.04
405.604	3.88
405.968	3.97
406.331	3.92
406.694	4.01
407.057	3.9
407.42	4.18
407.783	4.1
408.146	4.09
408.509	3.98
408.872	4.29
409.235	3.9
409.598	3.99
409.961	4.08
410.323	4.04
410.686	3.94
411.049	3.96
411.411	4.01
411.774	4.15
412.136	3.84
412.499	4.17
412.861	4.27
413.223	3.99
413.586	4.05
413.948	4.06
414.31	4.28
414.672	3.76
415.035	3.83
415.397	4.05
415.759	4.05
416.121	4.06
416.483	4.15
416.845	4.18
417.206	4.15
417.568	4.09
417.93	4.05
418.292	3.96
418.653	4.09
419.015	4.04
419.377	4.07
419.738	4.02
420.1	3.84
420.461	3.86
420.822	3.86
421.184	3.85
421.545	3.99
421.906	3.86
422.267	3.95
422.629	4.04
422.99	3.82
423.351	4
423.712	3.91
424.073	4
424.434	3.85
424.795	4
425.155	4.01
425.516	3.97
425.877	3.85
426.238	3.86
426.598	4
426.959	3.89
427.32	3.89
427.68	3.95
428.041	3.92
428.401	4.02
428.761	3.85
429.122	3.99
429.482	4.03
429.842	3.98
430.202	4.01
430.563	4.13
430.923	4.19
431.283	4.07
431.643	4.24
432.003	4.24
432.363	3.99
432.722	4.04
433.082	4.08
433.442	3.94
433.802	4.19
434.161	3.97
434.521	4.09
434.881	4.19
435.24	4.12
435.6	3.96
435.959	4.09
436.319	3.97
436.678	4.17
437.037	4.08
437.396	4.16
437.756	4.1
438.115	3.9
438.474	4
438.833	4.19
439.192	3.98
439.551	4.13
439.91	4.08
440.269	4.23
440.628	4.16
440.987	4.14
441.345	4.05
441.704	4.11
442.063	4.24
442.421	4.08
442.78	4.04
443.138	4.23
443.497	4.24
443.855	4.15
444.214	4.19
444.572	4.09
444.93	4.21
445.288	4.29
445.647	4.28
446.005	3.92
446.363	4.08
446.721	4.23
447.079	4.34
447.437	4.1
447.795	3.98
448.153	4.03
448.51	4.1
448.868	4.06
449.226	4.08
449.584	4.14
449.941	4.17
450.299	4.19
450.656	4.08
451.014	4.19
451.371	4.23
451.729	4.14
452.086	4.07
452.443	4.21
452.801	4.27
453.158	4.33
453.515	4.21
453.872	4.07
454.229	4.32
454.586	4.14
454.943	4.17
455.3	4.1
455.657	4.2
456.014	4.15
456.371	4.19
456.727	4.38
457.084	4.24
457.441	4.21
457.797	4.31
458.154	4.02
458.51	4.26
458.867	4.12
459.223	4.29
459.58	4.27
459.936	4.24
460.292	4.26
460.648	4.2
461.005	4.14
461.361	4.23
461.717	4.09
462.073	4.15
462.429	4.22
462.785	4.14
463.141	4.3
463.496	4.15
463.852	4.3
464.208	4.43
464.564	4.44
464.919	4.24
465.275	4.38
465.631	4.49
465.986	4.37
466.342	4.42
466.697	4.33
467.052	4.26
467.408	4.3
467.763	4.49
468.118	4.46
468.473	4.44
468.829	4.33
469.184	4.44
469.539	4.36
469.894	4.41
470.249	4.32
470.603	4.34
470.958	4.62
471.313	4.6
471.668	4.41
472.023	4.38
472.377	4.31
472.732	4.25
473.086	4.44
473.441	4.45
473.795	4.56
474.15	4.35
474.504	4.17
474.859	4.42
475.213	4.46
475.567	4.45
475.921	4.39
476.275	4.28
476.63	4.45
476.984	4.55
477.338	4.36
477.692	4.42
478.045	4.38
478.399	4.4
478.753	4.45
479.107	4.41
479.461	4.38
479.814	4.57
480.168	4.49
480.521	4.47
480.875	4.39
481.228	4.48
481.582	4.56
481.935	4.51
482.289	4.48
482.642	4.28
482.995	4.46
483.348	4.49
483.701	4.34
484.055	4.45
484.408	4.37
484.761	4.35
485.114	4.25
485.466	4.21
485.819	4.19
486.172	4.1
486.525	4.13
486.878	4.22
487.23	4.24
487.583	4.25
487.936	4.3
488.288	4.33
488.641	4.37
488.993	4.27
489.345	4.26
489.698	4.23
490.05	4.24
490.402	4.23
490.754	4.31
491.107	4.31
491.459	4.34
491.811	4.42
492.163	4.36
492.515	4.46
492.866	4.46
493.218	4.42
493.57	4.32
493.922	4.27
494.274	4.34
494.625	4.36
494.977	4.38
495.328	4.57
495.68	4.53
496.031	4.49
496.383	4.55
496.734	4.58
497.086	4.63
497.437	4.6
497.788	4.62
498.139	4.68
498.49	4.54
498.842	4.48
499.193	4.61
499.544	4.67
499.894	4.66
500.245	4.48
500.596	4.57
500.947	4.6
501.298	4.66
501.648	4.57
501.999	4.69
502.35	4.67
502.7	4.78
503.051	4.7
503.401	4.73
503.752	4.77
504.102	4.73
504.452	4.59
504.803	4.73
505.153	4.69
505.503	4.73
505.853	4.83
506.203	4.7
506.553	4.72
506.903	4.7
507.253	4.73
507.603	4.76
507.953	4.75
508.303	4.75
508.652	4.79
509.002	4.74
509.352	4.89
509.701	4.82
510.051	4.66
510.4	4.72
510.75	4.79
511.099	4.87
511.449	4.83
511.798	4.8
512.147	4.81
512.496	4.74
512.846	4.74
513.195	4.8
513.544	4.81
513.893	4.74
514.242	4.72
514.591	4.85
514.939	4.72
515.288	4.78
515.637	4.77
515.986	4.89
516.334	4.85
516.683	4.76
517.032	4.74
517.38	4.83
517.729	5
518.077	4.92
518.426	4.74
518.774	4.74
519.122	4.81
519.47	4.82
519.819	4.82
520.167	4.9
520.515	4.85
520.863	4.87
521.211	4.79
521.559	4.84
521.907	4.89
522.255	4.9
522.602	4.99
522.95	4.87
523.298	5.03
523.645	4.98
523.993	4.91
524.341	4.89
524.688	4.96
525.036	5.02
525.383	4.91
525.73	5.07
526.078	4.96
526.425	5.08
526.772	5.01
527.119	5
527.466	4.9
527.814	4.93
528.161	4.97
528.508	4.87
528.854	4.91
529.201	4.89
529.548	4.98
529.895	4.96
530.242	4.92
530.588	4.82
530.935	4.78
531.282	4.86
531.628	4.88
531.975	4.86
532.321	4.96
532.667	5
533.014	5.06
533.36	5.06
533.706	5.12
534.052	5.06
534.399	5.12
534.745	4.97
535.091	5.06
535.437	5.04
535.783	5.04
536.129	5.09
536.474	5.08
536.82	5.15
537.166	5.12
537.512	5.2
537.857	5.31
538.203	5.22
538.549	5.34
538.894	5.16
539.239	5.08
539.585	5.23
539.93	5.26
540.276	5.5
540.621	5.29
540.966	5.36
541.311	5.49
541.656	5.48
542.001	5.37
542.346	5.5
542.691	5.28
543.036	5.31
543.381	5.18
543.726	5.21
544.071	5.28
544.415	5.25
544.76	5.34
545.105	5.44
545.449	5.45
545.794	5.47
546.138	5.49
546.483	5.45
546.827	5.5
547.171	5.56
547.516	5.61
547.86	5.64
548.204	5.58
548.548	5.47
548.892	5.52
549.236	5.59
549.58	5.48
549.924	5.59
550.268	5.63
550.612	5.77
550.956	5.73
551.3	5.71
551.643	5.81
551.987	5.8
552.33	5.85
552.674	5.89
553.017	5.84
553.361	5.81
553.704	5.87
554.048	5.87
554.391	6.07
554.734	6
555.077	5.96
555.42	5.76
555.764	5.88
556.107	6.12
556.45	5.92
556.793	5.97
557.135	5.92
557.478	5.94
557.821	6.1
558.164	6.07
558.507	6.18
558.849	6.23
559.192	6.01
559.534	6.19
559.877	5.98
560.219	6.38
560.562	6.14
560.904	6.01
561.246	6.2
561.589	6.08
561.931	6.21
562.273	6.5
562.615	6.3
562.957	6.44
563.299	6.29
563.641	6.42
563.983	6.22
564.325	6.32
564.667	6.46
565.008	6.44
565.35	6.42
565.692	6.47
566.033	6.46
566.375	6.43
566.716	6.37
567.058	6.34
567.399	6.5
567.741	6.36
568.082	6.48
568.423	6.47
568.764	6.35
569.105	6.68
569.447	6.47
569.788	6.65
570.129	6.58
570.47	6.54
570.811	6.55
571.151	6.58
571.492	6.79
571.833	6.69
572.174	6.87
572.514	6.76
572.855	6.74
573.195	6.85
573.536	6.74
573.876	6.89
574.217	6.72
574.557	6.78
574.898	6.68
575.238	6.74
575.578	6.89
575.918	6.76
576.258	7.05
576.598	6.98
576.938	7.09
577.278	7.01
577.618	6.86
577.958	7.04
578.298	6.98
578.638	7.08
578.977	7.13
579.317	7.31
579.657	7.19
579.996	7.28
580.336	7.22
580.675	7.1
581.014	7.12
581.354	7.19
581.693	7.33
582.032	7.46
582.372	7.24
582.711	7.47
583.05	7.67
583.389	7.49
583.728	7.4
584.067	7.59
584.406	7.54
584.745	7.39
585.083	7.31
585.422	7.6
585.761	7.55
586.1	7.73
586.438	7.45
586.777	7.62
587.115	7.82
587.454	7.88
587.792	7.77
588.13	7.97
588.469	7.97
588.807	7.46
589.145	7.78
589.483	7.63
589.821	7.86
590.159	8.08
590.497	7.96
590.835	7.74
591.173	7.95
591.511	8.11
591.849	7.86
592.187	7.9
592.524	7.98
592.862	8.16
593.2	7.99
593.537	7.87
593.875	8.02
594.212	8.32
594.55	8.03
594.887	8.24
595.224	8.14
595.561	7.88
595.899	8.19
596.236	8.39
596.573	8.36
596.91	8.39
597.247	8.43
597.584	8.44
597.921	8.27
598.258	8.54
598.594	8.48
598.931	8.27
599.268	8.34
599.604	8.48
599.941	8.46
600.277	8.66
600.614	8.59
600.95	8.47
601.287	8.45
601.623	8.8
601.959	8.75
602.296	8.86
602.632	8.67
602.968	8.7
603.304	8.75
603.64	8.81
603.976	8.83
604.312	9.18
604.648	9
604.984	8.95
605.319	9
605.655	8.88
605.991	9.02
606.326	8.86
606.662	8.79
606.998	8.82
607.333	8.91
607.668	8.76
608.004	9.17
608.339	8.98
608.674	9.17
609.01	9.16
609.345	9.39
609.68	9.34
610.015	9.25
610.35	9.57
610.685	9.52
611.02	9.26
611.355	9.24
611.689	9.09
612.024	9.45
612.359	9.24
612.694	9.62
613.028	9.6
613.363	9.38
613.697	9.62
614.032	9.58
614.366	9.41
614.7	9.86
615.035	9.75
615.369	9.7
615.703	9.37
616.037	10.07
616.371	9.88
616.705	9.79
617.039	9.83
617.373	9.96
617.707	9.97
618.041	9.64
618.375	9.91
618.709	9.63
619.042	9.86
619.376	10.38
619.71	10.24
620.043	10.32
620.377	10.12
620.71	10.15
621.043	10.3
621.377	10.02
621.71	10.32
622.043	10.4
622.376	10.24
622.709	10.69
623.043	10.64
623.376	10.2
623.709	10.33
624.041	10.23
624.374	10.62
624.707	10.44
625.04	10.51
625.373	10.87
625.705	10.8
626.038	10.86
626.37	10.15
626.703	10.63
627.035	10.53
627.368	10.78
627.7	10.75
628.032	10.88
628.365	10.97
628.697	10.68
629.029	10.84
629.361	11.06
629.693	10.94
630.025	11
630.357	10.89
630.689	11.01
631.021	11.28
631.353	11.08
631.684	11.11
632.016	11.14
632.348	10.85
632.679	10.92
633.011	11.3
633.342	11.11
633.674	11.43
634.005	11.2
634.336	11.63
634.668	11.19
634.999	11.1
635.33	11.09
635.661	12.06
635.992	11.5
636.323	11.64
636.654	11.82
636.985	11.57
637.316	11.68
637.647	11.58
637.977	11.35
638.308	11.73
638.639	11.77
638.969	11.62
639.3	11.63
639.63	11.49
639.961	11.74
640.291	11.55
640.622	11.88
640.952	12.04
641.282	11.33
641.612	11.97
641.943	11.94
642.273	11.86
642.603	12.47
642.933	11.81
643.263	12.46
643.592	11.98
643.922	12.24
644.252	12.11
644.582	12.2
644.911	12.21
645.241	12.66
645.571	12.76
645.9	12.4
646.23	12.33
646.559	12.42
646.888	12.9
647.218	12.5
647.547	12.36
647.876	12.69
648.205	12.66
648.534	12.48
648.863	12.8
649.192	12.74
649.521	12.52
649.85	13.11
650.179	12.94
650.508	12.86
650.837	13.45
651.165	13.52
651.494	12.81
651.822	13
652.151	12.87
652.479	12.84
652.808	13.7
653.136	13.44
653.465	13.21
653.793	13.32
654.121	13.77
654.449	13.58
654.777	13.22
655.105	13.33
655.433	13.35
655.761	13.59
656.089	13.66
656.417	13.06
656.745	13.34
657.073	13.47
657.4	14.39
657.728	13.63
658.056	13.62
658.383	13.47
658.711	13.45
659.038	13.81
659.365	13.57
659.693	13.58
660.02	13.54
660.347	13.6
660.674	13.66
661.001	13.41
661.329	13.94
661.656	14.07
661.982	13.89
662.309	13.49
662.636	13.87
662.963	13.72
663.29	13.9
663.616	14.2
663.943	14.16
664.27	13.87
664.596	14.32
664.923	14.26
665.249	14.11
665.576	13.77
665.902	14.15
666.228	14.92
666.554	14.93
666.881	14.6
667.207	14.25
667.533	14.57
667.859	14.54
668.185	14.54
668.511	14.52
668.837	15.29
669.162	15.27
669.488	14.73
669.814	14.28
670.139	15
670.465	14.36
670.791	14.95
671.116	14.88
671.442	14.69
671.767	14.75
672.092	15.12
672.418	14.77
672.743	15.43
673.068	15.6
673.393	15.55
673.718	14.65
674.043	15.22
674.368	15.59
674.693	15.57
675.018	15.81
675.343	14.67
675.667	15.33
675.992	15.53
676.317	15.22
676.641	15.46
676.966	15.36
677.29	15.09
677.615	15.34
677.939	15.22
678.264	16.64
678.588	15.21
678.912	15.84
679.236	15.34
679.56	15.06
679.885	16.2
680.209	15.66
680.532	15.14
680.856	15.69
681.18	15.82
681.504	16.2
681.828	15.83
682.152	16.36
682.475	15.58
682.799	15.65
683.122	15.66
683.446	16.35
683.769	16.01
684.093	15.37
684.416	16.66
684.739	15.35
685.062	15.57
685.386	16.02
685.709	16.23
686.032	16.34
686.355	17.19
686.678	16.81
687.001	16.91
687.324	16.82
687.646	16.46
687.969	16.8
