Data from 0366_forehead_Reflection__3__322.txt Node

Date: Fri Oct 20 23:13:07 CDT 2023
User: ToomeyLab
Spectrometer: FLMS14357
Trigger mode: 0
Integration Time (sec): 1.000000E-2
Scans to average: 100
Electric dark correction enabled: true
Nonlinearity correction enabled: false
Boxcar width: 0
XAxis mode: Wavelengths
Number of Pixels in Spectrum: 2048
>>>>>Begin Spectral Data<<<<<
189.047	18.72
189.435	18.72
189.823	18.72
190.211	95.78
190.599	14.79
190.987	163.71
191.375	392.9
191.763	103.99
192.151	-557.85
192.538	5.38
192.926	-2191.5
193.314	132
193.702	105.84
194.089	103.72
194.477	294.7
194.864	-141.17
195.252	-826.69
195.639	19.01
196.027	-4.04
196.414	53.04
196.801	109.24
197.189	58.14
197.576	168.09
197.963	43.52
198.351	45.39
198.738	31.06
199.125	50.14
199.512	41.82
199.899	42.67
200.286	-8.21
200.673	21.73
201.06	33.95
201.447	51.8
201.833	33.47
202.22	16.05
202.607	55.21
202.994	71.27
203.38	4.65
203.767	47.7
204.154	51.44
204.54	45.95
204.927	29.82
205.313	17.87
205.699	27.63
206.086	39.23
206.472	41.3
206.858	68.63
207.245	24.17
207.631	78.81
208.017	-3.84
208.403	29.09
208.789	38.24
209.175	57.86
209.561	24.75
209.947	13.68
210.333	43.73
210.719	7.68
211.105	34.74
211.491	17.76
211.876	24.62
212.262	34.53
212.648	30.53
213.034	14.97
213.419	38.47
213.805	25.23
214.19	32.81
214.576	28.72
214.961	33.71
215.346	30.96
215.732	29.61
216.117	-25.89
216.502	44.55
216.888	10.46
217.273	23.04
217.658	9.65
218.043	0.88
218.428	26.87
218.813	15.99
219.198	13.69
219.583	-15.17
219.968	12.84
220.353	38.88
220.738	23.1
221.122	-0.57
221.507	27.24
221.892	22.32
222.276	25.07
222.661	18.08
223.046	21.65
223.43	4.24
223.815	16.58
224.199	20.33
224.583	-5.7
224.968	10.2
225.352	-2.13
225.736	5.39
226.121	10.64
226.505	6.76
226.889	4.3
227.273	14.31
227.657	18.36
228.041	14.09
228.425	6.73
228.809	7.6
229.193	5.21
229.577	9.83
229.961	7.73
230.344	6.02
230.728	5.22
231.112	6.69
231.495	5.68
231.879	6.46
232.263	6.82
232.646	5.67
233.03	5.46
233.413	6.52
233.797	6.69
234.18	8.32
234.563	6.61
234.946	6.71
235.33	6.96
235.713	6.99
236.096	8.82
236.479	7.36
236.862	5.92
237.245	5.5
237.628	6.02
238.011	7.18
238.394	5.98
238.777	8.74
239.16	6.46
239.543	8.84
239.925	8.98
240.308	5.69
240.691	7.26
241.073	8.53
241.456	6.5
241.838	6.69
242.221	7.18
242.603	7.79
242.986	6.98
243.368	6.74
243.75	6.21
244.133	5.84
244.515	5.65
244.897	6.23
245.279	6.37
245.661	5.78
246.043	5.56
246.425	6.37
246.807	6.67
247.189	5.68
247.571	6.42
247.953	6.61
248.335	6.87
248.717	6.12
249.098	5.96
249.48	6
249.862	6.25
250.243	6.35
250.625	6.69
251.006	6.63
251.388	6.65
251.769	7.01
252.151	6.54
252.532	6.59
252.913	6.92
253.295	5.97
253.676	6.83
254.057	6.27
254.438	6.22
254.819	6.54
255.2	5.9
255.581	6.13
255.962	6.97
256.343	7.65
256.724	6.19
257.105	6.58
257.486	6.91
257.867	7.14
258.247	7.27
258.628	5.8
259.009	6.64
259.389	6.57
259.77	6.24
260.15	6.74
260.531	6.64
260.911	6.82
261.292	6.09
261.672	6.25
262.052	6.24
262.432	6.03
262.813	5.97
263.193	6.19
263.573	6.45
263.953	6.22
264.333	6.51
264.713	7.1
265.093	6.84
265.473	6.91
265.853	6.57
266.233	6.35
266.612	6.39
266.992	6.71
267.372	5.97
267.752	6.66
268.131	6.53
268.511	6.39
268.89	6.14
269.27	5.86
269.649	5.56
270.029	6.16
270.408	6.63
270.787	6.09
271.167	5.94
271.546	6.45
271.925	7.45
272.304	6.62
272.683	6.64
273.062	6.5
273.441	6.39
273.82	6.19
274.199	6.29
274.578	5.99
274.957	5.93
275.336	5.9
275.715	6.51
276.093	6.19
276.472	6.5
276.851	6.43
277.229	6.44
277.608	5.27
277.986	5.94
278.365	6.34
278.743	6.35
279.122	5.91
279.5	6.33
279.878	6.36
280.257	5.91
280.635	6.44
281.013	6.65
281.391	6.38
281.769	6.25
282.147	5.78
282.525	5.78
282.903	6.56
283.281	6.72
283.659	6.32
284.037	6.26
284.415	6.01
284.792	5.68
285.17	6.5
285.548	6.1
285.925	6.02
286.303	6.31
286.68	6
287.058	6.81
287.435	6.44
287.813	5.87
288.19	6.38
288.567	6.04
288.945	6.52
289.322	6.65
289.699	6.17
290.076	7.02
290.453	6.81
290.83	6.45
291.207	6.84
291.584	6.06
291.961	6.39
292.338	6.67
292.715	6.89
293.092	6.75
293.469	6.98
293.845	6.73
294.222	7.16
294.599	7.05
294.975	7.87
295.352	7.28
295.728	7.49
296.105	7.21
296.481	7.34
296.858	7.27
297.234	7.73
297.61	6.81
297.986	7.68
298.363	7.78
298.739	7.56
299.115	7.54
299.491	7.64
299.867	7.46
300.243	7.91
300.619	7.75
300.995	7.86
301.371	8.47
301.746	8.51
302.122	8.38
302.498	8.13
302.874	8.56
303.249	8.17
303.625	8.67
304	9.05
304.376	8.34
304.751	8.1
305.127	8.13
305.502	9.21
305.878	8.83
306.253	9.06
306.628	8.7
307.003	9.51
307.378	8.93
307.754	9.63
308.129	9.47
308.504	9.4
308.879	8.85
309.254	9.44
309.629	9.06
310.003	8.51
310.378	9.86
310.753	9.5
311.128	9.83
311.502	9.45
311.877	9.7
312.252	9.46
312.626	9.72
313.001	9.49
313.375	9.69
313.75	9.94
314.124	9.37
314.498	10.07
314.873	9.87
315.247	10.38
315.621	10.53
315.995	10.28
316.369	10.45
316.743	10.82
317.117	10.55
317.491	10.21
317.865	10.45
318.239	10.69
318.613	10.98
318.987	10.5
319.361	10.68
319.734	10.53
320.108	10.58
320.482	11.38
320.855	11.57
321.229	11.88
321.602	11.63
321.976	11.3
322.349	11.83
322.723	11.5
323.096	11.78
323.469	11.49
323.843	12.02
324.216	11.86
324.589	11.61
324.962	12.09
325.335	12.03
325.708	11.9
326.081	12.01
326.454	11.89
326.827	11.9
327.2	12.34
327.573	12.19
327.945	12.23
328.318	12.21
328.691	12.26
329.063	12.44
329.436	12.06
329.809	12.15
330.181	12.43
330.553	12.6
330.926	12.99
331.298	12.52
331.671	12.04
332.043	12.44
332.415	12.59
332.787	13.15
333.159	12.86
333.532	13
333.904	13.14
334.276	12.42
334.648	13.37
335.02	13.42
335.391	12.79
335.763	13.38
336.135	13.12
336.507	13.4
336.879	13.2
337.25	13.15
337.622	13.32
337.993	13.72
338.365	13.54
338.736	13.65
339.108	13.7
339.479	13.48
339.851	14.05
340.222	14.07
340.593	13.73
340.964	13.82
341.336	14.2
341.707	14.04
342.078	14.13
342.449	13.89
342.82	13.56
343.191	14.05
343.562	14.13
343.933	13.88
344.303	13.8
344.674	14.34
345.045	14.41
345.416	14.46
345.786	14.01
346.157	14.47
346.527	14.64
346.898	14.49
347.268	14.85
347.639	14.38
348.009	14.38
348.38	14.51
348.75	14.47
349.12	14.66
349.49	14.43
349.861	15.2
350.231	14.9
350.601	15.17
350.971	15.31
351.341	14.92
351.711	15.66
352.081	15.59
352.45	15.17
352.82	15.6
353.19	15.42
353.56	15.14
353.929	15.44
354.299	15.88
354.669	15.16
355.038	15.66
355.408	15.74
355.777	15.47
356.147	15.77
356.516	15.6
356.885	15.75
357.254	16.11
357.624	16.02
357.993	15.64
358.362	15.84
358.731	15.54
359.1	15.64
359.469	15.8
359.838	16.17
360.207	16.26
360.576	16.48
360.945	15.86
361.314	16.36
361.682	16.22
362.051	16.32
362.42	16.24
362.788	16.54
363.157	16.45
363.525	16.14
363.894	16.58
364.262	16.71
364.631	16.67
364.999	16.72
365.367	16.84
365.735	16.68
366.104	16.93
366.472	17.21
366.84	17.14
367.208	17.36
367.576	17.21
367.944	17.25
368.312	17.47
368.68	17.51
369.048	17.15
369.416	17.63
369.783	17.52
370.151	17.5
370.519	17.47
370.886	17.7
371.254	18.01
371.621	18.27
371.989	17.99
372.356	18.07
372.724	18.02
373.091	17.96
373.458	17.84
373.826	18.11
374.193	17.8
374.56	17.92
374.927	18.09
375.294	18.24
375.661	18.2
376.028	18.72
376.395	18.64
376.762	18.28
377.129	18.53
377.496	18.81
377.863	18.91
378.229	18.86
378.596	18.57
378.963	18.6
379.329	18.93
379.696	18.92
380.062	18.87
380.429	18.58
380.795	18.97
381.161	19.1
381.528	19.2
381.894	19.06
382.26	19.2
382.626	19.14
382.993	19.24
383.359	19.29
383.725	19.52
384.091	19.39
384.457	19.55
384.823	19.49
385.188	19.71
385.554	19.38
385.92	19.75
386.286	20.12
386.651	19.58
387.017	20.02
387.383	20.16
387.748	19.56
388.114	19.98
388.479	20.11
388.845	20.16
389.21	20.08
389.575	19.91
389.94	19.95
390.306	20.29
390.671	20.24
391.036	20.48
391.401	20.52
391.766	20.34
392.131	20.6
392.496	20.82
392.861	20.56
393.226	20.65
393.591	20.59
393.956	20.65
394.32	20.74
394.685	20.87
395.05	21.27
395.414	21.06
395.779	21
396.143	20.98
396.508	21.12
396.872	21.13
397.236	21.25
397.601	21.2
397.965	21.07
398.329	21.09
398.694	21.29
399.058	21.1
399.422	21.68
399.786	21.49
400.15	21.7
400.514	21.79
400.878	21.88
401.242	21.84
401.605	21.68
401.969	21.69
402.333	21.85
402.697	22.01
403.06	22.15
403.424	21.97
403.787	22.2
404.151	22.39
404.514	22.46
404.878	22.63
405.241	22.11
405.604	22.2
405.968	22.15
406.331	22.29
406.694	22.59
407.057	22.3
407.42	22.72
407.783	22.58
408.146	22.76
408.509	22.65
408.872	22.97
409.235	23
409.598	23.05
409.961	23.03
410.323	23.03
410.686	22.97
411.049	23.18
411.411	23.07
411.774	23.24
412.136	23.42
412.499	23.41
412.861	23.47
413.223	23.56
413.586	23.24
413.948	23.76
414.31	24.01
414.672	23.68
415.035	23.61
415.397	23.76
415.759	24.1
416.121	23.84
416.483	23.84
416.845	23.96
417.206	23.74
417.568	23.98
417.93	23.89
418.292	23.89
418.653	24.22
419.015	23.99
419.377	24.2
419.738	24.15
420.1	23.99
420.461	24.15
420.822	24.12
421.184	24.15
421.545	24.18
421.906	24.22
422.267	24.36
422.629	24.33
422.99	24.04
423.351	24.33
423.712	24.22
424.073	24.25
424.434	24.28
424.795	24.57
425.155	24.68
425.516	24.42
425.877	24.63
426.238	24.52
426.598	24.66
426.959	24.73
427.32	24.89
427.68	24.78
428.041	25.06
428.401	25.06
428.761	25.2
429.122	25.26
429.482	25.61
429.842	25.63
430.202	25.82
430.563	25.91
430.923	26.02
431.283	26.12
431.643	25.98
432.003	26.28
432.363	26.21
432.722	26.17
433.082	26.18
433.442	26.27
433.802	26.37
434.161	26.15
434.521	26.56
434.881	26.2
435.24	26.09
435.6	26.34
435.959	26.4
436.319	26.4
436.678	26.54
437.037	26.44
437.396	26.64
437.756	26.78
438.115	26.61
438.474	26.76
438.833	26.79
439.192	26.85
439.551	26.87
439.91	26.91
440.269	27.12
440.628	27.12
440.987	27.22
441.345	27.03
441.704	27
442.063	26.86
442.421	27.14
442.78	27.04
443.138	27.28
443.497	27.19
443.855	27.32
444.214	27.48
444.572	27.43
444.93	27.62
445.288	27.55
445.647	27.74
446.005	27.58
446.363	27.7
446.721	27.69
447.079	27.95
447.437	27.88
447.795	27.75
448.153	27.68
448.51	27.73
448.868	27.79
449.226	27.85
449.584	27.91
449.941	28
450.299	28.28
450.656	28.21
451.014	28.33
451.371	28.51
451.729	28.58
452.086	28.74
452.443	28.64
452.801	28.58
453.158	28.93
453.515	29
453.872	29.05
454.229	29.36
454.586	29.04
454.943	28.95
455.3	29.01
455.657	29.02
456.014	29.24
456.371	29.29
456.727	29.43
457.084	29.39
457.441	29.42
457.797	29.67
458.154	29.35
458.51	29.68
458.867	29.52
459.223	29.72
459.58	29.52
459.936	30.02
460.292	29.85
460.648	29.65
461.005	29.7
461.361	29.75
461.717	29.65
462.073	29.69
462.429	29.63
462.785	29.66
463.141	29.91
463.496	30.08
463.852	30.32
464.208	30.19
464.564	30.41
464.919	30.6
465.275	30.36
465.631	30.65
465.986	30.81
466.342	30.83
466.697	30.73
467.052	30.62
467.408	30.76
467.763	31.19
468.118	31.28
468.473	31.22
468.829	31.13
469.184	31
469.539	30.97
469.894	31.2
470.249	31.08
470.603	31.21
470.958	31.51
471.313	31.66
471.668	31.64
472.023	31.66
472.377	31.62
472.732	31.75
473.086	31.99
473.441	31.92
473.795	31.96
474.15	31.75
474.504	31.91
474.859	32
475.213	31.91
475.567	32.21
475.921	32.1
476.275	32.14
476.63	32.57
476.984	32.43
477.338	32.2
477.692	32.27
478.045	32.38
478.399	32.31
478.753	32.59
479.107	32.51
479.461	32.74
479.814	32.73
480.168	32.62
480.521	32.56
480.875	32.72
481.228	32.84
481.582	32.79
481.935	32.8
482.289	32.99
482.642	33
482.995	33.08
483.348	32.92
483.701	32.97
484.055	33.09
484.408	32.79
484.761	32.62
485.114	32.55
485.466	32.4
485.819	32.25
486.172	32.27
486.525	32.32
486.878	32.34
487.23	32.35
487.583	32.63
487.936	32.92
488.288	33
488.641	33.06
488.993	33.03
489.345	32.92
489.698	32.77
490.05	32.88
490.402	32.82
490.754	33.05
491.107	33.07
491.459	33.36
491.811	33.6
492.163	33.65
492.515	33.92
492.866	33.99
493.218	33.63
493.57	33.5
493.922	33.51
494.274	33.58
494.625	33.72
494.977	33.95
495.328	34.14
495.68	34.48
496.031	34.62
496.383	34.87
496.734	34.8
497.086	34.97
497.437	35.05
497.788	34.96
498.139	35.18
498.49	35.17
498.842	35.15
499.193	35.07
499.544	35.04
499.894	34.91
500.245	35.22
500.596	35.36
500.947	35.51
501.298	35.6
501.648	35.53
501.999	35.72
502.35	35.87
502.7	35.82
503.051	36.01
503.401	36.17
503.752	36.36
504.102	36.08
504.452	36.33
504.803	36.19
505.153	36.31
505.503	36.49
505.853	36.65
506.203	36.34
506.553	36.39
506.903	36.39
507.253	36.74
507.603	36.48
507.953	36.49
508.303	36.61
508.652	36.7
509.002	36.74
509.352	36.86
509.701	36.84
510.051	36.57
510.4	36.72
510.75	36.8
511.099	36.87
511.449	37.05
511.798	36.94
512.147	37.07
512.496	37.05
512.846	37.1
513.195	37.35
513.544	37.32
513.893	37.29
514.242	37.23
514.591	37.32
514.939	37.33
515.288	37.69
515.637	37.64
515.986	37.73
516.334	37.91
516.683	37.85
517.032	37.95
517.38	37.84
517.729	38
518.077	38.21
518.426	38.26
518.774	37.96
519.122	38.34
519.47	38.15
519.819	38.15
520.167	37.94
520.515	37.93
520.863	38.05
521.211	38.07
521.559	38.04
521.907	38.2
522.255	38.29
522.602	38.51
522.95	38.66
523.298	38.86
523.645	38.81
523.993	38.95
524.341	39.02
524.688	39.05
525.036	39.27
525.383	39.43
525.73	39.31
526.078	39.39
526.425	39.17
526.772	39.3
527.119	39.29
527.466	39.01
527.814	39.03
528.161	39.13
528.508	38.82
528.854	39.09
529.201	39.19
529.548	39.14
529.895	39.06
530.242	38.92
530.588	38.82
530.935	39.02
531.282	39.13
531.628	38.91
531.975	38.97
532.321	39.12
532.667	39.36
533.014	39.57
533.36	39.74
533.706	39.93
534.052	40.01
534.399	39.89
534.745	40
535.091	39.96
535.437	39.86
535.783	39.88
536.129	39.89
536.474	40.08
536.82	40.39
537.166	40.47
537.512	40.47
537.857	40.63
538.203	40.63
538.549	40.64
538.894	40.68
539.239	40.73
539.585	40.68
539.93	40.87
540.276	41.31
540.621	41.35
540.966	41.51
541.311	41.54
541.656	41.73
542.001	41.89
542.346	41.69
542.691	41.47
543.036	41.27
543.381	40.98
543.726	40.84
544.071	40.96
544.415	41.14
544.76	41.21
545.105	41.41
545.449	41.4
545.794	41.62
546.138	41.81
546.483	41.81
546.827	42.21
547.171	42.34
547.516	42.32
547.86	42.27
548.204	42.46
548.548	42.51
548.892	42.44
549.236	42.44
549.58	42.47
549.924	42.66
550.268	43.03
550.612	43.01
550.956	43.16
551.3	43.03
551.643	43.22
551.987	43.27
552.33	43.42
552.674	43.41
553.017	43.7
553.361	43.76
553.704	43.94
554.048	43.7
554.391	43.71
554.734	43.82
555.077	43.83
555.42	43.88
555.764	43.7
556.107	43.76
556.45	44.08
556.793	44.12
557.135	44.37
557.478	44.15
557.821	44.35
558.164	44.63
558.507	44.48
558.849	44.85
559.192	44.66
559.534	44.7
559.877	44.57
560.219	44.68
560.562	44.8
560.904	44.99
561.246	44.96
561.589	45.04
561.931	45.3
562.273	45.11
562.615	45.25
562.957	45.32
563.299	45.02
563.641	45.31
563.983	45.29
564.325	45.51
564.667	45.27
565.008	45.54
565.35	45.56
565.692	45.61
566.033	45.83
566.375	45.67
566.716	45.78
567.058	45.85
567.399	45.98
567.741	46.03
568.082	45.9
568.423	45.78
568.764	46.03
569.105	45.92
569.447	46.11
569.788	46.17
570.129	46.17
570.47	46.34
570.811	46.15
571.151	46.41
571.492	46.7
571.833	46.77
572.174	46.88
572.514	46.65
572.855	46.84
573.195	47.13
573.536	46.7
573.876	46.64
574.217	46.53
574.557	46.63
574.898	46.56
575.238	46.77
575.578	47.09
575.918	46.98
576.258	46.98
576.598	47.41
576.938	47.33
577.278	47.33
577.618	47.28
577.958	47.3
578.298	47.49
578.638	47.53
578.977	47.63
579.317	47.81
579.657	47.45
579.996	47.98
580.336	48.13
580.675	48.13
581.014	48.24
581.354	48.45
581.693	48.47
582.032	48.4
582.372	48.53
582.711	48.75
583.05	48.54
583.389	48.58
583.728	48.28
584.067	48.65
584.406	49.13
584.745	48.94
585.083	48.68
585.422	49.26
585.761	49.08
586.1	49.14
586.438	49.07
586.777	49.21
587.115	49.07
587.454	49.3
587.792	49.38
588.13	49.4
588.469	49.34
588.807	49.1
589.145	49.45
589.483	49.77
589.821	49.4
590.159	49.75
590.497	49.63
590.835	49.75
591.173	49.8
591.511	49.88
591.849	49.78
592.187	49.99
592.524	49.91
592.862	50.13
593.2	50.03
593.537	49.9
593.875	50.04
594.212	50.54
594.55	50.46
594.887	50.13
595.224	50.44
595.561	50.13
595.899	50.31
596.236	50.39
596.573	50.53
596.91	50.71
597.247	50.67
597.584	50.51
597.921	50.45
598.258	51.04
598.594	50.77
598.931	50.47
599.268	50.82
599.604	50.93
599.941	50.68
600.277	50.89
600.614	51.01
600.95	50.87
601.287	51.28
601.623	51.43
601.959	51.61
602.296	51.41
602.632	51.79
602.968	51.48
603.304	51.56
603.64	51.71
603.976	51.61
604.312	52.11
604.648	51.76
604.984	51.69
605.319	51.76
605.655	51.81
605.991	51.77
606.326	51.51
606.662	51.74
606.998	51.66
607.333	51.5
607.668	51.97
608.004	51.84
608.339	52.13
608.674	52.37
609.01	52.37
609.345	52.56
609.68	52.4
610.015	52.51
610.35	52.61
610.685	52.61
611.02	52.34
611.355	52.59
611.689	52.42
612.024	52.7
612.359	52.75
612.694	52.71
613.028	52.73
613.363	52.78
613.697	52.84
614.032	53.12
614.366	53.37
614.7	53.35
615.035	53.54
615.369	53.13
615.703	53.15
616.037	53.65
616.371	53.66
616.705	53.58
617.039	53.26
617.373	53.71
617.707	54.23
618.041	53.83
618.375	53.79
618.709	53.79
619.042	53.9
619.376	54.34
619.71	53.94
620.043	54.15
620.377	54.13
620.71	53.76
621.043	53.85
621.377	54.4
621.71	54.91
622.043	54.29
622.376	54.54
622.709	54.76
623.043	54.76
623.376	54.97
623.709	54.47
624.041	55.07
624.374	54.6
624.707	55.14
625.04	54.93
625.373	55.16
625.705	54.82
626.038	54.74
626.37	54.77
626.703	55.02
627.035	55.2
627.368	54.88
627.7	55.29
628.032	55.23
628.365	55.1
628.697	55.38
629.029	55.38
629.361	55.35
629.693	55.38
630.025	55.07
630.357	55.27
630.689	55.24
631.021	56.09
631.353	55.94
631.684	56.03
632.016	55.75
632.348	55.63
632.679	56.11
633.011	56.03
633.342	55.76
633.674	56.04
634.005	55.96
634.336	56.26
634.668	56.24
634.999	56.23
635.33	55.86
635.661	56.45
635.992	56.01
636.323	55.93
636.654	56.36
636.985	56.53
637.316	56.81
637.647	56.83
637.977	56.72
638.308	56.64
638.639	56.3
638.969	56.9
639.3	57.12
639.63	57.15
639.961	57.07
640.291	56.97
640.622	57.27
640.952	57.46
641.282	56.84
641.612	57.38
641.943	57.39
642.273	57.35
642.603	56.98
642.933	57.49
643.263	57.57
643.592	57.13
643.922	57.68
644.252	57.47
644.582	57.48
644.911	57.87
645.241	57.88
645.571	57.76
645.9	57.45
646.23	58.14
646.559	57.87
646.888	58.13
647.218	57.73
647.547	57.52
647.876	58.13
648.205	58.41
648.534	58.55
648.863	58.05
649.192	58.14
649.521	57.87
649.85	58
650.179	58.44
650.508	58.11
650.837	58.71
651.165	58.54
651.494	58.41
651.822	58.85
652.151	58.63
652.479	57.6
652.808	58.91
653.136	58.46
653.465	58.95
653.793	58.53
654.121	58.97
654.449	58.83
654.777	59.14
655.105	59.33
655.433	59.15
655.761	58.69
656.089	59.63
656.417	59.53
656.745	59
657.073	59.44
657.4	59.76
657.728	58.99
658.056	60.31
658.383	59.02
658.711	59.27
659.038	59.42
659.365	59.93
659.693	59.27
660.02	59.37
660.347	59.89
660.674	59.08
661.001	59.79
661.329	60.18
661.656	59.44
661.982	60.05
662.309	59.68
662.636	59.79
662.963	59.53
663.29	60.06
663.616	60.26
663.943	59.79
664.27	59.96
664.596	59.86
664.923	59.79
665.249	60.09
665.576	59.82
665.902	60.34
666.228	60.24
666.554	60.61
666.881	60.15
667.207	60.51
667.533	59.4
667.859	60.63
668.185	60.15
668.511	60.84
668.837	60.1
669.162	60.24
