Data from 0366_chest_Reflection__4__313.txt Node

Date: Fri Oct 20 23:09:56 CDT 2023
User: ToomeyLab
Spectrometer: FLMS14357
Trigger mode: 0
Integration Time (sec): 1.000000E-2
Scans to average: 100
Electric dark correction enabled: true
Nonlinearity correction enabled: false
Boxcar width: 0
XAxis mode: Wavelengths
Number of Pixels in Spectrum: 2048
>>>>>Begin Spectral Data<<<<<
189.047	41.72
189.435	41.72
189.823	41.72
190.211	171.11
190.599	-274.18
190.987	33.95
191.375	352.43
191.763	76.43
192.151	348.55
192.538	168.13
192.926	-1504.5
193.314	43.4
193.702	285.28
194.089	173.64
194.477	-837.08
194.864	281.46
195.252	-2605.74
195.639	194.69
196.027	91.34
196.414	29.98
196.801	81.96
197.189	-18.86
197.576	165.07
197.963	-535.09
198.351	40.63
198.738	5.83
199.125	39.72
199.512	60.23
199.899	4.21
200.286	-6.98
200.673	45.56
201.06	-7.87
201.447	34.15
201.833	39.72
202.22	33.22
202.607	46.33
202.994	41.97
203.38	4.86
203.767	45.33
204.154	32.8
204.54	51.84
204.927	34.24
205.313	6.65
205.699	35.17
206.086	37.39
206.472	58.34
206.858	56.02
207.245	-12.2
207.631	82.83
208.017	13.87
208.403	-0.19
208.789	45.7
209.175	11.94
209.561	7.22
209.947	-11.2
210.333	41.16
210.719	23.67
211.105	35.13
211.491	21.83
211.876	16.27
212.262	29.71
212.648	38.99
213.034	1.11
213.419	4.68
213.805	21.2
214.19	-20.91
214.576	28.09
214.961	6.78
215.346	47.5
215.732	15.56
216.117	-12.44
216.502	13.45
216.888	-11.14
217.273	-4.26
217.658	39.81
218.043	5.71
218.428	0.37
218.813	15.49
219.198	3.03
219.583	-30.01
219.968	-3.59
220.353	23.36
220.738	6.53
221.122	10.41
221.507	24.73
221.892	20.69
222.276	17.44
222.661	14.6
223.046	15.41
223.43	8.79
223.815	3.71
224.199	21.98
224.583	0.89
224.968	-0.22
225.352	9.04
225.736	8.2
226.121	5.28
226.505	5.29
226.889	8.75
227.273	8.15
227.657	9.57
228.041	6.64
228.425	3.59
228.809	3.77
229.193	5.46
229.577	5.91
229.961	4.13
230.344	5.83
230.728	4.8
231.112	4.95
231.495	4.38
231.879	5.53
232.263	4.43
232.646	4.71
233.03	3.08
233.413	4.11
233.797	4.22
234.18	5.21
234.563	4.96
234.946	8.27
235.33	5.83
235.713	3.65
236.096	5.89
236.479	3.5
236.862	4.99
237.245	3.93
237.628	4.5
238.011	5.14
238.394	4.4
238.777	5.87
239.16	4.52
239.543	5.19
239.925	7.37
240.308	5.62
240.691	4.39
241.073	3.34
241.456	5.34
241.838	5.43
242.221	4.5
242.603	3.93
242.986	4.86
243.368	5.14
243.75	4.08
244.133	4.27
244.515	4.25
244.897	4.32
245.279	4.39
245.661	4.02
246.043	3.92
246.425	3.69
246.807	4.35
247.189	3.96
247.571	4.07
247.953	4.08
248.335	4.83
248.717	4.05
249.098	3.94
249.48	4.18
249.862	4.28
250.243	4.78
250.625	4.2
251.006	4.59
251.388	4.12
251.769	4.75
252.151	4.04
252.532	4.71
252.913	4.17
253.295	3.41
253.676	4.23
254.057	4.25
254.438	4.11
254.819	4.25
255.2	3.44
255.581	3.93
255.962	3.58
256.343	4.25
256.724	2.68
257.105	3.81
257.486	3.56
257.867	4.83
258.247	4.64
258.628	4.57
259.009	3.06
259.389	3.54
259.77	4.01
260.15	5.19
260.531	4.31
260.911	4.13
261.292	3.89
261.672	3.87
262.052	3.96
262.432	4.13
262.813	4.03
263.193	4.19
263.573	3.87
263.953	3.76
264.333	4.28
264.713	4
265.093	4.58
265.473	4.7
265.853	3.43
266.233	3.98
266.612	4.2
266.992	4.2
267.372	3.84
267.752	4.11
268.131	4.09
268.511	4.05
268.89	4.04
269.27	3.59
269.649	3.72
270.029	3.67
270.408	4.12
270.787	4.28
271.167	4.27
271.546	3.83
271.925	4.42
272.304	4.39
272.683	4.21
273.062	3.47
273.441	3.76
273.82	4.51
274.199	4.09
274.578	3.87
274.957	3.95
275.336	4.14
275.715	4.34
276.093	3.54
276.472	4.1
276.851	3.65
277.229	4.2
277.608	3.85
277.986	3.35
278.365	4.49
278.743	3.5
279.122	3.31
279.5	4.1
279.878	3.4
280.257	3.84
280.635	3.91
281.013	4.44
281.391	4.36
281.769	3.83
282.147	3.45
282.525	4.17
282.903	4.06
283.281	3.78
283.659	4.08
284.037	4.27
284.415	3.4
284.792	3.53
285.17	3.35
285.548	3.95
285.925	3.99
286.303	3.32
286.68	3.58
287.058	4.15
287.435	3.98
287.813	3.38
288.19	3.77
288.567	3.81
288.945	4.17
289.322	4.24
289.699	3.46
290.076	4.11
290.453	3.86
290.83	3.94
291.207	4.24
291.584	3.34
291.961	3.75
292.338	3.71
292.715	3.88
293.092	3.83
293.469	3.83
293.845	3.56
294.222	3.54
294.599	3.88
294.975	4.3
295.352	3.78
295.728	3.77
296.105	3.81
296.481	3.87
296.858	3.8
297.234	4.37
297.61	3.39
297.986	3.38
298.363	3.85
298.739	3.82
299.115	3.56
299.491	3.9
299.867	4
300.243	3.9
300.619	3.91
300.995	3.72
301.371	3.95
301.746	4.05
302.122	4.42
302.498	4.12
302.874	3.72
303.249	3.93
303.625	3.91
304	4.14
304.376	3.49
304.751	3.38
305.127	4.05
305.502	4.57
305.878	3.77
306.253	3.89
306.628	3.92
307.003	4.25
307.378	3.93
307.754	4.12
308.129	4.8
308.504	3.9
308.879	3.88
309.254	4.61
309.629	3.47
310.003	3.01
310.378	4.21
310.753	3.62
311.128	4.22
311.502	3.67
311.877	4.11
312.252	3.9
312.626	4.25
313.001	4.12
313.375	3.88
313.75	4.13
314.124	3.9
314.498	4.28
314.873	3.89
315.247	3.9
315.621	3.59
315.995	3.71
316.369	3.68
316.743	3.7
317.117	3.92
317.491	3.62
317.865	4.12
318.239	4.31
318.613	3.95
318.987	4.15
319.361	3.54
319.734	3.79
320.108	3.62
320.482	4.79
320.855	4.27
321.229	4.85
321.602	3.99
321.976	3.59
322.349	4.5
322.723	4.08
323.096	4.47
323.469	3.46
323.843	4.08
324.216	3.97
324.589	4
324.962	4.52
325.335	4.13
325.708	3.52
326.081	4.35
326.454	4.34
326.827	4.45
327.2	4.49
327.573	4.29
327.945	3.91
328.318	3.52
328.691	4.06
329.063	4.13
329.436	4.06
329.809	4.07
330.181	4.46
330.553	4.26
330.926	4.43
331.298	3.74
331.671	3.63
332.043	3.55
332.415	4.06
332.787	4.62
333.159	3.42
333.532	4.74
333.904	4.35
334.276	3.64
334.648	4.11
335.02	4.16
335.391	3.51
335.763	4.67
336.135	4.08
336.507	4.16
336.879	4.04
337.25	3.97
337.622	4.61
337.993	4.36
338.365	4.43
338.736	4.34
339.108	4.41
339.479	3.76
339.851	4.25
340.222	3.87
340.593	3.58
340.964	4.04
341.336	4.76
341.707	3.95
342.078	4.43
342.449	3.97
342.82	4.04
343.191	3.99
343.562	3.8
343.933	4.08
344.303	4.16
344.674	4.08
345.045	4.31
345.416	4.67
345.786	4.04
346.157	4.22
346.527	4.08
346.898	4.49
347.268	4.52
347.639	4.6
348.009	4.25
348.38	4.28
348.75	4.27
349.12	4.09
349.49	4.09
349.861	4.7
350.231	4.11
350.601	4.18
350.971	4.48
351.341	4.03
351.711	4.79
352.081	4.59
352.45	4.16
352.82	4.38
353.19	4.33
353.56	4.44
353.929	4.16
354.299	4.4
354.669	4.05
355.038	4.22
355.408	4.59
355.777	4.04
356.147	4.34
356.516	4.04
356.885	4.23
357.254	4.51
357.624	4.19
357.993	4.22
358.362	4.18
358.731	3.73
359.1	3.65
359.469	3.91
359.838	4.24
360.207	4.2
360.576	4.55
360.945	4.03
361.314	4.06
361.682	4.04
362.051	4.04
362.42	4.19
362.788	4.35
363.157	4.28
363.525	3.98
363.894	4.21
364.262	4.1
364.631	4.28
364.999	4.14
365.367	4.33
365.735	4.04
366.104	4.11
366.472	3.99
366.84	4.16
367.208	4.05
367.576	4.26
367.944	4.11
368.312	4.18
368.68	4.37
369.048	4.14
369.416	4.65
369.783	4.32
370.151	3.94
370.519	4.24
370.886	4.29
371.254	4.59
371.621	4.66
371.989	4.24
372.356	4.54
372.724	4.38
373.091	4.32
373.458	3.76
373.826	4.59
374.193	4.06
374.56	4.21
374.927	4.5
375.294	4.25
375.661	4.41
376.028	4.24
376.395	4.27
376.762	4.31
377.129	4.52
377.496	4.46
377.863	4.63
378.229	4.61
378.596	4.36
378.963	4.33
379.329	4.28
379.696	4.22
380.062	4.36
380.429	4.19
380.795	4.31
381.161	4.2
381.528	4.69
381.894	4.33
382.26	4.28
382.626	4.47
382.993	4.14
383.359	4.16
383.725	4.26
384.091	4.43
384.457	4.44
384.823	4.3
385.188	4.6
385.554	4.16
385.92	4.53
386.286	4.6
386.651	4.03
387.017	4.36
387.383	4.42
387.748	4.24
388.114	4.2
388.479	4.4
388.845	4.65
389.21	4.44
389.575	4.16
389.94	4.19
390.306	4.56
390.671	4.2
391.036	4.34
391.401	4.3
391.766	4.59
392.131	4.3
392.496	4.25
392.861	4.35
393.226	4.66
393.591	4.21
393.956	4.43
394.32	4.68
394.685	4.08
395.05	4.37
395.414	4.65
395.779	4.11
396.143	4.18
396.508	4.28
396.872	4.27
397.236	4.36
397.601	4.32
397.965	4.27
398.329	4.42
398.694	4.59
399.058	4.1
399.422	4.5
399.786	4.24
400.15	4.19
400.514	4.42
400.878	4.47
401.242	4.44
401.605	4.47
401.969	4.14
402.333	4.36
402.697	4.34
403.06	4.42
403.424	4.47
403.787	4.51
404.151	4.24
404.514	4.47
404.878	4.49
405.241	4.58
405.604	4.38
405.968	4.45
406.331	4.34
406.694	4.24
407.057	4.22
407.42	4.59
407.783	4.53
408.146	4.28
408.509	4.36
408.872	4.53
409.235	4.47
409.598	4.28
409.961	4.43
410.323	4.42
410.686	4.38
411.049	4.59
411.411	4.63
411.774	4.55
412.136	4.4
412.499	4.6
412.861	4.63
413.223	4.31
413.586	4.4
413.948	4.49
414.31	4.6
414.672	4.28
415.035	4.48
415.397	4.71
415.759	4.48
416.121	4.26
416.483	4.59
416.845	4.71
417.206	4.43
417.568	4.56
417.93	4.53
418.292	4.24
418.653	4.47
419.015	4.36
419.377	4.43
419.738	4.45
420.1	4.24
420.461	4.31
420.822	4.38
421.184	4.45
421.545	4.4
421.906	4.46
422.267	4.41
422.629	4.43
422.99	4.19
423.351	4.31
423.712	4.3
424.073	4.37
424.434	4.24
424.795	4.35
425.155	4.42
425.516	4.23
425.877	4.42
426.238	4.23
426.598	4.32
426.959	4.27
427.32	4.29
427.68	4.3
428.041	4.33
428.401	4.45
428.761	4.48
429.122	4.43
429.482	4.28
429.842	4.56
430.202	4.46
430.563	4.5
430.923	4.67
431.283	4.52
431.643	4.57
432.003	4.73
432.363	4.39
432.722	4.38
433.082	4.42
433.442	4.31
433.802	4.65
434.161	4.25
434.521	4.54
434.881	4.6
435.24	4.49
435.6	4.37
435.959	4.44
436.319	4.41
436.678	4.46
437.037	4.46
437.396	4.78
437.756	4.47
438.115	4.32
438.474	4.56
438.833	4.58
439.192	4.55
439.551	4.36
439.91	4.41
440.269	4.43
440.628	4.56
440.987	4.57
441.345	4.38
441.704	4.47
442.063	4.46
442.421	4.43
442.78	4.42
443.138	4.52
443.497	4.56
443.855	4.57
444.214	4.6
444.572	4.56
444.93	4.51
445.288	4.73
445.647	4.82
446.005	4.27
446.363	4.52
446.721	4.49
447.079	4.65
447.437	4.49
447.795	4.42
448.153	4.45
448.51	4.53
448.868	4.5
449.226	4.35
449.584	4.48
449.941	4.4
450.299	4.59
450.656	4.45
451.014	4.58
451.371	4.67
451.729	4.38
452.086	4.51
452.443	4.45
452.801	4.53
453.158	4.77
453.515	4.59
453.872	4.6
454.229	4.77
454.586	4.65
454.943	4.57
455.3	4.59
455.657	4.53
456.014	4.49
456.371	4.47
456.727	4.57
457.084	4.63
457.441	4.61
457.797	4.66
458.154	4.6
458.51	4.61
458.867	4.53
459.223	4.54
459.58	4.68
459.936	4.54
460.292	4.64
460.648	4.5
461.005	4.54
461.361	4.53
461.717	4.45
462.073	4.61
462.429	4.53
462.785	4.53
463.141	4.75
463.496	4.57
463.852	4.68
464.208	4.69
464.564	4.74
464.919	4.54
465.275	4.84
465.631	4.87
465.986	4.75
466.342	4.69
466.697	4.57
467.052	4.61
467.408	4.76
467.763	4.8
468.118	4.82
468.473	4.78
468.829	4.68
469.184	4.7
469.539	4.68
469.894	4.76
470.249	4.81
470.603	4.57
470.958	4.55
471.313	4.8
471.668	4.73
472.023	4.89
472.377	4.76
472.732	4.69
473.086	4.82
473.441	4.84
473.795	4.85
474.15	4.56
474.504	4.65
474.859	4.75
475.213	4.78
475.567	4.95
475.921	4.77
476.275	4.8
476.63	4.92
476.984	4.86
477.338	4.75
477.692	4.82
478.045	4.64
478.399	4.76
478.753	4.89
479.107	4.7
479.461	4.67
479.814	4.76
480.168	4.86
480.521	4.78
480.875	4.83
481.228	4.88
481.582	4.86
481.935	4.73
482.289	4.78
482.642	4.74
482.995	4.72
483.348	4.79
483.701	4.7
484.055	4.71
484.408	4.71
484.761	4.66
485.114	4.55
485.466	4.49
485.819	4.45
486.172	4.4
486.525	4.43
486.878	4.45
487.23	4.51
487.583	4.53
487.936	4.59
488.288	4.61
488.641	4.72
488.993	4.57
489.345	4.59
489.698	4.51
490.05	4.5
490.402	4.53
490.754	4.51
491.107	4.55
491.459	4.63
491.811	4.67
492.163	4.68
492.515	4.75
492.866	4.79
493.218	4.63
493.57	4.55
493.922	4.58
494.274	4.58
494.625	4.63
494.977	4.71
495.328	4.75
495.68	4.86
496.031	4.74
496.383	4.9
496.734	4.68
497.086	4.96
497.437	4.91
497.788	4.7
498.139	4.98
498.49	4.74
498.842	4.78
499.193	4.9
499.544	4.86
499.894	4.9
500.245	4.75
500.596	4.9
500.947	4.91
501.298	4.9
501.648	4.88
501.999	4.87
502.35	4.86
502.7	4.93
503.051	4.89
503.401	5.01
503.752	5
504.102	4.99
504.452	4.93
504.803	4.89
505.153	4.98
505.503	4.92
505.853	5
506.203	4.85
506.553	4.79
506.903	5.07
507.253	4.96
507.603	4.89
507.953	4.91
508.303	5
508.652	5.02
509.002	4.97
509.352	5
509.701	5.09
510.051	4.95
510.4	5
510.75	4.96
511.099	4.94
511.449	4.99
511.798	5.02
512.147	4.93
512.496	5.01
512.846	4.95
513.195	5
513.544	5.05
513.893	4.87
514.242	4.92
514.591	4.97
514.939	4.88
515.288	4.82
515.637	4.97
515.986	4.99
516.334	4.92
516.683	5.02
517.032	4.98
517.38	4.93
517.729	5.01
518.077	5.04
518.426	4.94
518.774	4.97
519.122	4.95
519.47	4.93
519.819	5.01
520.167	4.96
520.515	4.94
520.863	4.92
521.211	4.99
521.559	5.05
521.907	4.96
522.255	4.98
522.602	5.2
522.95	5.01
523.298	5.1
523.645	5
523.993	5.04
524.341	5.15
524.688	5.24
525.036	5.17
525.383	5.09
525.73	5.27
526.078	5.15
526.425	5.15
526.772	5.09
527.119	5.11
527.466	4.95
527.814	5.11
528.161	5.08
528.508	4.96
528.854	5.07
529.201	5.1
529.548	5.07
529.895	5.1
530.242	4.98
530.588	4.91
530.935	4.89
531.282	4.97
531.628	4.92
531.975	4.97
532.321	5.03
532.667	5.09
533.014	5.03
533.36	5.26
533.706	5.16
534.052	5.2
534.399	5.09
534.745	5.01
535.091	5.11
535.437	5.1
535.783	5.11
536.129	5.15
536.474	5.13
536.82	5.19
537.166	5.21
537.512	5.34
537.857	5.37
538.203	5.23
538.549	5.3
538.894	5.26
539.239	5.27
539.585	5.28
539.93	5.32
540.276	5.51
540.621	5.32
540.966	5.45
541.311	5.45
541.656	5.35
542.001	5.42
542.346	5.45
542.691	5.33
543.036	5.29
543.381	5.25
543.726	5.23
544.071	5.2
544.415	5.27
544.76	5.26
545.105	5.39
545.449	5.3
545.794	5.41
546.138	5.37
546.483	5.34
546.827	5.48
547.171	5.55
547.516	5.43
547.86	5.58
548.204	5.43
548.548	5.51
548.892	5.53
549.236	5.51
549.58	5.47
549.924	5.62
550.268	5.57
550.612	5.66
550.956	5.77
551.3	5.67
551.643	5.67
551.987	5.7
552.33	5.64
552.674	5.53
553.017	5.67
553.361	5.84
553.704	5.98
554.048	5.7
554.391	5.77
554.734	6.02
555.077	5.84
555.42	5.65
555.764	5.81
556.107	5.74
556.45	5.83
556.793	5.77
557.135	5.72
557.478	5.77
557.821	5.84
558.164	6.11
558.507	5.91
558.849	6.06
559.192	6.11
559.534	6.13
559.877	5.94
560.219	6
560.562	6.07
560.904	5.84
561.246	6.04
561.589	5.91
561.931	5.98
562.273	6.16
562.615	6.07
562.957	6.15
563.299	6.03
563.641	5.99
563.983	5.96
564.325	5.96
564.667	6.14
565.008	6.21
565.35	6.17
565.692	6.18
566.033	6.3
566.375	6.21
566.716	6.16
567.058	6.11
567.399	6.09
567.741	6.08
568.082	6.22
568.423	6.23
568.764	6.15
569.105	6.41
569.447	6.19
569.788	6.22
570.129	6.23
570.47	6.12
570.811	6.54
571.151	6.29
571.492	6.37
571.833	6.71
572.174	6.49
572.514	6.45
572.855	6.4
573.195	6.3
573.536	6.2
573.876	6.53
574.217	6.41
574.557	6.45
574.898	6.28
575.238	6.38
575.578	6.56
575.918	6.41
576.258	6.53
576.598	6.77
576.938	6.69
577.278	6.6
577.618	6.49
577.958	6.54
578.298	6.53
578.638	6.68
578.977	6.63
579.317	6.56
579.657	6.67
579.996	6.52
580.336	7.03
580.675	6.74
581.014	6.89
581.354	6.74
581.693	6.95
582.032	6.89
582.372	6.68
582.711	7.03
583.05	7.17
583.389	6.85
583.728	6.91
584.067	7.07
584.406	6.88
584.745	6.88
585.083	6.9
585.422	7.01
585.761	7.25
586.1	7.1
586.438	7
586.777	7.22
587.115	7.15
587.454	7.02
587.792	7.01
588.13	7.26
588.469	7.29
588.807	6.94
589.145	7.15
589.483	7.12
589.821	7.24
590.159	7.31
590.497	7.07
590.835	7.2
591.173	7.07
591.511	7.16
591.849	7.19
592.187	7.43
592.524	7.14
592.862	7.28
593.2	7.53
593.537	7.42
593.875	7.54
594.212	7.73
594.55	7.41
594.887	7.71
595.224	7.22
595.561	7.4
595.899	7.6
596.236	7.47
596.573	7.71
596.91	7.49
597.247	7.85
597.584	7.59
597.921	7.56
598.258	7.69
598.594	7.78
598.931	7.51
599.268	7.34
599.604	7.64
599.941	7.67
600.277	7.72
600.614	7.8
600.95	7.56
601.287	7.58
601.623	7.84
601.959	7.94
602.296	7.69
602.632	7.88
602.968	7.73
603.304	8.17
603.64	7.91
603.976	7.87
604.312	8.06
604.648	8.06
604.984	8.31
605.319	8.05
605.655	8.05
605.991	7.85
606.326	7.85
606.662	8.13
606.998	7.95
607.333	7.98
607.668	8.01
608.004	8.07
608.339	8.01
608.674	8.43
609.01	8.11
609.345	8.35
609.68	8.42
610.015	8.34
610.35	8.36
610.685	8.57
611.02	8.37
611.355	8.32
611.689	8.26
612.024	8.6
612.359	8.52
612.694	8.38
613.028	8.42
613.363	8.57
613.697	8.59
614.032	8.73
614.366	8.57
614.7	8.68
615.035	8.8
615.369	8.7
615.703	8.45
616.037	8.69
616.371	8.72
616.705	8.47
617.039	8.82
617.373	8.63
617.707	8.78
618.041	8.9
618.375	8.83
618.709	8.82
619.042	9.18
619.376	9.17
619.71	9.29
620.043	9.18
620.377	8.81
620.71	8.93
621.043	9.51
621.377	9.08
621.71	8.85
622.043	8.94
622.376	9.34
622.709	9.42
623.043	9.32
623.376	9.14
623.709	9.2
624.041	9.07
624.374	9.62
624.707	9.19
625.04	9.58
625.373	9.29
625.705	9.14
626.038	9.63
626.37	9.41
626.703	9.71
627.035	9.19
627.368	9.45
627.7	9.65
628.032	9.57
628.365	9.8
628.697	9.63
629.029	9.57
629.361	9.65
629.693	9.39
630.025	9.61
630.357	9.72
630.689	9.71
631.021	9.93
631.353	9.98
631.684	9.53
632.016	10.03
632.348	9.65
632.679	9.47
633.011	10.24
633.342	9.9
633.674	10.08
634.005	9.87
634.336	10.45
634.668	9.95
634.999	10.16
635.33	9.73
635.661	10.32
635.992	10.06
636.323	10.25
636.654	10.03
636.985	10.11
637.316	10.28
637.647	10.06
637.977	9.69
638.308	10.03
638.639	10.49
638.969	10.2
639.3	9.88
639.63	10.42
639.961	10.22
640.291	10.24
640.622	10.13
640.952	10.44
641.282	10.36
641.612	10.63
641.943	10.8
642.273	10.56
642.603	10.64
642.933	10.78
643.263	10.84
643.592	10.48
643.922	11.12
644.252	10.79
644.582	10.58
644.911	10.78
645.241	10.95
645.571	10.95
645.9	10.72
646.23	10.94
646.559	11.01
646.888	11.23
647.218	11.18
647.547	10.68
647.876	10.59
648.205	10.49
648.534	11.53
648.863	10.92
649.192	10.78
649.521	10.76
649.85	11.33
650.179	10.94
650.508	11.68
650.837	11.34
651.165	11.43
651.494	10.84
651.822	11.22
652.151	11.37
652.479	11.24
652.808	11.42
653.136	11.08
653.465	11.7
653.793	11.18
654.121	11.75
654.449	11.71
654.777	11.34
655.105	11.95
655.433	12
655.761	11.34
656.089	11.61
656.417	11.81
656.745	11.78
657.073	11.78
657.4	12.33
657.728	11.71
658.056	11.86
658.383	11.96
658.711	11.89
659.038	12.16
659.365	11.93
659.693	11.27
660.02	11.96
660.347	12.28
660.674	11.91
661.001	11.52
661.329	12.1
661.656	11.85
661.982	12.32
662.309	12.33
662.636	12.09
662.963	12.09
663.29	12.34
663.616	12.53
663.943	12.11
664.27	11.8
664.596	12.28
664.923	12.4
665.249	12.29
665.576	12.14
665.902	12.3
666.228	12.48
666.554	12.68
666.881	12.24
667.207	12.6
667.533	12.7
667.859	12.9
668.185	13.03
668.511	13.36
668.837	13.04
669.162	13.47
669.488	12.38
669.814	11.9
670.139	12.72
670.465	12.82
670.791	13.42
671.116	13.24
671.442	12.64
671.767	12.79
672.092	12.76
672.418	12.99
672.743	12.85
673.068	13.63
673.393	13
673.718	12.69
674.043	13.23
674.368	13.84
674.693	13.25
675.018	13.69
675.343	13.53
675.667	13.55
675.992	13.56
676.317	13.98
676.641	13.2
676.966	13.63
677.29	13.51
677.615	13.72
677.939	13.11
678.264	13.82
678.588	12.43
678.912	13.84
679.236	13.17
679.56	13.98
679.885	14.15
680.209	13.12
680.532	12.97
680.856	13.4
681.18	13.94
681.504	13.65
681.828	14
682.152	13.73
682.475	13.33
682.799	13.99
683.122	13.57
683.446	13.63
683.769	13.71
684.093	13.28
684.416	13.64
684.739	13.58
685.062	13.82
685.386	13.73
685.709	13.66
686.032	13.86
686.355	14.04
686.678	14.05
687.001	14.48
687.324	13.85
687.646	14.44
687.969	14.09
688.292	14.09
688.614	14.29
688.937	14.29
689.26	13.97
