Data from 0366_forehead_Reflection__4__323.txt Node

Date: Fri Oct 20 23:13:17 CDT 2023
User: ToomeyLab
Spectrometer: FLMS14357
Trigger mode: 0
Integration Time (sec): 1.000000E-2
Scans to average: 100
Electric dark correction enabled: true
Nonlinearity correction enabled: false
Boxcar width: 0
XAxis mode: Wavelengths
Number of Pixels in Spectrum: 2048
>>>>>Begin Spectral Data<<<<<
189.047	94.61
189.435	94.61
189.823	94.61
190.211	253.4
190.599	-80.73
190.987	85.05
191.375	153.15
191.763	122.81
192.151	-309.59
192.538	221.77
192.926	1667.5
193.314	5.05
193.702	277.43
194.089	132.46
194.477	239.19
194.864	24.11
195.252	-1338.18
195.639	626.2
196.027	6.49
196.414	68.94
196.801	53.28
197.189	51.48
197.576	-35.7
197.963	-526.66
198.351	59.26
198.738	17.8
199.125	52.05
199.512	54.07
199.899	39.29
200.286	28.63
200.673	45.94
201.06	58.67
201.447	81.81
201.833	31.5
202.22	49.58
202.607	75.78
202.994	54.6
203.38	43.17
203.767	42.62
204.154	59.1
204.54	51.73
204.927	40.37
205.313	43.01
205.699	65.92
206.086	31.21
206.472	81.57
206.858	58.5
207.245	14.29
207.631	69.08
208.017	37.98
208.403	12.18
208.789	61.84
209.175	-27.18
209.561	65.82
209.947	66.89
210.333	41.08
210.719	19.84
211.105	36.2
211.491	43.43
211.876	21.43
212.262	59.98
212.648	47.16
213.034	26.8
213.419	45.76
213.805	16.76
214.19	-5.85
214.576	-5.2
214.961	39.3
215.346	48.74
215.732	28.34
216.117	3.94
216.502	42.56
216.888	28.28
217.273	13.15
217.658	65.22
218.043	16.93
218.428	13.81
218.813	38.52
219.198	50.26
219.583	11.61
219.968	13.47
220.353	29.61
220.738	22.4
221.122	44.81
221.507	41.45
221.892	23.68
222.276	18.61
222.661	31.48
223.046	26.64
223.43	20.86
223.815	22.22
224.199	11.64
224.583	6.66
224.968	11.11
225.352	15.28
225.736	7.85
226.121	14.86
226.505	5.76
226.889	17.78
227.273	12.97
227.657	15.92
228.041	12.58
228.425	5.54
228.809	12.61
229.193	9.54
229.577	11.42
229.961	7.12
230.344	5.69
230.728	7.04
231.112	7.3
231.495	5.76
231.879	6.47
232.263	8.09
232.646	5.12
233.03	5.9
233.413	7.15
233.797	5.66
234.18	7.22
234.563	8.51
234.946	7.72
235.33	9.91
235.713	7.16
236.096	7.29
236.479	7.22
236.862	7.42
237.245	5.18
237.628	7.75
238.011	8.15
238.394	7.41
238.777	8.15
239.16	6.95
239.543	8.72
239.925	8.99
240.308	7.65
240.691	7.44
241.073	7.96
241.456	8.11
241.838	6.47
242.221	8.63
242.603	7.18
242.986	6.54
243.368	6.98
243.75	6.03
244.133	5.91
244.515	6.26
244.897	6.32
245.279	6.72
245.661	6.62
246.043	6.95
246.425	6.67
246.807	7.12
247.189	6.32
247.571	5.76
247.953	6.81
248.335	6.55
248.717	5.79
249.098	6.03
249.48	5.88
249.862	6.32
250.243	6.48
250.625	6.65
251.006	6.75
251.388	6.49
251.769	7.26
252.151	6.42
252.532	7.61
252.913	7.16
253.295	5.48
253.676	6.85
254.057	6.54
254.438	6.32
254.819	6.5
255.2	6.84
255.581	6.67
255.962	7.56
256.343	7.44
256.724	6.69
257.105	7.26
257.486	7.05
257.867	6.38
258.247	7.29
258.628	7.72
259.009	7.25
259.389	6.58
259.77	6.72
260.15	6.49
260.531	6.45
260.911	6.48
261.292	6.17
261.672	6.26
262.052	6.39
262.432	6.16
262.813	5.95
263.193	6.73
263.573	6.42
263.953	6.75
264.333	6.61
264.713	6.54
265.093	7.13
265.473	7.11
265.853	6.82
266.233	6.38
266.612	6.44
266.992	6.62
267.372	6.12
267.752	6.63
268.131	6.56
268.511	6.77
268.89	6.26
269.27	6.08
269.649	5.51
270.029	6.64
270.408	6.73
270.787	6.53
271.167	6.98
271.546	6.5
271.925	7.2
272.304	6.44
272.683	6.68
273.062	6.59
273.441	6.66
273.82	6.6
274.199	6.48
274.578	6.32
274.957	6.39
275.336	6.48
275.715	6.35
276.093	6.15
276.472	6.75
276.851	6.75
277.229	6.16
277.608	6.23
277.986	5.88
278.365	6.29
278.743	6.25
279.122	6.31
279.5	6.11
279.878	6.29
280.257	6.22
280.635	6.37
281.013	6.44
281.391	6.43
281.769	6.27
282.147	6.19
282.525	6.53
282.903	6.29
283.281	6.56
283.659	6.42
284.037	6.59
284.415	5.66
284.792	6.47
285.17	6.53
285.548	6.32
285.925	5.85
286.303	6.05
286.68	6.18
287.058	6.82
287.435	6.58
287.813	6.17
288.19	6.16
288.567	6.16
288.945	6.83
289.322	6.87
289.699	5.89
290.076	7.1
290.453	6.61
290.83	6.66
291.207	6.85
291.584	6.6
291.961	6.99
292.338	6.82
292.715	6.98
293.092	6.83
293.469	6.74
293.845	6.92
294.222	7.12
294.599	6.78
294.975	7.8
295.352	7.2
295.728	7.42
296.105	7.12
296.481	7.67
296.858	7.78
297.234	7.9
297.61	7.4
297.986	7.29
298.363	7.67
298.739	7.78
299.115	7.45
299.491	7.76
299.867	7.86
300.243	7.83
300.619	7.66
300.995	8.1
301.371	8.51
301.746	8.29
302.122	8.8
302.498	8.26
302.874	8.14
303.249	8.75
303.625	8.69
304	8.95
304.376	8.59
304.751	8.3
305.127	8.63
305.502	9.61
305.878	9.17
306.253	9.15
306.628	8.94
307.003	9.27
307.378	8.93
307.754	9.19
308.129	10.23
308.504	10.43
308.879	10.03
309.254	9.98
309.629	9.22
310.003	9.2
310.378	9.88
310.753	9.94
311.128	10.27
311.502	10.04
311.877	10.01
312.252	10.26
312.626	10.42
313.001	10.42
313.375	10.3
313.75	10.27
314.124	10.26
314.498	10.55
314.873	10.24
315.247	10.63
315.621	11.07
315.995	10.87
316.369	10.48
316.743	11.23
317.117	11.43
317.491	11.02
317.865	11.37
318.239	12.25
318.613	11.85
318.987	11.29
319.361	11.23
319.734	11.54
320.108	12.04
320.482	12.26
320.855	12.16
321.229	12.66
321.602	11.96
321.976	12.52
322.349	12.78
322.723	12.38
323.096	12.53
323.469	12.35
323.843	13.33
324.216	12.6
324.589	13.3
324.962	13.16
325.335	13.34
325.708	13.18
326.081	13.25
326.454	13.61
326.827	13.84
327.2	13.27
327.573	13.65
327.945	13.44
328.318	13.71
328.691	13.75
329.063	13.98
329.436	13.87
329.809	13.59
330.181	14.55
330.553	13.74
330.926	14.11
331.298	13.71
331.671	14.5
332.043	13.81
332.415	14.4
332.787	14.61
333.159	14.62
333.532	14.73
333.904	14.58
334.276	14.37
334.648	14.73
335.02	14.55
335.391	14.51
335.763	15.24
336.135	14.97
336.507	15.16
336.879	15.06
337.25	15.28
337.622	15.32
337.993	15.65
338.365	15.32
338.736	15.49
339.108	15.86
339.479	15.64
339.851	15.88
340.222	15.5
340.593	15.24
340.964	15.31
341.336	16
341.707	15.98
342.078	16.18
342.449	15.87
342.82	15.9
343.191	15.98
343.562	16.54
343.933	16.53
344.303	16.41
344.674	16.92
345.045	16.91
345.416	17.01
345.786	16.79
346.157	16.93
346.527	16.56
346.898	16.5
347.268	17.46
347.639	17.26
348.009	17.59
348.38	17.42
348.75	17.59
349.12	17.27
349.49	17.64
349.861	18.03
350.231	17.68
350.601	17.55
350.971	17.8
351.341	17.88
351.711	18.23
352.081	17.96
352.45	17.68
352.82	18.11
353.19	18.46
353.56	18.61
353.929	18.47
354.299	17.97
354.669	18.24
355.038	18.59
355.408	18.81
355.777	18.27
356.147	18.62
356.516	18.3
356.885	18.95
357.254	18.61
357.624	18.47
357.993	18.48
358.362	18.83
358.731	18.7
359.1	18.52
359.469	19.08
359.838	19.6
360.207	19.55
360.576	19.72
360.945	19.43
361.314	19.38
361.682	19.65
362.051	19.54
362.42	19.62
362.788	19.81
363.157	19.97
363.525	19.65
363.894	20.18
364.262	20.11
364.631	20.22
364.999	19.88
365.367	20.53
365.735	20.06
366.104	20.41
366.472	20.51
366.84	20.66
367.208	20.54
367.576	20.99
367.944	20.93
368.312	20.73
368.68	20.92
369.048	20.92
369.416	21.39
369.783	21.3
370.151	21.12
370.519	20.77
370.886	22.01
371.254	21.66
371.621	21.83
371.989	21.93
372.356	21.65
372.724	21.93
373.091	21.59
373.458	21.63
373.826	21.94
374.193	21.96
374.56	21.95
374.927	22.02
375.294	22.21
375.661	22.6
376.028	22.69
376.395	22.63
376.762	22.42
377.129	22.67
377.496	22.76
377.863	22.91
378.229	23.17
378.596	22.95
378.963	22.71
379.329	22.99
379.696	23.27
380.062	23.02
380.429	22.97
380.795	23.34
381.161	23.34
381.528	23.76
381.894	23.68
382.26	23.68
382.626	23.67
382.993	24.05
383.359	23.85
383.725	24.27
384.091	24
384.457	24.2
384.823	24.02
385.188	24.58
385.554	24.09
385.92	24.39
386.286	24.59
386.651	24.25
387.017	24.69
387.383	24.35
387.748	24.46
388.114	24.76
388.479	24.9
388.845	25.1
389.21	24.83
389.575	24.57
389.94	24.51
390.306	24.94
390.671	25.23
391.036	25.11
391.401	25.42
391.766	25.35
392.131	25.29
392.496	25.63
392.861	25.56
393.226	25.66
393.591	25.84
393.956	25.97
394.32	26
394.685	25.74
395.05	26.19
395.414	26.38
395.779	26.16
396.143	26.08
396.508	25.92
396.872	26.3
397.236	26.38
397.601	26.78
397.965	26.54
398.329	26.47
398.694	26.87
399.058	26.82
399.422	26.96
399.786	26.85
400.15	27.4
400.514	26.9
400.878	27.23
401.242	27.28
401.605	27.13
401.969	27.45
402.333	27.54
402.697	27.68
403.06	27.62
403.424	27.8
403.787	27.85
404.151	27.97
404.514	27.84
404.878	28.11
405.241	27.71
405.604	27.76
405.968	28.15
406.331	28.1
406.694	28.15
407.057	28.06
407.42	28.58
407.783	28.51
408.146	28.77
408.509	28.69
408.872	28.93
409.235	29.25
409.598	28.83
409.961	28.85
410.323	29.09
410.686	29.09
411.049	29.02
411.411	29.28
411.774	29.27
412.136	29.52
412.499	29.65
412.861	29.53
413.223	29.66
413.586	29.66
413.948	29.88
414.31	30.18
414.672	29.88
415.035	29.94
415.397	30.15
415.759	30.1
416.121	30.24
416.483	30.04
416.845	30.33
417.206	30.5
417.568	30.59
417.93	30.61
418.292	30.54
418.653	30.46
419.015	30.42
419.377	30.41
419.738	30.62
420.1	30.48
420.461	30.57
420.822	30.58
421.184	30.51
421.545	30.53
421.906	30.62
422.267	30.89
422.629	30.77
422.99	30.73
423.351	30.8
423.712	30.7
424.073	31.06
424.434	31.04
424.795	31.3
425.155	31.18
425.516	31.27
425.877	31.4
426.238	31.16
426.598	31.38
426.959	31.22
427.32	31.45
427.68	31.74
428.041	31.74
428.401	31.61
428.761	32.01
429.122	32.13
429.482	32.44
429.842	32.26
430.202	32.82
430.563	32.77
430.923	32.68
431.283	32.91
431.643	33.2
432.003	33.12
432.363	32.86
432.722	33.1
433.082	33.31
433.442	33.18
433.802	33.23
434.161	33.35
434.521	33.3
434.881	33.28
435.24	33.13
435.6	33.35
435.959	33.36
436.319	33.5
436.678	33.6
437.037	33.6
437.396	33.75
437.756	33.87
438.115	34.18
438.474	34.18
438.833	34.23
439.192	33.94
439.551	34.15
439.91	34.15
440.269	34.44
440.628	34.56
440.987	34.53
441.345	34.2
441.704	34.32
442.063	34.3
442.421	34.5
442.78	34.4
443.138	34.36
443.497	34.62
443.855	34.81
444.214	34.92
444.572	35.08
444.93	34.99
445.288	35.07
445.647	35.24
446.005	35.21
446.363	35.26
446.721	35.34
447.079	35.45
447.437	35.17
447.795	35.23
448.153	35.15
448.51	35.18
448.868	35.09
449.226	35.23
449.584	35.48
449.941	35.5
450.299	35.88
450.656	35.97
451.014	35.98
451.371	36.23
451.729	36.34
452.086	36.56
452.443	36.45
452.801	36.55
453.158	36.75
453.515	36.78
453.872	36.64
454.229	37.02
454.586	36.96
454.943	36.67
455.3	36.77
455.657	37.17
456.014	36.94
456.371	37.05
456.727	37.46
457.084	37.31
457.441	37.19
457.797	37.54
458.154	37.41
458.51	37.65
458.867	37.42
459.223	37.59
459.58	37.69
459.936	37.76
460.292	37.89
460.648	37.85
461.005	37.56
461.361	37.63
461.717	37.5
462.073	37.55
462.429	37.49
462.785	37.56
463.141	37.95
463.496	38.21
463.852	38.13
464.208	38.55
464.564	38.84
464.919	38.51
465.275	38.85
465.631	38.74
465.986	38.67
466.342	38.88
466.697	39.16
467.052	39.09
467.408	39.25
467.763	39.15
468.118	39.1
468.473	39.27
468.829	39.25
469.184	39.26
469.539	39.14
469.894	39.42
470.249	39.46
470.603	39.47
470.958	39.67
471.313	39.63
471.668	39.83
472.023	39.63
472.377	39.93
472.732	39.7
473.086	40.13
473.441	40.29
473.795	40.13
474.15	39.85
474.504	40.2
474.859	40.17
475.213	40.26
475.567	40.55
475.921	40.33
476.275	40.5
476.63	40.7
476.984	40.67
477.338	40.7
477.692	40.96
478.045	40.82
478.399	40.5
478.753	41.03
479.107	41
479.461	40.89
479.814	41.05
480.168	40.99
480.521	41.34
480.875	41.24
481.228	41.34
481.582	41.23
481.935	41.51
482.289	41.46
482.642	41.59
482.995	41.35
483.348	41.31
483.701	41.34
484.055	41.27
484.408	40.87
484.761	40.94
485.114	40.92
485.466	40.67
485.819	40.63
486.172	40.75
486.525	40.74
486.878	40.8
487.23	40.72
487.583	41.03
487.936	41.31
488.288	41.5
488.641	41.42
488.993	41.35
489.345	41.3
489.698	41.21
490.05	41.2
490.402	41.21
490.754	41.37
491.107	41.61
491.459	41.9
491.811	42.04
492.163	42.25
492.515	42.44
492.866	42.36
493.218	42.14
493.57	41.92
493.922	42.01
494.274	41.99
494.625	42.07
494.977	42.42
495.328	42.66
495.68	42.93
496.031	43.32
496.383	43.39
496.734	43.51
497.086	43.91
497.437	43.55
497.788	43.72
498.139	43.87
498.49	43.59
498.842	43.79
499.193	43.55
499.544	43.77
499.894	43.87
500.245	43.88
500.596	43.96
500.947	44.08
501.298	43.97
501.648	44.24
501.999	44.44
502.35	44.28
502.7	44.66
503.051	44.73
503.401	44.8
503.752	44.87
504.102	44.75
504.452	44.99
504.803	44.93
505.153	45.07
505.503	45.06
505.853	45.23
506.203	45.15
506.553	45.3
506.903	45.05
507.253	45.32
507.603	45.34
507.953	45.27
508.303	45.13
508.652	45.42
509.002	45.56
509.352	45.4
509.701	45.62
510.051	45.52
510.4	45.3
510.75	45.51
511.099	45.53
511.449	45.7
511.798	45.66
512.147	45.82
512.496	45.65
512.846	45.96
513.195	45.86
513.544	45.98
513.893	45.89
514.242	46.01
514.591	46.05
514.939	45.96
515.288	46.17
515.637	46.2
515.986	46.33
516.334	46.67
516.683	46.5
517.032	46.69
517.38	46.81
517.729	46.63
518.077	46.86
518.426	46.83
518.774	46.91
519.122	46.97
519.47	46.84
519.819	46.75
520.167	46.6
520.515	46.39
520.863	46.76
521.211	46.67
521.559	46.88
521.907	46.8
522.255	47.05
522.602	47.2
522.95	47.41
523.298	47.56
523.645	47.6
523.993	47.64
524.341	47.73
524.688	47.95
525.036	47.91
525.383	47.89
525.73	48.13
526.078	47.97
526.425	48.05
526.772	47.77
527.119	47.89
527.466	47.79
527.814	47.8
528.161	47.66
528.508	47.59
528.854	47.73
529.201	47.77
529.548	47.82
529.895	47.55
530.242	47.42
530.588	47.41
530.935	47.63
531.282	47.66
531.628	47.52
531.975	47.53
532.321	47.54
532.667	47.88
533.014	48.1
533.36	48.53
533.706	48.57
534.052	48.57
534.399	48.5
534.745	48.28
535.091	48.35
535.437	48.22
535.783	48.3
536.129	48.42
536.474	48.71
536.82	48.8
537.166	48.86
537.512	49.21
537.857	49.14
538.203	49.19
538.549	49.08
538.894	49.18
539.239	49.04
539.585	49.39
539.93	49.44
540.276	49.78
540.621	49.83
540.966	49.91
541.311	49.91
541.656	50.05
542.001	50.27
542.346	50.14
542.691	49.87
543.036	49.55
543.381	49.35
543.726	49.31
544.071	49.4
544.415	49.42
544.76	49.67
545.105	49.92
545.449	49.78
545.794	50.03
546.138	50.25
546.483	50.45
546.827	50.53
547.171	50.61
547.516	50.77
547.86	50.69
548.204	51
548.548	50.87
548.892	50.73
549.236	50.94
549.58	50.89
549.924	51.04
550.268	51.22
550.612	51.39
550.956	51.46
551.3	51.54
551.643	51.61
551.987	51.86
552.33	52.02
552.674	52.07
553.017	51.87
553.361	52.12
553.704	52.23
554.048	52.1
554.391	52.24
554.734	52.24
555.077	52.11
555.42	52.22
555.764	52.19
556.107	52.17
556.45	52.25
556.793	52.57
557.135	52.43
557.478	52.6
557.821	52.59
558.164	52.82
558.507	52.99
558.849	52.88
559.192	53.11
559.534	52.78
559.877	53.16
560.219	53.44
560.562	53.12
560.904	53.08
561.246	52.95
561.589	53.22
561.931	53.39
562.273	53.67
562.615	53.65
562.957	53.82
563.299	53.31
563.641	53.57
563.983	53.75
564.325	53.64
564.667	53.69
565.008	53.88
565.35	53.53
565.692	54.02
566.033	54.14
566.375	54.37
566.716	54.08
567.058	54.09
567.399	54.37
567.741	54.25
568.082	54.23
568.423	53.97
568.764	54.03
569.105	54.18
569.447	54
569.788	54.34
570.129	54.38
570.47	54.41
570.811	54.4
571.151	54.7
571.492	55.03
571.833	54.83
572.174	54.78
572.514	54.92
572.855	54.97
573.195	54.96
573.536	54.64
573.876	54.7
574.217	54.74
574.557	54.85
574.898	54.59
575.238	55.05
575.578	55.15
575.918	55.11
576.258	55.05
576.598	55.42
576.938	55.34
577.278	55.36
577.618	55.47
577.958	55.4
578.298	55.6
578.638	55.58
578.977	55.28
579.317	55.82
579.657	55.65
579.996	55.87
580.336	55.99
580.675	56.23
581.014	55.85
581.354	56.18
581.693	56.34
582.032	56.28
582.372	56.32
582.711	56.72
583.05	56.47
583.389	56.46
583.728	56.25
584.067	56.63
584.406	56.71
584.745	56.58
585.083	57.02
585.422	57.11
585.761	56.61
586.1	56.99
586.438	56.97
586.777	56.91
587.115	57.29
587.454	57.03
587.792	57.25
588.13	57.4
588.469	57.54
588.807	57.05
589.145	57.41
589.483	57.25
589.821	57.69
590.159	57.51
590.497	57.18
590.835	57.25
591.173	57.33
591.511	57.9
591.849	57.66
592.187	57.5
592.524	57.7
592.862	57.79
593.2	57.63
593.537	57.85
593.875	57.89
594.212	58.31
594.55	57.74
594.887	58.01
595.224	58.34
595.561	57.95
595.899	58.2
596.236	58.06
596.573	58.01
596.91	58.28
597.247	58.43
597.584	57.87
597.921	58.33
598.258	58.51
598.594	58.06
598.931	58.08
599.268	58.02
599.604	58.35
599.941	58.19
600.277	58.18
600.614	58.41
600.95	58.73
601.287	59.08
601.623	59.26
601.959	59.21
602.296	58.62
602.632	59.13
602.968	59.39
603.304	59
603.64	58.88
603.976	59.04
604.312	59.46
604.648	59.39
604.984	59.11
605.319	59.27
605.655	59.24
605.991	59.13
606.326	58.88
606.662	58.95
606.998	58.91
607.333	59.35
607.668	59.01
608.004	59
608.339	59.49
608.674	59.71
609.01	59.79
609.345	60.27
609.68	59.6
610.015	59.99
610.35	60.1
610.685	60.19
611.02	59.97
611.355	59.99
611.689	59.6
612.024	60.26
612.359	59.85
612.694	59.85
613.028	60.05
613.363	60.25
613.697	60.15
614.032	60.18
614.366	60.73
614.7	60.13
615.035	61.17
615.369	60.25
615.703	60.78
616.037	61.11
616.371	61
616.705	60.87
617.039	60.96
617.373	61.13
617.707	61.02
618.041	61.35
618.375	61.15
618.709	60.4
619.042	61.29
619.376	61.55
619.71	61.33
620.043	61.47
620.377	61.24
620.71	61.24
621.043	60.65
621.377	61.05
621.71	62.15
622.043	61.69
622.376	62.7
622.709	62.06
623.043	62.06
623.376	61.41
623.709	61.58
624.041	61.99
624.374	62.1
624.707	62.08
625.04	61.71
625.373	61.83
625.705	62.18
626.038	62.03
626.37	61.68
626.703	62.08
627.035	62.03
627.368	62
627.7	62.16
628.032	62.04
628.365	62.32
628.697	62.18
629.029	62.54
629.361	61.79
629.693	62.32
630.025	61.91
630.357	62.49
630.689	62.61
631.021	62.36
631.353	61.87
631.684	62.73
632.016	62.7
632.348	62.79
632.679	62.81
633.011	62.73
633.342	62.75
633.674	63.29
634.005	63.33
634.336	62.73
634.668	63.54
634.999	62.86
635.33	62.75
635.661	63.17
635.992	62.99
636.323	62.9
636.654	63.16
636.985	63.1
637.316	62.84
637.647	63.25
637.977	63.12
638.308	63.64
638.639	63.43
638.969	63.37
639.3	63.43
639.63	64.19
639.961	63.42
640.291	63.21
640.622	63.93
640.952	63.81
641.282	63.21
641.612	64.58
641.943	64.08
642.273	64.31
642.603	64.03
642.933	63.86
643.263	64.31
643.592	64.06
643.922	64.23
644.252	63.54
644.582	64.14
644.911	64.49
645.241	64.29
645.571	64.54
645.9	64.09
646.23	64.38
646.559	64.99
646.888	64.44
647.218	64.76
647.547	64.53
647.876	64.82
648.205	64.74
648.534	64.78
648.863	64.82
649.192	64.61
649.521	65.16
649.85	64.86
650.179	65.32
650.508	65.07
650.837	65.25
651.165	64.62
651.494	64.93
651.822	65.35
652.151	64.85
652.479	64.22
652.808	65.18
653.136	64.77
653.465	65.53
653.793	65.31
654.121	65.2
654.449	64.82
654.777	65.44
655.105	65.35
655.433	65.53
655.761	65.79
656.089	65.56
656.417	65.69
656.745	65.96
657.073	65.07
657.4	66.07
657.728	66.29
658.056	65.95
658.383	65.89
658.711	66.55
659.038	65.4
659.365	66.4
659.693	65.85
660.02	65.34
660.347	66.46
660.674	65.23
661.001	65.92
661.329	66.19
661.656	65.26
661.982	66.12
662.309	66.14
662.636	65.5
662.963	65.54
663.29	66.38
663.616	65.98
663.943	65.66
664.27	66.22
664.596	66.27
664.923	66.41
665.249	66.27
665.576	66.2
665.902	65.97
666.228	66.61
666.554	66.75
666.881	66.18
667.207	66.33
667.533	66.34
667.859	66.95
668.185	66.52
668.511	66.45
