Data from 0366_forehead_Reflection__0__319.txt Node

Date: Fri Oct 20 23:12:35 CDT 2023
User: ToomeyLab
Spectrometer: FLMS14357
Trigger mode: 0
Integration Time (sec): 1.000000E-2
Scans to average: 100
Electric dark correction enabled: true
Nonlinearity correction enabled: false
Boxcar width: 0
XAxis mode: Wavelengths
Number of Pixels in Spectrum: 2048
>>>>>Begin Spectral Data<<<<<
189.047	112.39
189.435	112.39
189.823	112.39
190.211	168.81
190.599	-130.51
190.987	99.4
191.375	-91.46
191.763	41.7
192.151	606.69
192.538	-154.39
192.926	-92.5
193.314	173.79
193.702	86.99
194.089	87.9
194.477	839.19
194.864	111.32
195.252	-478.72
195.639	272.77
196.027	23.41
196.414	81.81
196.801	33.25
197.189	20.22
197.576	0.29
197.963	-83.28
198.351	61.68
198.738	-15.01
199.125	63.59
199.512	61.16
199.899	53.12
200.286	23.75
200.673	38.65
201.06	90.41
201.447	35.53
201.833	48.71
202.22	62.95
202.607	74.48
202.994	101.38
203.38	29.25
203.767	39.98
204.154	46.92
204.54	39.93
204.927	16.65
205.313	42.3
205.699	49.06
206.086	48.19
206.472	39.87
206.858	62.45
207.245	17.83
207.631	66.03
208.017	30.12
208.403	21.79
208.789	42.64
209.175	49.79
209.561	37.03
209.947	22.29
210.333	27.74
210.719	83.76
211.105	-1.37
211.491	41.45
211.876	36.96
212.262	23.82
212.648	32.41
213.034	28.43
213.419	21.36
213.805	39.84
214.19	21.88
214.576	15.28
214.961	32.67
215.346	51.04
215.732	38.59
216.117	5.15
216.502	66.64
216.888	21.39
217.273	23.52
217.658	29.44
218.043	18.12
218.428	35.35
218.813	25.57
219.198	19.29
219.583	25.39
219.968	-1.65
220.353	17.54
220.738	23.19
221.122	14.47
221.507	37.65
221.892	28.91
222.276	20.46
222.661	27.68
223.046	10.97
223.43	8.12
223.815	26.78
224.199	31.14
224.583	15.09
224.968	10.32
225.352	10.57
225.736	11.34
226.121	21.04
226.505	9.21
226.889	7.92
227.273	12.3
227.657	14.66
228.041	15.83
228.425	7.86
228.809	8.14
229.193	5.15
229.577	9.62
229.961	8.33
230.344	7.27
230.728	6.4
231.112	7.11
231.495	6.1
231.879	7.2
232.263	8.56
232.646	5.84
233.03	5.94
233.413	5.37
233.797	7.57
234.18	6.82
234.563	9.6
234.946	9.9
235.33	7.48
235.713	7.83
236.096	7.59
236.479	7.06
236.862	7.94
237.245	7.99
237.628	7.07
238.011	8.6
238.394	5.23
238.777	9.37
239.16	6.85
239.543	7.92
239.925	7.71
240.308	7.73
240.691	7.52
241.073	8.28
241.456	7.56
241.838	6.93
242.221	8
242.603	6.99
242.986	7.16
243.368	7.06
243.75	6.41
244.133	6.23
244.515	6.27
244.897	6.11
245.279	6.26
245.661	5.69
246.043	6.19
246.425	6.74
246.807	6.68
247.189	6.12
247.571	6.57
247.953	6.38
248.335	6.59
248.717	5.95
249.098	5.89
249.48	5.95
249.862	5.79
250.243	6.44
250.625	6.62
251.006	6.9
251.388	6.27
251.769	6.98
252.151	6.41
252.532	7.18
252.913	6.09
253.295	6.6
253.676	6.91
254.057	6.8
254.438	6.39
254.819	6.12
255.2	6.32
255.581	6.33
255.962	6.3
256.343	7.27
256.724	6.46
257.105	6.64
257.486	7.06
257.867	6.8
258.247	7.46
258.628	6.68
259.009	6.66
259.389	6.07
259.77	5.94
260.15	6.65
260.531	6.4
260.911	6.17
261.292	5.82
261.672	6.13
262.052	6
262.432	5.88
262.813	5.99
263.193	6.45
263.573	6.64
263.953	7.18
264.333	6.62
264.713	6.59
265.093	6.96
265.473	6.91
265.853	6.17
266.233	6.73
266.612	5.8
266.992	6.89
267.372	6.87
267.752	6.69
268.131	6.71
268.511	6.72
268.89	6.68
269.27	6.21
269.649	6.08
270.029	6.08
270.408	6.19
270.787	6.6
271.167	6.43
271.546	6.23
271.925	7.28
272.304	6.65
272.683	6.55
273.062	6.39
273.441	6.61
273.82	6.26
274.199	6.66
274.578	6.15
274.957	6.33
275.336	6.33
275.715	6.46
276.093	5.89
276.472	6.48
276.851	6.08
277.229	6.34
277.608	6.13
277.986	6.27
278.365	6.61
278.743	5.81
279.122	5.59
279.5	6.8
279.878	5.91
280.257	6.28
280.635	6.32
281.013	6.57
281.391	6.61
281.769	6.48
282.147	6.44
282.525	6.27
282.903	6.22
283.281	6.21
283.659	6.11
284.037	6.38
284.415	5.81
284.792	6.08
285.17	6.29
285.548	6.26
285.925	5.71
286.303	6.32
286.68	6.03
287.058	6.65
287.435	6.2
287.813	5.9
288.19	6.38
288.567	6.35
288.945	6.5
289.322	6.62
289.699	6.11
290.076	6.76
290.453	6.82
290.83	6.27
291.207	7.03
291.584	6.44
291.961	6.31
292.338	6.82
292.715	6.55
293.092	6.88
293.469	6.7
293.845	6.58
294.222	6.84
294.599	6.87
294.975	7.82
295.352	7.05
295.728	7.32
296.105	6.94
296.481	7.38
296.858	7.35
297.234	7.91
297.61	7.23
297.986	7.33
298.363	7.62
298.739	7.25
299.115	7.53
299.491	7.21
299.867	7.29
300.243	7.6
300.619	7.61
300.995	7.13
301.371	8.17
301.746	7.45
302.122	8.24
302.498	7.46
302.874	8.04
303.249	8.05
303.625	8.32
304	8.79
304.376	8.51
304.751	8.14
305.127	8.11
305.502	9.39
305.878	8.53
306.253	8.7
306.628	8.63
307.003	8.63
307.378	8.93
307.754	9
308.129	9.22
308.504	9.63
308.879	9.29
309.254	9.49
309.629	9.19
310.003	8.88
310.378	9.59
310.753	9.39
311.128	9.55
311.502	9.74
311.877	9.33
312.252	9.24
312.626	9.96
313.001	10
313.375	9.64
313.75	9.92
314.124	9.75
314.498	10.03
314.873	9.87
315.247	10.2
315.621	10.5
315.995	10.81
316.369	10.22
316.743	10.66
317.117	10.72
317.491	10.28
317.865	10.95
318.239	10.73
318.613	10.94
318.987	10.51
319.361	10.57
319.734	10.65
320.108	10.94
320.482	11.52
320.855	11.42
321.229	11.96
321.602	11.29
321.976	11.05
322.349	12.03
322.723	11.06
323.096	12.2
323.469	11.15
323.843	11.7
324.216	11.82
324.589	11.94
324.962	12.15
325.335	11.91
325.708	11.83
326.081	12.23
326.454	12.18
326.827	12.55
327.2	12.47
327.573	12.47
327.945	12.23
328.318	11.97
328.691	12.38
329.063	12.69
329.436	12.66
329.809	12.46
330.181	12.98
330.553	13.28
330.926	12.98
331.298	12.7
331.671	12.77
332.043	13.03
332.415	13.43
332.787	13.18
333.159	12.66
333.532	13.59
333.904	13.66
334.276	12.74
334.648	13.84
335.02	13.98
335.391	13.48
335.763	13.84
336.135	13.9
336.507	13.81
336.879	13.28
337.25	13.86
337.622	14.19
337.993	13.94
338.365	13.82
338.736	14.22
339.108	14.04
339.479	14.14
339.851	14.18
340.222	14.1
340.593	13.73
340.964	14
341.336	14.88
341.707	14.47
342.078	14.37
342.449	14.33
342.82	14.47
343.191	15.14
343.562	14.9
343.933	14.75
344.303	14.73
344.674	15.12
345.045	15.03
345.416	15.34
345.786	15.08
346.157	15.64
346.527	15.3
346.898	15.27
347.268	15.52
347.639	15.27
348.009	15.3
348.38	15.71
348.75	15.61
349.12	15.67
349.49	15.49
349.861	15.92
350.231	15.89
350.601	16.48
350.971	16.28
351.341	16.36
351.711	16.92
352.081	16.47
352.45	16.2
352.82	16.31
353.19	16.82
353.56	16.67
353.929	16.62
354.299	16.52
354.669	16.71
355.038	16.6
355.408	17
355.777	16.62
356.147	16.92
356.516	16.76
356.885	16.96
357.254	17.04
357.624	16.94
357.993	16.98
358.362	16.99
358.731	17.02
359.1	16.83
359.469	17.18
359.838	17.41
360.207	17.33
360.576	17.6
360.945	17.2
361.314	17.9
361.682	17.87
362.051	17.81
362.42	17.54
362.788	18.12
363.157	17.94
363.525	17.78
363.894	17.88
364.262	17.94
364.631	18.35
364.999	17.9
365.367	18.56
365.735	18.14
366.104	18.54
366.472	18.43
366.84	18.46
367.208	18.55
367.576	18.7
367.944	18.54
368.312	18.36
368.68	18.93
369.048	18.87
369.416	19.47
369.783	19.24
370.151	19.2
370.519	19.42
370.886	19.15
371.254	19.49
371.621	19.67
371.989	19.42
372.356	19.76
372.724	19.89
373.091	19.66
373.458	19.31
373.826	19.79
374.193	19.69
374.56	19.92
374.927	19.88
375.294	20.04
375.661	19.96
376.028	20.51
376.395	20.49
376.762	20.2
377.129	20.57
377.496	20.02
377.863	21.07
378.229	20.78
378.596	20.42
378.963	20.82
379.329	20.72
379.696	21.12
380.062	20.73
380.429	20.84
380.795	20.85
381.161	20.99
381.528	21.45
381.894	21.48
382.26	21.58
382.626	21.51
382.993	21.43
383.359	21.47
383.725	21.94
384.091	22.07
384.457	21.81
384.823	21.84
385.188	22.17
385.554	21.96
385.92	22.05
386.286	22.14
386.651	22.2
387.017	22.08
387.383	22.12
387.748	21.98
388.114	22.19
388.479	22.27
388.845	22.65
389.21	22.71
389.575	22.54
389.94	22.38
390.306	23.03
390.671	22.79
391.036	22.79
391.401	23.2
391.766	23.05
392.131	23.22
392.496	23.46
392.861	23.32
393.226	23.4
393.591	23.18
393.956	23.42
394.32	23.53
394.685	23.39
395.05	23.63
395.414	23.66
395.779	23.66
396.143	23.87
396.508	23.78
396.872	23.88
397.236	23.96
397.601	23.99
397.965	24.06
398.329	24.25
398.694	24.49
399.058	24.18
399.422	24.61
399.786	24.7
400.15	24.63
400.514	24.69
400.878	24.85
401.242	24.89
401.605	24.62
401.969	24.69
402.333	25.06
402.697	25.17
403.06	25.25
403.424	25.24
403.787	24.79
404.151	25.34
404.514	25.11
404.878	25.48
405.241	25.41
405.604	25.62
405.968	25.5
406.331	25.73
406.694	25.91
407.057	25.92
407.42	26.27
407.783	25.72
408.146	25.83
408.509	25.96
408.872	26.26
409.235	26.28
409.598	26.49
409.961	26.41
410.323	26.53
410.686	26.28
411.049	26.62
411.411	26.57
411.774	26.72
412.136	26.84
412.499	26.74
412.861	26.92
413.223	27.18
413.586	27.13
413.948	27.21
414.31	27.33
414.672	27.28
415.035	27.39
415.397	27.5
415.759	27.55
416.121	27.52
416.483	27.87
416.845	27.78
417.206	27.78
417.568	27.64
417.93	27.77
418.292	27.89
418.653	27.87
419.015	27.89
419.377	27.98
419.738	27.84
420.1	27.83
420.461	27.69
420.822	27.88
421.184	27.85
421.545	27.98
421.906	28.09
422.267	28.07
422.629	27.99
422.99	27.88
423.351	28.11
423.712	28.05
424.073	28.22
424.434	28.44
424.795	28.56
425.155	28.49
425.516	28.51
425.877	28.48
426.238	28.64
426.598	28.69
426.959	28.57
427.32	28.85
427.68	28.91
428.041	28.84
428.401	29.23
428.761	29.37
429.122	29.34
429.482	29.56
429.842	29.74
430.202	29.91
430.563	30.19
430.923	29.89
431.283	30.01
431.643	30.11
432.003	30.26
432.363	30.19
432.722	30.56
433.082	30.28
433.442	30.33
433.802	30.68
434.161	30.49
434.521	30.56
434.881	30.65
435.24	30.54
435.6	30.71
435.959	30.51
436.319	30.62
436.678	30.75
437.037	30.79
437.396	31.06
437.756	31.1
438.115	31.05
438.474	31.14
438.833	31.47
439.192	31.21
439.551	31.4
439.91	31.35
440.269	31.49
440.628	31.58
440.987	31.84
441.345	31.52
441.704	31.56
442.063	31.65
442.421	31.77
442.78	31.62
443.138	31.72
443.497	31.84
443.855	32.01
444.214	32.04
444.572	32.11
444.93	32.3
445.288	32.46
445.647	32.58
446.005	32.26
446.363	32.54
446.721	32.2
447.079	32.67
447.437	32.48
447.795	32.54
448.153	32.48
448.51	32.41
448.868	32.42
449.226	32.48
449.584	32.72
449.941	32.85
450.299	32.98
450.656	32.99
451.014	33.08
451.371	33.48
451.729	33.25
452.086	33.78
452.443	33.77
452.801	33.72
453.158	33.98
453.515	34.23
453.872	34.21
454.229	34.28
454.586	34.34
454.943	33.96
455.3	34.05
455.657	34.3
456.014	34.41
456.371	34.54
456.727	34.56
457.084	34.52
457.441	34.54
457.797	34.73
458.154	34.66
458.51	35.05
458.867	34.96
459.223	34.91
459.58	35.18
459.936	35.3
460.292	35.15
460.648	35.14
461.005	34.88
461.361	35.09
461.717	34.86
462.073	34.86
462.429	34.84
462.785	35
463.141	35.19
463.496	35.42
463.852	35.7
464.208	35.69
464.564	36.1
464.919	36
465.275	35.91
465.631	36.33
465.986	36.11
466.342	36.28
466.697	36.34
467.052	36.26
467.408	36.6
467.763	36.65
468.118	36.69
468.473	36.73
468.829	36.77
469.184	36.63
469.539	36.75
469.894	36.91
470.249	36.77
470.603	37.01
470.958	37.16
471.313	36.94
471.668	37.06
472.023	37.24
472.377	37.2
472.732	37.34
473.086	37.51
473.441	37.51
473.795	37.65
474.15	37.45
474.504	37.75
474.859	37.59
475.213	37.78
475.567	38.08
475.921	37.74
476.275	38
476.63	38.08
476.984	38.31
477.338	38.38
477.692	38.34
478.045	38.21
478.399	38.26
478.753	38.34
479.107	38.58
479.461	38.49
479.814	38.63
480.168	38.36
480.521	38.61
480.875	38.73
481.228	38.9
481.582	38.81
481.935	38.78
482.289	38.91
482.642	39.04
482.995	38.87
483.348	38.86
483.701	38.75
484.055	38.76
484.408	38.68
484.761	38.4
485.114	38.6
485.466	38.13
485.819	38.18
486.172	38.17
486.525	38.28
486.878	38.18
487.23	38.3
487.583	38.45
487.936	38.71
488.288	39.06
488.641	38.94
488.993	38.98
489.345	38.9
489.698	38.81
490.05	38.8
490.402	38.81
490.754	39
491.107	39.04
491.459	39.43
491.811	39.66
492.163	39.78
492.515	39.84
492.866	39.97
493.218	39.9
493.57	39.56
493.922	39.61
494.274	39.61
494.625	39.77
494.977	39.98
495.328	40.28
495.68	40.42
496.031	40.76
496.383	41.31
496.734	41.26
497.086	41.38
497.437	41.28
497.788	41.26
498.139	41.61
498.49	41.29
498.842	41.51
499.193	41.46
499.544	41.47
499.894	41.43
500.245	41.45
500.596	41.61
500.947	41.89
501.298	41.87
501.648	41.96
501.999	42.19
502.35	42.18
502.7	42.26
503.051	42.38
503.401	42.45
503.752	42.72
504.102	42.72
504.452	42.86
504.803	42.69
505.153	42.82
505.503	42.81
505.853	42.89
506.203	43.05
506.553	42.92
506.903	42.97
507.253	42.94
507.603	43.03
507.953	43.18
508.303	43.18
508.652	43.26
509.002	43.32
509.352	43.12
509.701	43.64
510.051	43.26
510.4	43.39
510.75	43.28
511.099	43.55
511.449	43.68
511.798	43.55
512.147	43.54
512.496	43.81
512.846	43.79
513.195	43.92
513.544	44
513.893	43.9
514.242	43.88
514.591	43.98
514.939	43.99
515.288	44.18
515.637	44.28
515.986	44.36
516.334	44.37
516.683	44.34
517.032	44.64
517.38	44.51
517.729	44.68
518.077	44.87
518.426	44.93
518.774	44.91
519.122	44.99
519.47	44.83
519.819	44.73
520.167	44.62
520.515	44.76
520.863	44.68
521.211	44.72
521.559	44.79
521.907	44.66
522.255	45.14
522.602	45.38
522.95	45.23
523.298	45.68
523.645	45.61
523.993	45.76
524.341	45.64
524.688	45.77
525.036	46.03
525.383	45.97
525.73	46.26
526.078	45.88
526.425	45.96
526.772	46.1
527.119	45.89
527.466	46
527.814	45.78
528.161	45.88
528.508	45.76
528.854	45.86
529.201	45.91
529.548	46
529.895	45.89
530.242	45.63
530.588	45.78
530.935	45.86
531.282	45.85
531.628	45.73
531.975	45.52
532.321	45.76
532.667	46.16
533.014	46.39
533.36	46.71
533.706	46.8
534.052	46.91
534.399	46.75
534.745	46.75
535.091	46.77
535.437	46.47
535.783	46.62
536.129	46.62
536.474	46.83
536.82	46.97
537.166	47.09
537.512	47.38
537.857	47.59
538.203	47.55
538.549	47.44
538.894	47.28
539.239	47.57
539.585	47.65
539.93	47.69
540.276	48.03
540.621	48.16
540.966	48.39
541.311	48.51
541.656	48.44
542.001	48.62
542.346	48.64
542.691	48.31
543.036	48.14
543.381	47.84
543.726	47.7
544.071	47.72
544.415	47.77
544.76	48.04
545.105	48.19
545.449	48.3
545.794	48.3
546.138	48.73
546.483	48.81
546.827	49.01
547.171	49.21
547.516	49.17
547.86	49.09
548.204	49.35
548.548	49.37
548.892	49.29
549.236	49.39
549.58	49.36
549.924	49.64
550.268	49.87
550.612	49.86
550.956	50.09
551.3	50.19
551.643	50.4
551.987	50.26
552.33	50.48
552.674	50.75
553.017	50.54
553.361	50.72
553.704	50.74
554.048	50.89
554.391	50.81
554.734	50.94
555.077	50.95
555.42	50.84
555.764	50.91
556.107	51.16
556.45	51.25
556.793	51.36
557.135	51.16
557.478	51.28
557.821	51.3
558.164	51.43
558.507	51.57
558.849	51.56
559.192	51.83
559.534	51.67
559.877	51.6
560.219	51.83
560.562	51.99
560.904	51.88
561.246	51.85
561.589	52.12
561.931	52.08
562.273	52.36
562.615	52.45
562.957	52.13
563.299	52.36
563.641	52.22
563.983	52.34
564.325	52.48
564.667	52.3
565.008	52.57
565.35	52.48
565.692	53.05
566.033	52.82
566.375	52.9
566.716	53.08
567.058	52.95
567.399	53.06
567.741	52.94
568.082	52.88
568.423	53.07
568.764	52.71
569.105	52.93
569.447	52.97
569.788	53.11
570.129	53.17
570.47	53.31
570.811	53.32
571.151	53.57
571.492	53.64
571.833	53.71
572.174	53.78
572.514	53.58
572.855	53.85
573.195	53.93
573.536	53.66
573.876	53.69
574.217	53.51
574.557	53.83
574.898	53.73
575.238	53.77
575.578	53.92
575.918	53.85
576.258	54.02
576.598	54.24
576.938	54.35
577.278	54.19
577.618	54.28
577.958	54.31
578.298	54.58
578.638	54.29
578.977	54.52
579.317	54.8
579.657	54.72
579.996	54.94
580.336	55.19
580.675	55.26
581.014	55.05
581.354	55.25
581.693	55.44
582.032	55.31
582.372	55.29
582.711	55.5
583.05	55.76
583.389	55.82
583.728	55.25
584.067	55.82
584.406	55.71
584.745	56.01
585.083	55.99
585.422	56.05
585.761	56.41
586.1	56.16
586.438	56.01
586.777	56.29
587.115	56.2
587.454	56.56
587.792	56.27
588.13	56.28
588.469	56.6
588.807	56.27
589.145	56.34
589.483	56.94
589.821	56.8
590.159	56.94
590.497	56.44
590.835	56.72
591.173	56.67
591.511	56.96
591.849	57.13
592.187	56.75
592.524	57.15
592.862	57.01
593.2	56.8
593.537	56.99
593.875	56.93
594.212	57.17
594.55	56.86
594.887	57.19
595.224	57.05
595.561	57.28
595.899	57.51
596.236	57.49
596.573	57.6
596.91	57.89
597.247	57.43
597.584	57.47
597.921	57.63
598.258	57.68
598.594	57.72
598.931	57.74
599.268	57.59
599.604	57.44
599.941	57.43
600.277	57.7
600.614	57.96
600.95	57.88
601.287	58
601.623	58.47
601.959	58.68
602.296	58.16
602.632	58.25
602.968	58.44
603.304	58.55
603.64	58.39
603.976	58.62
604.312	58.71
604.648	58.79
604.984	58.62
605.319	58.44
605.655	58.75
605.991	58.71
606.326	58.54
606.662	58.46
606.998	58.26
607.333	58.64
607.668	58.42
608.004	58.55
608.339	58.99
608.674	58.87
609.01	59.08
609.345	59.61
609.68	59.73
610.015	59.74
610.35	59.62
610.685	59.41
611.02	59.25
611.355	59.7
611.689	59.65
612.024	59.73
612.359	59.56
612.694	59.47
613.028	59.53
613.363	59.78
613.697	59.54
614.032	59.34
614.366	60.28
614.7	60.13
615.035	60.28
615.369	60.19
615.703	60.21
616.037	60.74
616.371	60.93
616.705	60.5
617.039	60.63
617.373	60.89
617.707	60.62
618.041	61.21
618.375	60.91
618.709	60.5
619.042	60.99
619.376	61.38
619.71	61.13
620.043	60.83
620.377	61.25
620.71	60.48
621.043	61.28
621.377	60.87
621.71	61.95
622.043	61.49
622.376	61.89
622.709	61.77
623.043	61.99
623.376	61.43
623.709	61.24
624.041	61.7
624.374	62.12
624.707	61.84
625.04	61.29
625.373	61.54
625.705	61.58
626.038	61.6
626.37	61.65
626.703	61.5
627.035	61.76
627.368	61.68
627.7	62.09
628.032	62.08
628.365	62.27
628.697	62.25
629.029	62.3
629.361	61.71
629.693	61.75
630.025	62.52
630.357	62.05
630.689	62.42
631.021	62.57
631.353	62.58
631.684	62.33
632.016	62.53
632.348	62.47
632.679	62.96
633.011	63.01
633.342	63.32
633.674	62.73
634.005	63.29
634.336	63.03
634.668	62.82
634.999	62.83
635.33	62.18
635.661	63.24
635.992	62.73
636.323	63.3
636.654	63.23
636.985	63.19
637.316	62.96
637.647	63.22
637.977	62.86
638.308	63.4
638.639	63.17
638.969	63.92
639.3	63.77
639.63	64.01
639.961	63.42
640.291	63.72
640.622	63.33
640.952	64.02
641.282	63.87
641.612	64.06
641.943	63.99
642.273	64.05
642.603	64.28
642.933	64.29
643.263	64.34
643.592	64.27
643.922	64.17
644.252	64.6
644.582	64.4
644.911	64.5
645.241	64.59
645.571	64.28
645.9	63.62
646.23	64.88
646.559	64.66
646.888	64.71
647.218	64.68
647.547	64.75
647.876	65.19
648.205	65.14
648.534	65.11
648.863	65.35
649.192	64.82
649.521	65.08
649.85	65.12
650.179	65.32
650.508	64.8
650.837	65.5
651.165	65.19
651.494	65.21
651.822	64.99
652.151	65.07
652.479	64.66
652.808	65.77
653.136	64.77
653.465	65.65
653.793	65.54
654.121	65.18
654.449	66.06
654.777	65.66
655.105	65.9
655.433	65.98
655.761	65.59
656.089	66.26
656.417	65.98
656.745	65.87
657.073	65.3
657.4	66.22
657.728	65.98
658.056	65.94
658.383	65.69
658.711	66.1
659.038	66.05
659.365	66.82
659.693	66.53
660.02	65.83
660.347	66.7
660.674	65.58
661.001	66.36
661.329	65.92
661.656	66.12
661.982	66.7
662.309	66.04
662.636	65.95
662.963	65.86
663.29	67.14
663.616	65.95
663.943	65.61
664.27	66.29
664.596	66.4
664.923	66.54
665.249	67.03
665.576	66.69
665.902	66.52
666.228	66.57
666.554	66.81
666.881	66.54
667.207	66.95
667.533	66.56
667.859	67.01
668.185	66.66
668.511	67.82
668.837	67.2
