Data from 0366_chest_Reflection__2__311.txt Node

Date: Fri Oct 20 23:09:35 CDT 2023
User: ToomeyLab
Spectrometer: FLMS14357
Trigger mode: 0
Integration Time (sec): 1.000000E-2
Scans to average: 100
Electric dark correction enabled: true
Nonlinearity correction enabled: false
Boxcar width: 0
XAxis mode: Wavelengths
Number of Pixels in Spectrum: 2048
>>>>>Begin Spectral Data<<<<<
189.047	-24.17
189.435	-24.17
189.823	-24.17
190.211	143.48
190.599	-138.7
190.987	120.59
191.375	458.72
191.763	70.78
192.151	868.9
192.538	198.43
192.926	-1025.5
193.314	77.8
193.702	106.36
194.089	117.36
194.477	-145.13
194.864	-47.57
195.252	-2460.47
195.639	542.98
196.027	29.93
196.414	67.52
196.801	46.79
197.189	-14.9
197.576	-54.4
197.963	-426.96
198.351	27.56
198.738	24.5
199.125	29.52
199.512	24.62
199.899	-17.93
200.286	-16.89
200.673	-3.33
201.06	48.52
201.447	-0.77
201.833	-12.88
202.22	-4.35
202.607	10.44
202.994	78.67
203.38	-8.62
203.767	2.91
204.154	44.85
204.54	27.85
204.927	5.98
205.313	-3.43
205.699	46.3
206.086	18.03
206.472	25.12
206.858	43.5
207.245	-13.24
207.631	21.6
208.017	18.29
208.403	3.79
208.789	36
209.175	-15.17
209.561	27.2
209.947	-22.87
210.333	31.91
210.719	31.22
211.105	-6.8
211.491	22.95
211.876	-9.29
212.262	8.31
212.648	15.33
213.034	-3.01
213.419	-22.29
213.805	20.63
214.19	17.47
214.576	-17.21
214.961	1.05
215.346	18.24
215.732	-3.96
216.117	-26.93
216.502	1.45
216.888	-19.1
217.273	9.2
217.658	-6.08
218.043	-12.79
218.428	-2.49
218.813	0.41
219.198	-15.75
219.583	-36.92
219.968	-19.21
220.353	2.92
220.738	32.06
221.122	-6.33
221.507	8.04
221.892	-16.4
222.276	-13.57
222.661	23.66
223.046	14.75
223.43	0.15
223.815	7.95
224.199	12.54
224.583	-13.24
224.968	-0.62
225.352	-3.12
225.736	0.73
226.121	12.45
226.505	2.15
226.889	2.32
227.273	-3.94
227.657	5.28
228.041	-1.61
228.425	-1.99
228.809	1.92
229.193	0.83
229.577	3.22
229.961	-0.27
230.344	0.4
230.728	-0.63
231.112	1.24
231.495	0.75
231.879	1.04
232.263	2.13
232.646	-0.24
233.03	1.16
233.413	0.69
233.797	0.89
234.18	0.61
234.563	0.03
234.946	1.15
235.33	1.33
235.713	0.51
236.096	2.96
236.479	0.78
236.862	1.26
237.245	-0.39
237.628	1.7
238.011	2.65
238.394	-0.22
238.777	2.62
239.16	-0.14
239.543	3.13
239.925	2.09
240.308	1.66
240.691	1.79
241.073	2.62
241.456	2.33
241.838	1.34
242.221	2.19
242.603	0.91
242.986	0.93
243.368	1.36
243.75	0.52
244.133	0.65
244.515	0.54
244.897	0.74
245.279	1.14
245.661	1.01
246.043	0.89
246.425	0.57
246.807	1.45
247.189	0.85
247.571	-0.2
247.953	0.76
248.335	1.29
248.717	0.8
249.098	0.73
249.48	0.87
249.862	0.76
250.243	0.87
250.625	1.34
251.006	1.32
251.388	0.71
251.769	1.39
252.151	1.21
252.532	0.86
252.913	0.15
253.295	0.06
253.676	1.09
254.057	0.89
254.438	1.05
254.819	1.06
255.2	0.27
255.581	0.44
255.962	0.5
256.343	2.12
256.724	-0.3
257.105	0.9
257.486	0.46
257.867	1.73
258.247	1.06
258.628	1.05
259.009	0.98
259.389	0.15
259.77	0.24
260.15	1.36
260.531	1.73
260.911	1.36
261.292	0.62
261.672	0.87
262.052	1
262.432	0.96
262.813	0.98
263.193	1.05
263.573	1.13
263.953	0.98
264.333	1.46
264.713	1.56
265.093	1.35
265.473	1.09
265.853	1.03
266.233	0.7
266.612	0.66
266.992	0.81
267.372	0.64
267.752	1.11
268.131	1.36
268.511	1.44
268.89	1.2
269.27	0.8
269.649	0.22
270.029	0.5
270.408	0.99
270.787	1.11
271.167	1.06
271.546	0.9
271.925	1.42
272.304	0.65
272.683	1.2
273.062	0.68
273.441	0.77
273.82	0.83
274.199	1.15
274.578	0.84
274.957	1.26
275.336	0.98
275.715	0.63
276.093	0.77
276.472	1.37
276.851	0.96
277.229	1.18
277.608	0.78
277.986	0.5
278.365	1.2
278.743	0.79
279.122	0.96
279.5	0.81
279.878	0.26
280.257	0.62
280.635	0.9
281.013	1.11
281.391	0.99
281.769	0.57
282.147	0.73
282.525	1.01
282.903	1.18
283.281	0.78
283.659	0.8
284.037	1.03
284.415	0.21
284.792	0.87
285.17	0.95
285.548	0.77
285.925	0.73
286.303	0.58
286.68	0.74
287.058	0.88
287.435	0.9
287.813	0.48
288.19	1.11
288.567	0.92
288.945	1.1
289.322	1.14
289.699	0.46
290.076	1.56
290.453	0.41
290.83	0.71
291.207	1
291.584	0.54
291.961	0.93
292.338	0.83
292.715	1.01
293.092	0.89
293.469	1.04
293.845	0.82
294.222	0.82
294.599	0.91
294.975	1.33
295.352	0.64
295.728	1.25
296.105	0.72
296.481	0.52
296.858	0.66
297.234	1.51
297.61	0.63
297.986	1.07
298.363	0.92
298.739	0.9
299.115	1.03
299.491	0.98
299.867	0.93
300.243	1.23
300.619	1.3
300.995	0.77
301.371	1.24
301.746	1.11
302.122	1.22
302.498	0.97
302.874	1.36
303.249	0.81
303.625	1.24
304	1.31
304.376	0.88
304.751	0.47
305.127	0.39
305.502	0.85
305.878	0.93
306.253	1.04
306.628	1.21
307.003	1.19
307.378	1.29
307.754	1.24
308.129	1.55
308.504	1.57
308.879	0.44
309.254	1.18
309.629	0.31
310.003	0.05
310.378	1.29
310.753	1.34
311.128	1.42
311.502	1.1
311.877	0.77
312.252	1.02
312.626	1.5
313.001	1.31
313.375	1.29
313.75	1.12
314.124	0.84
314.498	1.18
314.873	1.18
315.247	1.25
315.621	1.13
315.995	1.17
316.369	1.11
316.743	1.37
317.117	0.93
317.491	0.66
317.865	1.5
318.239	1.11
318.613	1.12
318.987	1.39
319.361	0.39
319.734	0.66
320.108	1.22
320.482	1.48
320.855	1.56
321.229	1.73
321.602	0.9
321.976	1.51
322.349	1.33
322.723	0.78
323.096	1.19
323.469	0.81
323.843	1.32
324.216	1.66
324.589	1.65
324.962	1.39
325.335	1.35
325.708	1.29
326.081	1.08
326.454	1.9
326.827	1.6
327.2	1.62
327.573	1.55
327.945	1.29
328.318	1
328.691	1.07
329.063	1.7
329.436	1.02
329.809	1.31
330.181	1.3
330.553	1.48
330.926	1.64
331.298	0.42
331.671	1.16
332.043	0.7
332.415	1.33
332.787	1.28
333.159	0.97
333.532	1.38
333.904	1.48
334.276	1.34
334.648	1.47
335.02	1.37
335.391	1.16
335.763	1.47
336.135	1.4
336.507	1.48
336.879	1.49
337.25	1.27
337.622	1.32
337.993	1.49
338.365	1.16
338.736	1.68
339.108	1.49
339.479	1.06
339.851	1.17
340.222	0.8
340.593	0.98
340.964	1.53
341.336	1.91
341.707	1.24
342.078	1.36
342.449	1.34
342.82	1.45
343.191	1.07
343.562	1.22
343.933	1.24
344.303	1.63
344.674	1.36
345.045	1.83
345.416	1.66
345.786	0.93
346.157	1.41
346.527	1.43
346.898	1.22
347.268	1.63
347.639	1.24
348.009	1.06
348.38	1.51
348.75	1.28
349.12	1.36
349.49	1.14
349.861	1.35
350.231	1.55
350.601	1.69
350.971	1.64
351.341	1.26
351.711	2.08
352.081	1.51
352.45	0.95
352.82	1.51
353.19	1.59
353.56	1.47
353.929	0.96
354.299	1.24
354.669	1.63
355.038	1.83
355.408	1.44
355.777	1.63
356.147	1.25
356.516	0.93
356.885	1.32
357.254	1.55
357.624	1.69
357.993	1.29
358.362	1.2
358.731	1.15
359.1	1.01
359.469	1.26
359.838	1.39
360.207	1.42
360.576	1.44
360.945	0.95
361.314	1.17
361.682	1.44
362.051	1.36
362.42	1.43
362.788	1.88
363.157	1.41
363.525	1.17
363.894	1.46
364.262	1.49
364.631	1.45
364.999	1.4
365.367	1.47
365.735	1.32
366.104	1.42
366.472	1.56
366.84	1.35
367.208	1.11
367.576	1.29
367.944	1.44
368.312	1.21
368.68	1.76
369.048	1.57
369.416	1.55
369.783	1.59
370.151	1.72
370.519	1.49
370.886	1.56
371.254	1.54
371.621	1.63
371.989	1.11
372.356	2.11
372.724	1.67
373.091	1.28
373.458	1.18
373.826	1.46
374.193	1.29
374.56	1.53
374.927	1.47
375.294	1.61
375.661	1.72
376.028	1.66
376.395	1.7
376.762	1.44
377.129	1.73
377.496	1.67
377.863	1.7
378.229	1.81
378.596	1.29
378.963	1.62
379.329	1.62
379.696	1.62
380.062	1.52
380.429	1.21
380.795	1.35
381.161	1.27
381.528	1.75
381.894	1.55
382.26	1.46
382.626	1.88
382.993	1.46
383.359	1.78
383.725	1.61
384.091	1.64
384.457	1.87
384.823	1.68
385.188	1.93
385.554	1.69
385.92	1.44
386.286	1.78
386.651	1.35
387.017	1.62
387.383	1.68
387.748	1.42
388.114	1.85
388.479	1.48
388.845	1.74
389.21	1.52
389.575	1.38
389.94	1.49
390.306	1.42
390.671	1.48
391.036	1.71
391.401	1.81
391.766	1.68
392.131	1.62
392.496	1.63
392.861	1.46
393.226	1.59
393.591	1.28
393.956	1.76
394.32	1.73
394.685	1.57
395.05	1.86
395.414	1.71
395.779	1.41
396.143	1.58
396.508	1.42
396.872	1.67
397.236	1.64
397.601	1.54
397.965	1.41
398.329	1.4
398.694	1.76
399.058	1.47
399.422	1.74
399.786	1.5
400.15	1.57
400.514	1.52
400.878	1.75
401.242	1.58
401.605	1.82
401.969	1.29
402.333	1.56
402.697	1.52
403.06	1.39
403.424	1.76
403.787	1.53
404.151	1.64
404.514	1.52
404.878	1.62
405.241	1.46
405.604	1.55
405.968	1.44
406.331	1.58
406.694	1.59
407.057	1.48
407.42	1.82
407.783	1.53
408.146	1.51
408.509	1.75
408.872	1.72
409.235	1.61
409.598	1.63
409.961	1.69
410.323	1.82
410.686	1.47
411.049	1.61
411.411	1.56
411.774	1.64
412.136	1.65
412.499	1.65
412.861	1.86
413.223	1.59
413.586	1.49
413.948	1.94
414.31	1.99
414.672	1.37
415.035	1.59
415.397	1.65
415.759	1.77
416.121	1.59
416.483	1.95
416.845	1.56
417.206	1.82
417.568	1.88
417.93	1.83
418.292	1.32
418.653	1.75
419.015	1.8
419.377	1.76
419.738	1.58
420.1	1.49
420.461	1.54
420.822	1.59
421.184	1.57
421.545	1.73
421.906	1.57
422.267	1.62
422.629	1.7
422.99	1.55
423.351	1.69
423.712	1.67
424.073	1.64
424.434	1.56
424.795	1.6
425.155	1.63
425.516	1.6
425.877	1.58
426.238	1.6
426.598	1.69
426.959	1.65
427.32	1.78
427.68	1.64
428.041	1.56
428.401	1.63
428.761	1.65
429.122	1.69
429.482	1.7
429.842	1.77
430.202	1.6
430.563	1.73
430.923	1.69
431.283	1.74
431.643	1.77
432.003	1.91
432.363	1.79
432.722	1.91
433.082	1.84
433.442	1.62
433.802	1.83
434.161	1.74
434.521	1.77
434.881	1.65
435.24	1.66
435.6	1.69
435.959	1.73
436.319	1.83
436.678	1.86
437.037	1.76
437.396	1.87
437.756	1.86
438.115	1.68
438.474	1.79
438.833	1.86
439.192	1.69
439.551	1.71
439.91	1.83
440.269	1.94
440.628	1.85
440.987	1.72
441.345	1.72
441.704	1.77
442.063	1.84
442.421	1.74
442.78	1.55
443.138	1.87
443.497	1.82
443.855	1.75
444.214	1.63
444.572	1.7
444.93	1.87
445.288	1.91
445.647	2.02
446.005	1.53
446.363	1.75
446.721	1.93
447.079	1.86
447.437	1.78
447.795	1.68
448.153	1.77
448.51	1.71
448.868	1.78
449.226	1.73
449.584	1.78
449.941	1.69
450.299	1.82
450.656	1.73
451.014	1.88
451.371	1.87
451.729	1.72
452.086	1.82
452.443	1.83
452.801	1.76
453.158	1.91
453.515	1.83
453.872	1.91
454.229	1.86
454.586	1.94
454.943	1.84
455.3	1.81
455.657	1.99
456.014	1.76
456.371	1.94
456.727	1.98
457.084	1.89
457.441	1.85
457.797	1.81
458.154	1.84
458.51	1.86
458.867	1.97
459.223	1.83
459.58	1.9
459.936	1.87
460.292	1.85
460.648	1.74
461.005	1.76
461.361	1.87
461.717	1.74
462.073	1.85
462.429	1.78
462.785	1.86
463.141	1.92
463.496	1.83
463.852	1.88
464.208	2.02
464.564	1.91
464.919	1.81
465.275	2.12
465.631	2.07
465.986	2.01
466.342	1.92
466.697	1.93
467.052	1.81
467.408	1.99
467.763	2.09
468.118	2.11
468.473	2.08
468.829	1.83
469.184	1.86
469.539	2.09
469.894	1.99
470.249	1.86
470.603	1.8
470.958	2.09
471.313	1.98
471.668	2.14
472.023	1.99
472.377	2.11
472.732	1.87
473.086	2.08
473.441	2.08
473.795	2.02
474.15	2.05
474.504	1.81
474.859	1.88
475.213	2
475.567	2.04
475.921	2.08
476.275	2.1
476.63	2.08
476.984	1.98
477.338	2.1
477.692	2
478.045	2.02
478.399	1.94
478.753	2.07
479.107	2.04
479.461	2
479.814	2.12
480.168	2.11
480.521	2.16
480.875	2.03
481.228	2.03
481.582	2.15
481.935	2.01
482.289	2.22
482.642	1.97
482.995	1.94
483.348	2.01
483.701	2.02
484.055	2.02
484.408	2
484.761	1.9
485.114	1.86
485.466	1.91
485.819	1.88
486.172	1.84
486.525	1.87
486.878	1.93
487.23	1.92
487.583	1.92
487.936	1.93
488.288	1.95
488.641	2.01
488.993	1.91
489.345	1.96
489.698	1.93
490.05	1.93
490.402	1.96
490.754	1.95
491.107	1.99
491.459	2.04
491.811	2.04
492.163	1.98
492.515	2.06
492.866	2.08
493.218	2.03
493.57	1.95
493.922	1.98
494.274	1.98
494.625	1.99
494.977	1.98
495.328	2.18
495.68	2.11
496.031	2.01
496.383	2.19
496.734	2.08
497.086	2.15
497.437	2.16
497.788	2.11
498.139	2.3
498.49	2.18
498.842	2.02
499.193	2.14
499.544	2.11
499.894	2.19
500.245	2.06
500.596	2.12
500.947	2.24
501.298	2.33
501.648	2.21
501.999	2.21
502.35	2.2
502.7	2.37
503.051	2.25
503.401	2.27
503.752	2.2
504.102	2.25
504.452	2.22
504.803	2.18
505.153	2.35
505.503	2.32
505.853	2.38
506.203	2.21
506.553	2.14
506.903	2.39
507.253	2.26
507.603	2.28
507.953	2.28
508.303	2.3
508.652	2.25
509.002	2.3
509.352	2.26
509.701	2.2
510.051	2.18
510.4	2.26
510.75	2.41
511.099	2.24
511.449	2.23
511.798	2.29
512.147	2.22
512.496	2.34
512.846	2.18
513.195	2.28
513.544	2.36
513.893	2.28
514.242	2.32
514.591	2.26
514.939	2.27
515.288	2.25
515.637	2.33
515.986	2.38
516.334	2.3
516.683	2.26
517.032	2.2
517.38	2.34
517.729	2.32
518.077	2.32
518.426	2.43
518.774	2.22
519.122	2.39
519.47	2.26
519.819	2.25
520.167	2.25
520.515	2.35
520.863	2.42
521.211	2.32
521.559	2.3
521.907	2.35
522.255	2.42
522.602	2.51
522.95	2.3
523.298	2.44
523.645	2.45
523.993	2.48
524.341	2.3
524.688	2.41
525.036	2.51
525.383	2.41
525.73	2.66
526.078	2.41
526.425	2.46
526.772	2.4
527.119	2.42
527.466	2.48
527.814	2.48
528.161	2.4
528.508	2.35
528.854	2.43
529.201	2.38
529.548	2.54
529.895	2.44
530.242	2.37
530.588	2.31
530.935	2.32
531.282	2.38
531.628	2.42
531.975	2.38
532.321	2.48
532.667	2.45
533.014	2.5
533.36	2.5
533.706	2.6
534.052	2.57
534.399	2.48
534.745	2.43
535.091	2.49
535.437	2.54
535.783	2.52
536.129	2.56
536.474	2.53
536.82	2.57
537.166	2.52
537.512	2.78
537.857	2.65
538.203	2.58
538.549	2.71
538.894	2.66
539.239	2.61
539.585	2.64
539.93	2.63
540.276	2.8
540.621	2.77
540.966	2.8
541.311	2.8
541.656	2.79
542.001	2.8
542.346	2.78
542.691	2.69
543.036	2.64
543.381	2.61
543.726	2.58
544.071	2.63
544.415	2.63
544.76	2.68
545.105	2.74
545.449	2.77
545.794	2.79
546.138	2.77
546.483	2.8
546.827	2.81
547.171	2.88
547.516	2.83
547.86	2.89
548.204	2.79
548.548	2.9
548.892	2.74
549.236	2.9
549.58	2.76
549.924	2.76
550.268	2.93
550.612	3.03
550.956	3.13
551.3	2.91
551.643	3.02
551.987	3.07
552.33	2.96
552.674	3.06
553.017	2.98
553.361	3.05
553.704	3.16
554.048	3.13
554.391	3.13
554.734	3.26
555.077	3.1
555.42	2.92
555.764	3.01
556.107	3.2
556.45	3.08
556.793	3.01
557.135	3.13
557.478	2.95
557.821	3.28
558.164	3.36
558.507	3.4
558.849	3.3
559.192	3.39
559.534	3.47
559.877	3.09
560.219	3.37
560.562	3.3
560.904	3.01
561.246	3.42
561.589	3.16
561.931	3.33
562.273	3.26
562.615	3.39
562.957	3.21
563.299	3.33
563.641	3.44
563.983	3.26
564.325	3.31
564.667	3.35
565.008	3.33
565.35	3.43
565.692	3.5
566.033	3.49
566.375	3.53
566.716	3.49
567.058	3.45
567.399	3.56
567.741	3.43
568.082	3.68
568.423	3.53
568.764	3.5
569.105	3.6
569.447	3.52
569.788	3.58
570.129	3.58
570.47	3.55
570.811	3.76
571.151	3.56
571.492	3.63
571.833	3.89
572.174	3.76
572.514	3.68
572.855	3.55
573.195	3.89
573.536	3.5
573.876	3.82
574.217	3.59
574.557	3.68
574.898	3.71
575.238	3.55
575.578	3.72
575.918	3.73
576.258	3.83
576.598	3.9
576.938	3.86
577.278	3.83
577.618	3.75
577.958	3.78
578.298	3.75
578.638	4.04
578.977	3.94
579.317	3.76
579.657	3.94
579.996	4.01
580.336	4.01
580.675	4.12
581.014	3.89
581.354	3.99
581.693	4.27
582.032	3.99
582.372	4.11
582.711	4.14
583.05	4.5
583.389	4.05
583.728	4.16
584.067	4.16
584.406	4.11
584.745	4.11
585.083	4.08
585.422	4.17
585.761	4.04
586.1	4.52
586.438	4.11
586.777	4.36
587.115	4.32
587.454	4.5
587.792	4.34
588.13	4.09
588.469	4.46
588.807	4.14
589.145	4.41
589.483	4.57
589.821	4.31
590.159	4.65
590.497	4.46
590.835	4.46
591.173	4.57
591.511	4.51
591.849	4.35
592.187	4.53
592.524	4.52
592.862	4.48
593.2	4.89
593.537	4.52
593.875	4.43
594.212	4.82
594.55	4.71
594.887	4.56
595.224	4.52
595.561	4.58
595.899	4.65
596.236	4.75
596.573	4.78
596.91	4.77
597.247	4.78
597.584	4.6
597.921	4.82
598.258	4.79
598.594	5.19
598.931	4.8
599.268	4.63
599.604	4.92
599.941	4.88
600.277	4.8
600.614	4.99
600.95	4.7
601.287	4.88
601.623	5.19
601.959	5.03
602.296	5.18
602.632	5
602.968	4.86
603.304	5.04
603.64	5.07
603.976	4.94
604.312	5.27
604.648	5.33
604.984	5.4
605.319	5.11
605.655	5.13
605.991	5.27
606.326	5.12
606.662	5.04
606.998	5.09
607.333	5.17
607.668	5.2
608.004	5.3
608.339	5.35
608.674	5.43
609.01	5.34
609.345	5.49
609.68	5.46
610.015	5.47
610.35	5.66
610.685	5.65
611.02	5.36
611.355	5.4
611.689	5.41
612.024	5.65
612.359	5.51
612.694	5.43
613.028	5.68
613.363	5.49
613.697	5.68
614.032	5.66
614.366	5.87
614.7	5.63
615.035	5.99
615.369	5.94
615.703	5.2
616.037	5.95
616.371	5.74
616.705	5.93
617.039	5.88
617.373	5.95
617.707	6.3
618.041	5.86
618.375	5.75
618.709	5.77
619.042	6.04
619.376	6.34
619.71	6.33
620.043	6.19
620.377	6.33
620.71	6.28
621.043	6.36
621.377	6.24
621.71	6
622.043	5.84
622.376	6.33
622.709	6.56
623.043	6.48
623.376	6.46
623.709	5.96
624.041	6.42
624.374	6.72
624.707	6.41
625.04	6.53
625.373	6.58
625.705	6.03
626.038	6.58
626.37	5.89
626.703	6.66
627.035	6.18
627.368	6.49
627.7	6.5
628.032	6.31
628.365	6.4
628.697	6.64
629.029	6.57
629.361	6.5
629.693	6.8
630.025	6.76
630.357	6.9
630.689	6.55
631.021	6.94
631.353	6.89
631.684	6.7
632.016	7.09
632.348	6.56
632.679	6.87
633.011	6.93
633.342	6.79
633.674	7.1
634.005	6.92
634.336	7.54
634.668	6.78
634.999	6.88
635.33	6.71
635.661	7.28
635.992	7.21
636.323	7.29
636.654	7.07
636.985	7.21
637.316	7.16
637.647	6.74
637.977	6.77
638.308	7
638.639	7.33
638.969	7.61
639.3	7.01
639.63	7.29
639.961	7.3
640.291	7.54
640.622	7.18
640.952	7.6
641.282	7.34
641.612	7.55
641.943	7.71
642.273	7.18
642.603	7.89
642.933	7.72
643.263	8.11
643.592	7.44
643.922	8.1
644.252	7.39
644.582	7.64
644.911	7.6
645.241	8.46
645.571	8.12
645.9	7.75
646.23	7.8
646.559	7.65
646.888	8.03
647.218	7.98
647.547	7.72
647.876	8.21
648.205	8.55
648.534	8.1
648.863	8.24
649.192	7.83
649.521	7.96
649.85	7.97
650.179	8.07
650.508	7.94
650.837	8.46
651.165	8.5
651.494	8
651.822	8.29
652.151	8.37
652.479	7.97
652.808	8.49
653.136	7.98
653.465	8.48
653.793	8.42
654.121	8.82
654.449	8.83
654.777	8.14
655.105	8.33
655.433	8.6
655.761	8.62
656.089	8.82
656.417	8.66
656.745	8.81
657.073	8.82
657.4	9.52
657.728	8.76
658.056	9.11
658.383	9.2
658.711	9.05
659.038	9.2
659.365	9.03
659.693	8.62
660.02	8.77
660.347	8.86
660.674	8.93
661.001	8.88
661.329	8.86
661.656	9.17
661.982	9.05
662.309	8.92
662.636	8.89
662.963	9.01
663.29	9.13
663.616	9.48
663.943	8.69
664.27	9.44
664.596	9.45
664.923	9.08
665.249	9.22
665.576	8.99
665.902	9.36
666.228	9.5
666.554	9.82
666.881	9
667.207	9.85
667.533	9.55
667.859	9.58
668.185	9.39
668.511	10.09
668.837	9.47
669.162	9.64
669.488	9.87
669.814	9.15
670.139	10.27
670.465	9.61
670.791	10.04
671.116	9.85
671.442	9.88
671.767	9.89
672.092	10.17
672.418	10.14
672.743	10.52
673.068	10.14
673.393	9.93
673.718	10.11
674.043	10.37
674.368	10.04
674.693	9.97
675.018	10.31
675.343	9.83
675.667	10.07
675.992	10.08
676.317	9.73
676.641	9.95
676.966	10.88
677.29	10.47
677.615	10.49
677.939	9.99
678.264	9.79
678.588	10.42
678.912	10.26
679.236	10.13
679.56	11.03
679.885	10.74
680.209	10.52
680.532	10.86
680.856	10.78
681.18	10.42
681.504	10.49
681.828	11.36
682.152	11.27
682.475	10.43
682.799	10.68
683.122	10.7
683.446	10.67
683.769	11.42
684.093	11.16
684.416	11.03
684.739	10.52
685.062	10.64
685.386	11.09
685.709	11.4
686.032	11.33
686.355	11.8
686.678	10.93
687.001	11.32
687.324	10.58
687.646	11.23
687.969	11.27
688.292	11.33
688.614	11.83
688.937	11.55
689.26	11.28
689.582	11.34
689.904	11.12
690.227	11.72
690.549	10.93
690.871	11.3
691.194	11.64
